PE IR       SPECTRUM    SPECTRUM    ASCII       PEDS        1.60        
  -1
C-4040~1.ASC
17/05/02
10:48:50.00
17/05/02
10:48:50.00
tln
$C-4040-8_e0037$<ebV0>[-23.3,12.1,10.0,0.0,22,1,0]
370.000000
64









2002,4.07    
MIRTGS : RIGHTBACK : INTERNAL 2
MIR : ON : INTERNAL 2
OPTKBR

0.200000
8
8.000000
FILLER
SINGLE
SPECTRUM
UNLOCKED 256

DOUBLE

COMBINED
1
0
0


1.000000
BACKG


1
0
TRUE
51149
0
LEFT NOT FITTED RIGHT NOT FITTED 0
NONE
NONE
15600
12.000000
4.427000
51148
TRUE
1 0 8 72 0 0 0 0 

15798.010000






#HDR
-1
-1
#GR
CM-1
EGY
0.00002384185791015625
0.0
7800.000000
-1.000000
7431
8
2.447628
0.006937
#DATA
7800.000000	0.034904 
7799.000000	0.035333 
7798.000000	0.035738 
7797.000000	0.036144 
7796.000000	0.036525 
7795.000000	0.036931 
7794.000000	0.037312 
7793.000000	0.037622 
7792.000000	0.037884 
7791.000000	0.038027 
7790.000000	0.038075 
7789.000000	0.037980 
7788.000000	0.037789 
7787.000000	0.037550 
7786.000000	0.037360 
7785.000000	0.037193 
7784.000000	0.037193 
7783.000000	0.037312 
7782.000000	0.037550 
7781.000000	0.037932 
7780.000000	0.038456 
7779.000000	0.039005 
7778.000000	0.039577 
7777.000000	0.040078 
7776.000000	0.040459 
7775.000000	0.040721 
7774.000000	0.040817 
7773.000000	0.040817 
7772.000000	0.040674 
7771.000000	0.040531 
7770.000000	0.040459 
7769.000000	0.040435 
7768.000000	0.040507 
7767.000000	0.040698 
7766.000000	0.040984 
7765.000000	0.041317 
7764.000000	0.041627 
7763.000000	0.041937 
7762.000000	0.042223 
7761.000000	0.042343 
7760.000000	0.042438 
7759.000000	0.042510 
7758.000000	0.042557 
7757.000000	0.042653 
7756.000000	0.042796 
7755.000000	0.043010 
7754.000000	0.043272 
7753.000000	0.043630 
7752.000000	0.043988 
7751.000000	0.044345 
7750.000000	0.044703 
7749.000000	0.045061 
7748.000000	0.045347 
7747.000000	0.045657 
7746.000000	0.045943 
7745.000000	0.046205 
7744.000000	0.046443 
7743.000000	0.046658 
7742.000000	0.046801 
7741.000000	0.046920 
7740.000000	0.046968 
7739.000000	0.046992 
7738.000000	0.046968 
7737.000000	0.046944 
7736.000000	0.046920 
7735.000000	0.046944 
7734.000000	0.046992 
7733.000000	0.047159 
7732.000000	0.047373 
7731.000000	0.047636 
7730.000000	0.048041 
7729.000000	0.048518 
7728.000000	0.049066 
7727.000000	0.049710 
7726.000000	0.050449 
7725.000000	0.051283 
7724.000000	0.052094 
7723.000000	0.052881 
7722.000000	0.053548 
7721.000000	0.054049 
7720.000000	0.054311 
7719.000000	0.054359 
7718.000000	0.054168 
7717.000000	0.053811 
7716.000000	0.053358 
7715.000000	0.052905 
7714.000000	0.052499 
7713.000000	0.052189 
7712.000000	0.052046 
7711.000000	0.052070 
7710.000000	0.052165 
7709.000000	0.052309 
7708.000000	0.052499 
7707.000000	0.052618 
7706.000000	0.052690 
7705.000000	0.052762 
7704.000000	0.052833 
7703.000000	0.053000 
7702.000000	0.053262 
7701.000000	0.053644 
7700.000000	0.054240 
7699.000000	0.054931 
7698.000000	0.055718 
7697.000000	0.056529 
7696.000000	0.057339 
7695.000000	0.058054 
7694.000000	0.058650 
7693.000000	0.059080 
7692.000000	0.059366 
7691.000000	0.059533 
7690.000000	0.059580 
7689.000000	0.059485 
7688.000000	0.059318 
7687.000000	0.059056 
7686.000000	0.058746 
7685.000000	0.058388 
7684.000000	0.058031 
7683.000000	0.057673 
7682.000000	0.057339 
7681.000000	0.057053 
7680.000000	0.056862 
7679.000000	0.056719 
7678.000000	0.056648 
7677.000000	0.056648 
7676.000000	0.056672 
7675.000000	0.056719 
7674.000000	0.056838 
7673.000000	0.056958 
7672.000000	0.057101 
7671.000000	0.057268 
7670.000000	0.057435 
7669.000000	0.057673 
7668.000000	0.057935 
7667.000000	0.058245 
7666.000000	0.058603 
7665.000000	0.059008 
7664.000000	0.059413 
7663.000000	0.059819 
7662.000000	0.060224 
7661.000000	0.060582 
7660.000000	0.060868 
7659.000000	0.061035 
7658.000000	0.061035 
7657.000000	0.060987 
7656.000000	0.060820 
7655.000000	0.060606 
7654.000000	0.060415 
7653.000000	0.060272 
7652.000000	0.060248 
7651.000000	0.060391 
7650.000000	0.060701 
7649.000000	0.061106 
7648.000000	0.061583 
7647.000000	0.061988 
7646.000000	0.062298 
7645.000000	0.062465 
7644.000000	0.062394 
7643.000000	0.062155 
7642.000000	0.061798 
7641.000000	0.061368 
7640.000000	0.061011 
7639.000000	0.060725 
7638.000000	0.060653 
7637.000000	0.060820 
7636.000000	0.061154 
7635.000000	0.061655 
7634.000000	0.062227 
7633.000000	0.062751 
7632.000000	0.063276 
7631.000000	0.063705 
7630.000000	0.064039 
7629.000000	0.064301 
7628.000000	0.064492 
7627.000000	0.064635 
7626.000000	0.064754 
7625.000000	0.064873 
7624.000000	0.065016 
7623.000000	0.065183 
7622.000000	0.065398 
7621.000000	0.065708 
7620.000000	0.066113 
7619.000000	0.066590 
7618.000000	0.067114 
7617.000000	0.067639 
7616.000000	0.068187 
7615.000000	0.068640 
7614.000000	0.068950 
7613.000000	0.069141 
7612.000000	0.069212 
7611.000000	0.069189 
7610.000000	0.069117 
7609.000000	0.069046 
7608.000000	0.069046 
7607.000000	0.069141 
7606.000000	0.069355 
7605.000000	0.069642 
7604.000000	0.069999 
7603.000000	0.070452 
7602.000000	0.070905 
7601.000000	0.071406 
7600.000000	0.071883 
7599.000000	0.072383 
7598.000000	0.072908 
7597.000000	0.073432 
7596.000000	0.073909 
7595.000000	0.074338 
7594.000000	0.074672 
7593.000000	0.074911 
7592.000000	0.075006 
7591.000000	0.074958 
7590.000000	0.074791 
7589.000000	0.074529 
7588.000000	0.074219 
7587.000000	0.073838 
7586.000000	0.073504 
7585.000000	0.073122 
7584.000000	0.072789 
7583.000000	0.072455 
7582.000000	0.072169 
7581.000000	0.071907 
7580.000000	0.071620 
7579.000000	0.071382 
7578.000000	0.071191 
7577.000000	0.071072 
7576.000000	0.071001 
7575.000000	0.071048 
7574.000000	0.071167 
7573.000000	0.071334 
7572.000000	0.071501 
7571.000000	0.071668 
7570.000000	0.071787 
7569.000000	0.071859 
7568.000000	0.071859 
7567.000000	0.071835 
7566.000000	0.071787 
7565.000000	0.071787 
7564.000000	0.071859 
7563.000000	0.072002 
7562.000000	0.072240 
7561.000000	0.072526 
7560.000000	0.072813 
7559.000000	0.073099 
7558.000000	0.073289 
7557.000000	0.073432 
7556.000000	0.073456 
7555.000000	0.073456 
7554.000000	0.073432 
7553.000000	0.073528 
7552.000000	0.073671 
7551.000000	0.073957 
7550.000000	0.074386 
7549.000000	0.074863 
7548.000000	0.075340 
7547.000000	0.075745 
7546.000000	0.076007 
7545.000000	0.076150 
7544.000000	0.076127 
7543.000000	0.076031 
7542.000000	0.075936 
7541.000000	0.075840 
7540.000000	0.075888 
7539.000000	0.076127 
7538.000000	0.076508 
7537.000000	0.076985 
7536.000000	0.077533 
7535.000000	0.078153 
7534.000000	0.078725 
7533.000000	0.079274 
7532.000000	0.079751 
7531.000000	0.080156 
7530.000000	0.080561 
7529.000000	0.080895 
7528.000000	0.081229 
7527.000000	0.081586 
7526.000000	0.081872 
7525.000000	0.082087 
7524.000000	0.082230 
7523.000000	0.082278 
7522.000000	0.082182 
7521.000000	0.081944 
7520.000000	0.081682 
7519.000000	0.081396 
7518.000000	0.081133 
7517.000000	0.080919 
7516.000000	0.080823 
7515.000000	0.080776 
7514.000000	0.080895 
7513.000000	0.081086 
7512.000000	0.081372 
7511.000000	0.081706 
7510.000000	0.082111 
7509.000000	0.082540 
7508.000000	0.082969 
7507.000000	0.083422 
7506.000000	0.083851 
7505.000000	0.084233 
7504.000000	0.084567 
7503.000000	0.084829 
7502.000000	0.085067 
7501.000000	0.085210 
7500.000000	0.085258 
7499.000000	0.085258 
7498.000000	0.085210 
7497.000000	0.085139 
7496.000000	0.085067 
7495.000000	0.084948 
7494.000000	0.084853 
7493.000000	0.084733 
7492.000000	0.084614 
7491.000000	0.084543 
7490.000000	0.084495 
7489.000000	0.084447 
7488.000000	0.084471 
7487.000000	0.084495 
7486.000000	0.084567 
7485.000000	0.084733 
7484.000000	0.084948 
7483.000000	0.085258 
7482.000000	0.085592 
7481.000000	0.085997 
7480.000000	0.086426 
7479.000000	0.086832 
7478.000000	0.087213 
7477.000000	0.087475 
7476.000000	0.087618 
7475.000000	0.087642 
7474.000000	0.087547 
7473.000000	0.087308 
7472.000000	0.086998 
7471.000000	0.086617 
7470.000000	0.086283 
7469.000000	0.086045 
7468.000000	0.085878 
7467.000000	0.085806 
7466.000000	0.085878 
7465.000000	0.086069 
7464.000000	0.086259 
7463.000000	0.086474 
7462.000000	0.086665 
7461.000000	0.086808 
7460.000000	0.086855 
7459.000000	0.086832 
7458.000000	0.086808 
7457.000000	0.086784 
7456.000000	0.086760 
7455.000000	0.086808 
7454.000000	0.086903 
7453.000000	0.087094 
7452.000000	0.087285 
7451.000000	0.087451 
7450.000000	0.087594 
7449.000000	0.087642 
7448.000000	0.087666 
7447.000000	0.087642 
7446.000000	0.087618 
7445.000000	0.087666 
7444.000000	0.087785 
7443.000000	0.088071 
7442.000000	0.088524 
7441.000000	0.089120 
7440.000000	0.089836 
7439.000000	0.090599 
7438.000000	0.091361 
7437.000000	0.092029 
7436.000000	0.092554 
7435.000000	0.092911 
7434.000000	0.093030 
7433.000000	0.092983 
7432.000000	0.092720 
7431.000000	0.092363 
7430.000000	0.091886 
7429.000000	0.091361 
7428.000000	0.090885 
7427.000000	0.090408 
7426.000000	0.090026 
7425.000000	0.089788 
7424.000000	0.089693 
7423.000000	0.089716 
7422.000000	0.089859 
7421.000000	0.090217 
7420.000000	0.090670 
7419.000000	0.091147 
7418.000000	0.091624 
7417.000000	0.092029 
7416.000000	0.092315 
7415.000000	0.092411 
7414.000000	0.092387 
7413.000000	0.092244 
7412.000000	0.092029 
7411.000000	0.091791 
7410.000000	0.091552 
7409.000000	0.091409 
7408.000000	0.091385 
7407.000000	0.091433 
7406.000000	0.091505 
7405.000000	0.091600 
7404.000000	0.091743 
7403.000000	0.091886 
7402.000000	0.091981 
7401.000000	0.092101 
7400.000000	0.092244 
7399.000000	0.092434 
7398.000000	0.092649 
7397.000000	0.092935 
7396.000000	0.093269 
7395.000000	0.093579 
7394.000000	0.093960 
7393.000000	0.094366 
7392.000000	0.094771 
7391.000000	0.095200 
7390.000000	0.095605 
7389.000000	0.096035 
7388.000000	0.096487 
7387.000000	0.096845 
7386.000000	0.097131 
7385.000000	0.097322 
7384.000000	0.097465 
7383.000000	0.097513 
7382.000000	0.097513 
7381.000000	0.097537 
7380.000000	0.097608 
7379.000000	0.097775 
7378.000000	0.098109 
7377.000000	0.098538 
7376.000000	0.099110 
7375.000000	0.099778 
7374.000000	0.100469 
7373.000000	0.101089 
7372.000000	0.101566 
7371.000000	0.101757 
7370.000000	0.101685 
7369.000000	0.101351 
7368.000000	0.100755 
7367.000000	0.099992 
7366.000000	0.099205 
7365.000000	0.098443 
7364.000000	0.097846 
7363.000000	0.097465 
7362.000000	0.097322 
7361.000000	0.097417 
7360.000000	0.097727 
7359.000000	0.098133 
7358.000000	0.098681 
7357.000000	0.099229 
7356.000000	0.099754 
7355.000000	0.100278 
7354.000000	0.100755 
7353.000000	0.101161 
7352.000000	0.101566 
7351.000000	0.101947 
7350.000000	0.102233 
7349.000000	0.102496 
7348.000000	0.102734 
7347.000000	0.102901 
7346.000000	0.102972 
7345.000000	0.103020 
7344.000000	0.102972 
7343.000000	0.102853 
7342.000000	0.102782 
7341.000000	0.102686 
7340.000000	0.102591 
7339.000000	0.102519 
7338.000000	0.102519 
7337.000000	0.102591 
7336.000000	0.102686 
7335.000000	0.102853 
7334.000000	0.103044 
7333.000000	0.103282 
7332.000000	0.103545 
7331.000000	0.103783 
7330.000000	0.103998 
7329.000000	0.104188 
7328.000000	0.104355 
7327.000000	0.104403 
7326.000000	0.104355 
7325.000000	0.104212 
7324.000000	0.104022 
7323.000000	0.103807 
7322.000000	0.103592 
7321.000000	0.103425 
7320.000000	0.103330 
7319.000000	0.103259 
7318.000000	0.103235 
7317.000000	0.103259 
7316.000000	0.103306 
7315.000000	0.103306 
7314.000000	0.103330 
7313.000000	0.103402 
7312.000000	0.103569 
7311.000000	0.103950 
7310.000000	0.104475 
7309.000000	0.105166 
7308.000000	0.106000 
7307.000000	0.106883 
7306.000000	0.107812 
7305.000000	0.108647 
7304.000000	0.109362 
7303.000000	0.109910 
7302.000000	0.110292 
7301.000000	0.110459 
7300.000000	0.110530 
7299.000000	0.110411 
7298.000000	0.110244 
7297.000000	0.110006 
7296.000000	0.109696 
7295.000000	0.109362 
7294.000000	0.109028 
7293.000000	0.108742 
7292.000000	0.108504 
7291.000000	0.108361 
7290.000000	0.108313 
7289.000000	0.108408 
7288.000000	0.108623 
7287.000000	0.108909 
7286.000000	0.109291 
7285.000000	0.109696 
7284.000000	0.110125 
7283.000000	0.110459 
7282.000000	0.110721 
7281.000000	0.110864 
7280.000000	0.110912 
7279.000000	0.110840 
7278.000000	0.110697 
7277.000000	0.110507 
7276.000000	0.110292 
7275.000000	0.110173 
7274.000000	0.110125 
7273.000000	0.110268 
7272.000000	0.110530 
7271.000000	0.110864 
7270.000000	0.111269 
7269.000000	0.111746 
7268.000000	0.112271 
7267.000000	0.112795 
7266.000000	0.113344 
7265.000000	0.113892 
7264.000000	0.114393 
7263.000000	0.114822 
7262.000000	0.115180 
7261.000000	0.115466 
7260.000000	0.115585 
7259.000000	0.115633 
7258.000000	0.115537 
7257.000000	0.115323 
7256.000000	0.115060 
7255.000000	0.114750 
7254.000000	0.114440 
7253.000000	0.114154 
7252.000000	0.113916 
7251.000000	0.113773 
7250.000000	0.113701 
7249.000000	0.113725 
7248.000000	0.113844 
7247.000000	0.114107 
7246.000000	0.114488 
7245.000000	0.114965 
7244.000000	0.115537 
7243.000000	0.116133 
7242.000000	0.116729 
7241.000000	0.117278 
7240.000000	0.117754 
7239.000000	0.118064 
7238.000000	0.118207 
7237.000000	0.118231 
7236.000000	0.118112 
7235.000000	0.117874 
7234.000000	0.117516 
7233.000000	0.117158 
7232.000000	0.116801 
7231.000000	0.116443 
7230.000000	0.116157 
7229.000000	0.115942 
7228.000000	0.115799 
7227.000000	0.115752 
7226.000000	0.115776 
7225.000000	0.115895 
7224.000000	0.116038 
7223.000000	0.116205 
7222.000000	0.116324 
7221.000000	0.116467 
7220.000000	0.116610 
7219.000000	0.116753 
7218.000000	0.116968 
7217.000000	0.117278 
7216.000000	0.117731 
7215.000000	0.118303 
7214.000000	0.118947 
7213.000000	0.119709 
7212.000000	0.120472 
7211.000000	0.121164 
7210.000000	0.121760 
7209.000000	0.122117 
7208.000000	0.122332 
7207.000000	0.122380 
7206.000000	0.122284 
7205.000000	0.122117 
7204.000000	0.121855 
7203.000000	0.121593 
7202.000000	0.121307 
7201.000000	0.121021 
7200.000000	0.120687 
7199.000000	0.120377 
7198.000000	0.120067 
7197.000000	0.119781 
7196.000000	0.119590 
7195.000000	0.119543 
7194.000000	0.119638 
7193.000000	0.119900 
7192.000000	0.120329 
7191.000000	0.120806 
7190.000000	0.121307 
7189.000000	0.121760 
7188.000000	0.122117 
7187.000000	0.122332 
7186.000000	0.122499 
7185.000000	0.122523 
7184.000000	0.122570 
7183.000000	0.122594 
7182.000000	0.122714 
7181.000000	0.122880 
7180.000000	0.123214 
7179.000000	0.123596 
7178.000000	0.124049 
7177.000000	0.124549 
7176.000000	0.125050 
7175.000000	0.125527 
7174.000000	0.126004 
7173.000000	0.126385 
7172.000000	0.126743 
7171.000000	0.127077 
7170.000000	0.127410 
7169.000000	0.127792 
7168.000000	0.128197 
7167.000000	0.128698 
7166.000000	0.129294 
7165.000000	0.129914 
7164.000000	0.130510 
7163.000000	0.131011 
7162.000000	0.131368 
7161.000000	0.131583 
7160.000000	0.131630 
7159.000000	0.131559 
7158.000000	0.131368 
7157.000000	0.131201 
7156.000000	0.131011 
7155.000000	0.130915 
7154.000000	0.130867 
7153.000000	0.130867 
7152.000000	0.130915 
7151.000000	0.130915 
7150.000000	0.130915 
7149.000000	0.130891 
7148.000000	0.130867 
7147.000000	0.130820 
7146.000000	0.130796 
7145.000000	0.130796 
7144.000000	0.130844 
7143.000000	0.130915 
7142.000000	0.131034 
7141.000000	0.131177 
7140.000000	0.131392 
7139.000000	0.131654 
7138.000000	0.131916 
7137.000000	0.132179 
7136.000000	0.132393 
7135.000000	0.132536 
7134.000000	0.132632 
7133.000000	0.132632 
7132.000000	0.132560 
7131.000000	0.132441 
7130.000000	0.132322 
7129.000000	0.132226 
7128.000000	0.132179 
7127.000000	0.132203 
7126.000000	0.132322 
7125.000000	0.132489 
7124.000000	0.132656 
7123.000000	0.132799 
7122.000000	0.132870 
7121.000000	0.132894 
7120.000000	0.132918 
7119.000000	0.132918 
7118.000000	0.132918 
7117.000000	0.132942 
7116.000000	0.133013 
7115.000000	0.133085 
7114.000000	0.133228 
7113.000000	0.133347 
7112.000000	0.133490 
7111.000000	0.133585 
7110.000000	0.133633 
7109.000000	0.133633 
7108.000000	0.133562 
7107.000000	0.133466 
7106.000000	0.133299 
7105.000000	0.133085 
7104.000000	0.132846 
7103.000000	0.132608 
7102.000000	0.132346 
7101.000000	0.132131 
7100.000000	0.131940 
7099.000000	0.131773 
7098.000000	0.131726 
7097.000000	0.131750 
7096.000000	0.131845 
7095.000000	0.132036 
7094.000000	0.132346 
7093.000000	0.132751 
7092.000000	0.133180 
7091.000000	0.133609 
7090.000000	0.134110 
7089.000000	0.134563 
7088.000000	0.134968 
7087.000000	0.135374 
7086.000000	0.135707 
7085.000000	0.136041 
7084.000000	0.136351 
7083.000000	0.136637 
7082.000000	0.136876 
7081.000000	0.137066 
7080.000000	0.137209 
7079.000000	0.137329 
7078.000000	0.137400 
7077.000000	0.137472 
7076.000000	0.137615 
7075.000000	0.137853 
7074.000000	0.138235 
7073.000000	0.138688 
7072.000000	0.139307 
7071.000000	0.139927 
7070.000000	0.140571 
7069.000000	0.141072 
7068.000000	0.141429 
7067.000000	0.141549 
7066.000000	0.141453 
7065.000000	0.141143 
7064.000000	0.140666 
7063.000000	0.140142 
7062.000000	0.139617 
7061.000000	0.139212 
7060.000000	0.139021 
7059.000000	0.138998 
7058.000000	0.139212 
7057.000000	0.139546 
7056.000000	0.140023 
7055.000000	0.140476 
7054.000000	0.140857 
7053.000000	0.141072 
7052.000000	0.141167 
7051.000000	0.141143 
7050.000000	0.141024 
7049.000000	0.140929 
7048.000000	0.140905 
7047.000000	0.141024 
7046.000000	0.141310 
7045.000000	0.141763 
7044.000000	0.142359 
7043.000000	0.143027 
7042.000000	0.143766 
7041.000000	0.144481 
7040.000000	0.145125 
7039.000000	0.145721 
7038.000000	0.146222 
7037.000000	0.146651 
7036.000000	0.146961 
7035.000000	0.147175 
7034.000000	0.147247 
7033.000000	0.147199 
7032.000000	0.147032 
7031.000000	0.146746 
7030.000000	0.146460 
7029.000000	0.146174 
7028.000000	0.145912 
7027.000000	0.145745 
7026.000000	0.145673 
7025.000000	0.145697 
7024.000000	0.145769 
7023.000000	0.145816 
7022.000000	0.145888 
7021.000000	0.145912 
7020.000000	0.145936 
7019.000000	0.146031 
7018.000000	0.146245 
7017.000000	0.146651 
7016.000000	0.147247 
7015.000000	0.148105 
7014.000000	0.149154 
7013.000000	0.150346 
7012.000000	0.151562 
7011.000000	0.152707 
7010.000000	0.153684 
7009.000000	0.154328 
7008.000000	0.154614 
7007.000000	0.154495 
7006.000000	0.153994 
7005.000000	0.153136 
7004.000000	0.152063 
7003.000000	0.150871 
7002.000000	0.149703 
7001.000000	0.148725 
7000.000000	0.148010 
6999.000000	0.147581 
6998.000000	0.147461 
6997.000000	0.147604 
6996.000000	0.147891 
6995.000000	0.148224 
6994.000000	0.148487 
6993.000000	0.148630 
6992.000000	0.148677 
6991.000000	0.148630 
6990.000000	0.148558 
6989.000000	0.148534 
6988.000000	0.148630 
6987.000000	0.148868 
6986.000000	0.149250 
6985.000000	0.149774 
6984.000000	0.150370 
6983.000000	0.151038 
6982.000000	0.151610 
6981.000000	0.152087 
6980.000000	0.152397 
6979.000000	0.152516 
6978.000000	0.152444 
6977.000000	0.152206 
6976.000000	0.151848 
6975.000000	0.151467 
6974.000000	0.151109 
6973.000000	0.150966 
6972.000000	0.150918 
6971.000000	0.151157 
6970.000000	0.151634 
6969.000000	0.152349 
6968.000000	0.153231 
6967.000000	0.154185 
6966.000000	0.155115 
6965.000000	0.155997 
6964.000000	0.156736 
6963.000000	0.157308 
6962.000000	0.157642 
6961.000000	0.157856 
6960.000000	0.157928 
6959.000000	0.157928 
6958.000000	0.157928 
6957.000000	0.157928 
6956.000000	0.157952 
6955.000000	0.158071 
6954.000000	0.158238 
6953.000000	0.158429 
6952.000000	0.158643 
6951.000000	0.158858 
6950.000000	0.159049 
6949.000000	0.159215 
6948.000000	0.159358 
6947.000000	0.159430 
6946.000000	0.159430 
6945.000000	0.159335 
6944.000000	0.159192 
6943.000000	0.158977 
6942.000000	0.158715 
6941.000000	0.158452 
6940.000000	0.158166 
6939.000000	0.158047 
6938.000000	0.158023 
6937.000000	0.158095 
6936.000000	0.158309 
6935.000000	0.158643 
6934.000000	0.159072 
6933.000000	0.159525 
6932.000000	0.159955 
6931.000000	0.160264 
6930.000000	0.160479 
6929.000000	0.160527 
6928.000000	0.160479 
6927.000000	0.160264 
6926.000000	0.160002 
6925.000000	0.159740 
6924.000000	0.159454 
6923.000000	0.159263 
6922.000000	0.159192 
6921.000000	0.159239 
6920.000000	0.159382 
6919.000000	0.159621 
6918.000000	0.159859 
6917.000000	0.160121 
6916.000000	0.160384 
6915.000000	0.160574 
6914.000000	0.160717 
6913.000000	0.160837 
6912.000000	0.161027 
6911.000000	0.161218 
6910.000000	0.161457 
6909.000000	0.161790 
6908.000000	0.162148 
6907.000000	0.162553 
6906.000000	0.162959 
6905.000000	0.163364 
6904.000000	0.163674 
6903.000000	0.163888 
6902.000000	0.164055 
6901.000000	0.164127 
6900.000000	0.164151 
6899.000000	0.164198 
6898.000000	0.164270 
6897.000000	0.164437 
6896.000000	0.164675 
6895.000000	0.165009 
6894.000000	0.165367 
6893.000000	0.165724 
6892.000000	0.166082 
6891.000000	0.166344 
6890.000000	0.166535 
6889.000000	0.166749 
6888.000000	0.166893 
6887.000000	0.166988 
6886.000000	0.167083 
6885.000000	0.167179 
6884.000000	0.167274 
6883.000000	0.167346 
6882.000000	0.167369 
6881.000000	0.167369 
6880.000000	0.167369 
6879.000000	0.167393 
6878.000000	0.167465 
6877.000000	0.167584 
6876.000000	0.167798 
6875.000000	0.168061 
6874.000000	0.168371 
6873.000000	0.168633 
6872.000000	0.168824 
6871.000000	0.168919 
6870.000000	0.168895 
6869.000000	0.168776 
6868.000000	0.168681 
6867.000000	0.168585 
6866.000000	0.168514 
6865.000000	0.168490 
6864.000000	0.168538 
6863.000000	0.168657 
6862.000000	0.168728 
6861.000000	0.168776 
6860.000000	0.168776 
6859.000000	0.168704 
6858.000000	0.168538 
6857.000000	0.168371 
6856.000000	0.168204 
6855.000000	0.168156 
6854.000000	0.168228 
6853.000000	0.168490 
6852.000000	0.168871 
6851.000000	0.169491 
6850.000000	0.170207 
6849.000000	0.170993 
6848.000000	0.171780 
6847.000000	0.172472 
6846.000000	0.173044 
6845.000000	0.173497 
6844.000000	0.173807 
6843.000000	0.174021 
6842.000000	0.174236 
6841.000000	0.174403 
6840.000000	0.174593 
6839.000000	0.174808 
6838.000000	0.174975 
6837.000000	0.175118 
6836.000000	0.175189 
6835.000000	0.175189 
6834.000000	0.175118 
6833.000000	0.174999 
6832.000000	0.174808 
6831.000000	0.174665 
6830.000000	0.174617 
6829.000000	0.174570 
6828.000000	0.174593 
6827.000000	0.174713 
6826.000000	0.174832 
6825.000000	0.174927 
6824.000000	0.174975 
6823.000000	0.174903 
6822.000000	0.174760 
6821.000000	0.174570 
6820.000000	0.174355 
6819.000000	0.174164 
6818.000000	0.174021 
6817.000000	0.174021 
6816.000000	0.174164 
6815.000000	0.174450 
6814.000000	0.174903 
6813.000000	0.175499 
6812.000000	0.176167 
6811.000000	0.176858 
6810.000000	0.177478 
6809.000000	0.178027 
6808.000000	0.178432 
6807.000000	0.178718 
6806.000000	0.178885 
6805.000000	0.178980 
6804.000000	0.179052 
6803.000000	0.179100 
6802.000000	0.179195 
6801.000000	0.179290 
6800.000000	0.179409 
6799.000000	0.179505 
6798.000000	0.179505 
6797.000000	0.179433 
6796.000000	0.179290 
6795.000000	0.179052 
6794.000000	0.178790 
6793.000000	0.178575 
6792.000000	0.178360 
6791.000000	0.178194 
6790.000000	0.178146 
6789.000000	0.178122 
6788.000000	0.178146 
6787.000000	0.178217 
6786.000000	0.178313 
6785.000000	0.178408 
6784.000000	0.178527 
6783.000000	0.178742 
6782.000000	0.179028 
6781.000000	0.179409 
6780.000000	0.179815 
6779.000000	0.180339 
6778.000000	0.180912 
6777.000000	0.181508 
6776.000000	0.182080 
6775.000000	0.182604 
6774.000000	0.183033 
6773.000000	0.183320 
6772.000000	0.183463 
6771.000000	0.183510 
6770.000000	0.183367 
6769.000000	0.183153 
6768.000000	0.182867 
6767.000000	0.182557 
6766.000000	0.182318 
6765.000000	0.182151 
6764.000000	0.182080 
6763.000000	0.182056 
6762.000000	0.182080 
6761.000000	0.182175 
6760.000000	0.182223 
6759.000000	0.182294 
6758.000000	0.182366 
6757.000000	0.182485 
6756.000000	0.182628 
6755.000000	0.182819 
6754.000000	0.183176 
6753.000000	0.183558 
6752.000000	0.184059 
6751.000000	0.184631 
6750.000000	0.185227 
6749.000000	0.185894 
6748.000000	0.186538 
6747.000000	0.187206 
6746.000000	0.187849 
6745.000000	0.188446 
6744.000000	0.188994 
6743.000000	0.189447 
6742.000000	0.189805 
6741.000000	0.190043 
6740.000000	0.190138 
6739.000000	0.190162 
6738.000000	0.190114 
6737.000000	0.190043 
6736.000000	0.189924 
6735.000000	0.189828 
6734.000000	0.189685 
6733.000000	0.189566 
6732.000000	0.189375 
6731.000000	0.189137 
6730.000000	0.188827 
6729.000000	0.188398 
6728.000000	0.187897 
6727.000000	0.187397 
6726.000000	0.186872 
6725.000000	0.186419 
6724.000000	0.186109 
6723.000000	0.185942 
6722.000000	0.185966 
6721.000000	0.186181 
6720.000000	0.186634 
6719.000000	0.187206 
6718.000000	0.187873 
6717.000000	0.188589 
6716.000000	0.189328 
6715.000000	0.189971 
6714.000000	0.190520 
6713.000000	0.190925 
6712.000000	0.191164 
6711.000000	0.191259 
6710.000000	0.191187 
6709.000000	0.190973 
6708.000000	0.190687 
6707.000000	0.190329 
6706.000000	0.189971 
6705.000000	0.189590 
6704.000000	0.189208 
6703.000000	0.188827 
6702.000000	0.188493 
6701.000000	0.188231 
6700.000000	0.187969 
6699.000000	0.187778 
6698.000000	0.187683 
6697.000000	0.187659 
6696.000000	0.187778 
6695.000000	0.187945 
6694.000000	0.188207 
6693.000000	0.188493 
6692.000000	0.188803 
6691.000000	0.189113 
6690.000000	0.189399 
6689.000000	0.189685 
6688.000000	0.189948 
6687.000000	0.190234 
6686.000000	0.190520 
6685.000000	0.190854 
6684.000000	0.191235 
6683.000000	0.191688 
6682.000000	0.192189 
6681.000000	0.192737 
6680.000000	0.193309 
6679.000000	0.193858 
6678.000000	0.194382 
6677.000000	0.194859 
6676.000000	0.195217 
6675.000000	0.195407 
6674.000000	0.195503 
6673.000000	0.195407 
6672.000000	0.195193 
6671.000000	0.194931 
6670.000000	0.194621 
6669.000000	0.194334 
6668.000000	0.194120 
6667.000000	0.194048 
6666.000000	0.194120 
6665.000000	0.194358 
6664.000000	0.194740 
6663.000000	0.195169 
6662.000000	0.195693 
6661.000000	0.196242 
6660.000000	0.196743 
6659.000000	0.197172 
6658.000000	0.197529 
6657.000000	0.197768 
6656.000000	0.197887 
6655.000000	0.197839 
6654.000000	0.197672 
6653.000000	0.197410 
6652.000000	0.197029 
6651.000000	0.196599 
6650.000000	0.196146 
6649.000000	0.195717 
6648.000000	0.195407 
6647.000000	0.195217 
6646.000000	0.195169 
6645.000000	0.195217 
6644.000000	0.195360 
6643.000000	0.195574 
6642.000000	0.195741 
6641.000000	0.195813 
6640.000000	0.195837 
6639.000000	0.195717 
6638.000000	0.195479 
6637.000000	0.195193 
6636.000000	0.194954 
6635.000000	0.194787 
6634.000000	0.194787 
6633.000000	0.194954 
6632.000000	0.195384 
6631.000000	0.195980 
6630.000000	0.196695 
6629.000000	0.197434 
6628.000000	0.198149 
6627.000000	0.198721 
6626.000000	0.199127 
6625.000000	0.199294 
6624.000000	0.199270 
6623.000000	0.199007 
6622.000000	0.198626 
6621.000000	0.198221 
6620.000000	0.197815 
6619.000000	0.197529 
6618.000000	0.197386 
6617.000000	0.197434 
6616.000000	0.197649 
6615.000000	0.197982 
6614.000000	0.198364 
6613.000000	0.198698 
6612.000000	0.198984 
6611.000000	0.199151 
6610.000000	0.199174 
6609.000000	0.199055 
6608.000000	0.198864 
6607.000000	0.198674 
6606.000000	0.198531 
6605.000000	0.198507 
6604.000000	0.198650 
6603.000000	0.198912 
6602.000000	0.199341 
6601.000000	0.199866 
6600.000000	0.200414 
6599.000000	0.200915 
6598.000000	0.201368 
6597.000000	0.201678 
6596.000000	0.201821 
6595.000000	0.201869 
6594.000000	0.201797 
6593.000000	0.201702 
6592.000000	0.201654 
6591.000000	0.201702 
6590.000000	0.201892 
6589.000000	0.202226 
6588.000000	0.202775 
6587.000000	0.203394 
6586.000000	0.204133 
6585.000000	0.204849 
6584.000000	0.205469 
6583.000000	0.205945 
6582.000000	0.206184 
6581.000000	0.206208 
6580.000000	0.205993 
6579.000000	0.205564 
6578.000000	0.205016 
6577.000000	0.204420 
6576.000000	0.203847 
6575.000000	0.203418 
6574.000000	0.203204 
6573.000000	0.203251 
6572.000000	0.203585 
6571.000000	0.204133 
6570.000000	0.204873 
6569.000000	0.205659 
6568.000000	0.206422 
6567.000000	0.207018 
6566.000000	0.207448 
6565.000000	0.207638 
6564.000000	0.207614 
6563.000000	0.207448 
6562.000000	0.207233 
6561.000000	0.207042 
6560.000000	0.206971 
6559.000000	0.207066 
6558.000000	0.207352 
6557.000000	0.207757 
6556.000000	0.208258 
6555.000000	0.208711 
6554.000000	0.209116 
6553.000000	0.209403 
6552.000000	0.209569 
6551.000000	0.209546 
6550.000000	0.209403 
6549.000000	0.209236 
6548.000000	0.209021 
6547.000000	0.208830 
6546.000000	0.208735 
6545.000000	0.208735 
6544.000000	0.208854 
6543.000000	0.209021 
6542.000000	0.209283 
6541.000000	0.209546 
6540.000000	0.209832 
6539.000000	0.210070 
6538.000000	0.210380 
6537.000000	0.210666 
6536.000000	0.211048 
6535.000000	0.211429 
6534.000000	0.211906 
6533.000000	0.212430 
6532.000000	0.212883 
6531.000000	0.213313 
6530.000000	0.213646 
6529.000000	0.213813 
6528.000000	0.213885 
6527.000000	0.213837 
6526.000000	0.213718 
6525.000000	0.213527 
6524.000000	0.213360 
6523.000000	0.213217 
6522.000000	0.213146 
6521.000000	0.213122 
6520.000000	0.213146 
6519.000000	0.213193 
6518.000000	0.213241 
6517.000000	0.213336 
6516.000000	0.213456 
6515.000000	0.213623 
6514.000000	0.213861 
6513.000000	0.214219 
6512.000000	0.214719 
6511.000000	0.215244 
6510.000000	0.215864 
6509.000000	0.216531 
6508.000000	0.217175 
6507.000000	0.217747 
6506.000000	0.218200 
6505.000000	0.218534 
6504.000000	0.218701 
6503.000000	0.218653 
6502.000000	0.218462 
6501.000000	0.218200 
6500.000000	0.217843 
6499.000000	0.217485 
6498.000000	0.217223 
6497.000000	0.217080 
6496.000000	0.217080 
6495.000000	0.217247 
6494.000000	0.217580 
6493.000000	0.218057 
6492.000000	0.218558 
6491.000000	0.219082 
6490.000000	0.219559 
6489.000000	0.219964 
6488.000000	0.220203 
6487.000000	0.220322 
6486.000000	0.220298 
6485.000000	0.220179 
6484.000000	0.219988 
6483.000000	0.219774 
6482.000000	0.219631 
6481.000000	0.219583 
6480.000000	0.219702 
6479.000000	0.219988 
6478.000000	0.220441 
6477.000000	0.221037 
6476.000000	0.221729 
6475.000000	0.222492 
6474.000000	0.223207 
6473.000000	0.223803 
6472.000000	0.224280 
6471.000000	0.224590 
6470.000000	0.224733 
6469.000000	0.224757 
6468.000000	0.224733 
6467.000000	0.224661 
6466.000000	0.224590 
6465.000000	0.224566 
6464.000000	0.224590 
6463.000000	0.224637 
6462.000000	0.224733 
6461.000000	0.224804 
6460.000000	0.224924 
6459.000000	0.225019 
6458.000000	0.225090 
6457.000000	0.225162 
6456.000000	0.225234 
6455.000000	0.225281 
6454.000000	0.225329 
6453.000000	0.225424 
6452.000000	0.225472 
6451.000000	0.225591 
6450.000000	0.225663 
6449.000000	0.225758 
6448.000000	0.225877 
6447.000000	0.225973 
6446.000000	0.226068 
6445.000000	0.226211 
6444.000000	0.226378 
6443.000000	0.226545 
6442.000000	0.226783 
6441.000000	0.227046 
6440.000000	0.227355 
6439.000000	0.227713 
6438.000000	0.228118 
6437.000000	0.228643 
6436.000000	0.229215 
6435.000000	0.229811 
6434.000000	0.230431 
6433.000000	0.231051 
6432.000000	0.231623 
6431.000000	0.232124 
6430.000000	0.232553 
6429.000000	0.232911 
6428.000000	0.233173 
6427.000000	0.233435 
6426.000000	0.233674 
6425.000000	0.233912 
6424.000000	0.234198 
6423.000000	0.234532 
6422.000000	0.234818 
6421.000000	0.235128 
6420.000000	0.235438 
6419.000000	0.235652 
6418.000000	0.235795 
6417.000000	0.235891 
6416.000000	0.235891 
6415.000000	0.235843 
6414.000000	0.235772 
6413.000000	0.235700 
6412.000000	0.235629 
6411.000000	0.235605 
6410.000000	0.235629 
6409.000000	0.235748 
6408.000000	0.236010 
6407.000000	0.236320 
6406.000000	0.236821 
6405.000000	0.237369 
6404.000000	0.237965 
6403.000000	0.238585 
6402.000000	0.239133 
6401.000000	0.239658 
6400.000000	0.240015 
6399.000000	0.240278 
6398.000000	0.240421 
6397.000000	0.240540 
6396.000000	0.240635 
6395.000000	0.240755 
6394.000000	0.240945 
6393.000000	0.241255 
6392.000000	0.241684 
6391.000000	0.242185 
6390.000000	0.242733 
6389.000000	0.243282 
6388.000000	0.243806 
6387.000000	0.244235 
6386.000000	0.244569 
6385.000000	0.244760 
6384.000000	0.244832 
6383.000000	0.244808 
6382.000000	0.244736 
6381.000000	0.244641 
6380.000000	0.244569 
6379.000000	0.244545 
6378.000000	0.244641 
6377.000000	0.244832 
6376.000000	0.245141 
6375.000000	0.245547 
6374.000000	0.246024 
6373.000000	0.246500 
6372.000000	0.247049 
6371.000000	0.247502 
6370.000000	0.247907 
6369.000000	0.248193 
6368.000000	0.248360 
6367.000000	0.248456 
6366.000000	0.248503 
6365.000000	0.248527 
6364.000000	0.248575 
6363.000000	0.248646 
6362.000000	0.248765 
6361.000000	0.248932 
6360.000000	0.249099 
6359.000000	0.249314 
6358.000000	0.249505 
6357.000000	0.249719 
6356.000000	0.249958 
6355.000000	0.250220 
6354.000000	0.250554 
6353.000000	0.250935 
6352.000000	0.251364 
6351.000000	0.251841 
6350.000000	0.252294 
6349.000000	0.252676 
6348.000000	0.253009 
6347.000000	0.253272 
6346.000000	0.253486 
6345.000000	0.253677 
6344.000000	0.253891 
6343.000000	0.254154 
6342.000000	0.254487 
6341.000000	0.254845 
6340.000000	0.255203 
6339.000000	0.255441 
6338.000000	0.255608 
6337.000000	0.255632 
6336.000000	0.255513 
6335.000000	0.255322 
6334.000000	0.255060 
6333.000000	0.254821 
6332.000000	0.254702 
6331.000000	0.254702 
6330.000000	0.254964 
6329.000000	0.255465 
6328.000000	0.256180 
6327.000000	0.257086 
6326.000000	0.258183 
6325.000000	0.259375 
6324.000000	0.260543 
6323.000000	0.261712 
6322.000000	0.262784 
6321.000000	0.263738 
6320.000000	0.264501 
6319.000000	0.265049 
6318.000000	0.265502 
6317.000000	0.265717 
6316.000000	0.265765 
6315.000000	0.265645 
6314.000000	0.265383 
6313.000000	0.265049 
6312.000000	0.264668 
6311.000000	0.264310 
6310.000000	0.264024 
6309.000000	0.263905 
6308.000000	0.263953 
6307.000000	0.264239 
6306.000000	0.264739 
6305.000000	0.265431 
6304.000000	0.266265 
6303.000000	0.267124 
6302.000000	0.267982 
6301.000000	0.268769 
6300.000000	0.269389 
6299.000000	0.269842 
6298.000000	0.270080 
6297.000000	0.270080 
6296.000000	0.269937 
6295.000000	0.269627 
6294.000000	0.269174 
6293.000000	0.268721 
6292.000000	0.268268 
6291.000000	0.267934 
6290.000000	0.267767 
6289.000000	0.267791 
6288.000000	0.268030 
6287.000000	0.268530 
6286.000000	0.269222 
6285.000000	0.270009 
6284.000000	0.270819 
6283.000000	0.271582 
6282.000000	0.272226 
6281.000000	0.272703 
6280.000000	0.272965 
6279.000000	0.273060 
6278.000000	0.273013 
6277.000000	0.272917 
6276.000000	0.272798 
6275.000000	0.272774 
6274.000000	0.272893 
6273.000000	0.273156 
6272.000000	0.273609 
6271.000000	0.274229 
6270.000000	0.274944 
6269.000000	0.275707 
6268.000000	0.276470 
6267.000000	0.277185 
6266.000000	0.277829 
6265.000000	0.278353 
6264.000000	0.278806 
6263.000000	0.279140 
6262.000000	0.279402 
6261.000000	0.279545 
6260.000000	0.279641 
6259.000000	0.279664 
6258.000000	0.279617 
6257.000000	0.279569 
6256.000000	0.279545 
6255.000000	0.279569 
6254.000000	0.279664 
6253.000000	0.279879 
6252.000000	0.280189 
6251.000000	0.280594 
6250.000000	0.281095 
6249.000000	0.281643 
6248.000000	0.282192 
6247.000000	0.282740 
6246.000000	0.283241 
6245.000000	0.283718 
6244.000000	0.284123 
6243.000000	0.284433 
6242.000000	0.284767 
6241.000000	0.285029 
6240.000000	0.285243 
6239.000000	0.285410 
6238.000000	0.285482 
6237.000000	0.285530 
6236.000000	0.285434 
6235.000000	0.285315 
6234.000000	0.285100 
6233.000000	0.284790 
6232.000000	0.284504 
6231.000000	0.284314 
6230.000000	0.284218 
6229.000000	0.284290 
6228.000000	0.284576 
6227.000000	0.285029 
6226.000000	0.285696 
6225.000000	0.286483 
6224.000000	0.287294 
6223.000000	0.288128 
6222.000000	0.288867 
6221.000000	0.289487 
6220.000000	0.289988 
6219.000000	0.290369 
6218.000000	0.290656 
6217.000000	0.290894 
6216.000000	0.291156 
6215.000000	0.291442 
6214.000000	0.291800 
6213.000000	0.292253 
6212.000000	0.292730 
6211.000000	0.293302 
6210.000000	0.293898 
6209.000000	0.294470 
6208.000000	0.295066 
6207.000000	0.295543 
6206.000000	0.295901 
6205.000000	0.296139 
6204.000000	0.296282 
6203.000000	0.296258 
6202.000000	0.296139 
6201.000000	0.295948 
6200.000000	0.295758 
6199.000000	0.295615 
6198.000000	0.295567 
6197.000000	0.295662 
6196.000000	0.295853 
6195.000000	0.296163 
6194.000000	0.296568 
6193.000000	0.297069 
6192.000000	0.297713 
6191.000000	0.298428 
6190.000000	0.299263 
6189.000000	0.300145 
6188.000000	0.301074 
6187.000000	0.301957 
6186.000000	0.302791 
6185.000000	0.303483 
6184.000000	0.303959 
6183.000000	0.304269 
6182.000000	0.304317 
6181.000000	0.304150 
6180.000000	0.303840 
6179.000000	0.303459 
6178.000000	0.303006 
6177.000000	0.302553 
6176.000000	0.302171 
6175.000000	0.301814 
6174.000000	0.301575 
6173.000000	0.301456 
6172.000000	0.301456 
6171.000000	0.301575 
6170.000000	0.301790 
6169.000000	0.302052 
6168.000000	0.302362 
6167.000000	0.302696 
6166.000000	0.303030 
6165.000000	0.303339 
6164.000000	0.303649 
6163.000000	0.303912 
6162.000000	0.304222 
6161.000000	0.304508 
6160.000000	0.304794 
6159.000000	0.305080 
6158.000000	0.305390 
6157.000000	0.305724 
6156.000000	0.306034 
6155.000000	0.306415 
6154.000000	0.306797 
6153.000000	0.307226 
6152.000000	0.307679 
6151.000000	0.308156 
6150.000000	0.308704 
6149.000000	0.309252 
6148.000000	0.309777 
6147.000000	0.310254 
6146.000000	0.310635 
6145.000000	0.310945 
6144.000000	0.311183 
6143.000000	0.311374 
6142.000000	0.311493 
6141.000000	0.311613 
6140.000000	0.311684 
6139.000000	0.311732 
6138.000000	0.311803 
6137.000000	0.311875 
6136.000000	0.311994 
6135.000000	0.312113 
6134.000000	0.312256 
6133.000000	0.312471 
6132.000000	0.312757 
6131.000000	0.313115 
6130.000000	0.313568 
6129.000000	0.314116 
6128.000000	0.314712 
6127.000000	0.315332 
6126.000000	0.315952 
6125.000000	0.316548 
6124.000000	0.317049 
6123.000000	0.317478 
6122.000000	0.317835 
6121.000000	0.318098 
6120.000000	0.318288 
6119.000000	0.318503 
6118.000000	0.318694 
6117.000000	0.318908 
6116.000000	0.319170 
6115.000000	0.319528 
6114.000000	0.319957 
6113.000000	0.320482 
6112.000000	0.321078 
6111.000000	0.321674 
6110.000000	0.322294 
6109.000000	0.322866 
6108.000000	0.323319 
6107.000000	0.323629 
6106.000000	0.323772 
6105.000000	0.323748 
6104.000000	0.323581 
6103.000000	0.323295 
6102.000000	0.322961 
6101.000000	0.322628 
6100.000000	0.322341 
6099.000000	0.322198 
6098.000000	0.322127 
6097.000000	0.322198 
6096.000000	0.322389 
6095.000000	0.322723 
6094.000000	0.323176 
6093.000000	0.323677 
6092.000000	0.324249 
6091.000000	0.324892 
6090.000000	0.325560 
6089.000000	0.326228 
6088.000000	0.326848 
6087.000000	0.327420 
6086.000000	0.327920 
6085.000000	0.328350 
6084.000000	0.328707 
6083.000000	0.328993 
6082.000000	0.329256 
6081.000000	0.329566 
6080.000000	0.329947 
6079.000000	0.330328 
6078.000000	0.330805 
6077.000000	0.331306 
6076.000000	0.331807 
6075.000000	0.332331 
6074.000000	0.332832 
6073.000000	0.333309 
6072.000000	0.333786 
6071.000000	0.334310 
6070.000000	0.334835 
6069.000000	0.335335 
6068.000000	0.335860 
6067.000000	0.336360 
6066.000000	0.336837 
6065.000000	0.337266 
6064.000000	0.337624 
6063.000000	0.337910 
6062.000000	0.338172 
6061.000000	0.338411 
6060.000000	0.338649 
6059.000000	0.338935 
6058.000000	0.339269 
6057.000000	0.339603 
6056.000000	0.339961 
6055.000000	0.340318 
6054.000000	0.340604 
6053.000000	0.340795 
6052.000000	0.340914 
6051.000000	0.340914 
6050.000000	0.340819 
6049.000000	0.340652 
6048.000000	0.340533 
6047.000000	0.340461 
6046.000000	0.340533 
6045.000000	0.340795 
6044.000000	0.341248 
6043.000000	0.341892 
6042.000000	0.342726 
6041.000000	0.343608 
6040.000000	0.344443 
6039.000000	0.345206 
6038.000000	0.345778 
6037.000000	0.346159 
6036.000000	0.346350 
6035.000000	0.346422 
6034.000000	0.346350 
6033.000000	0.346255 
6032.000000	0.346183 
6031.000000	0.346136 
6030.000000	0.346136 
6029.000000	0.346207 
6028.000000	0.346350 
6027.000000	0.346565 
6026.000000	0.346851 
6025.000000	0.347185 
6024.000000	0.347638 
6023.000000	0.348210 
6022.000000	0.348854 
6021.000000	0.349593 
6020.000000	0.350379 
6019.000000	0.351142 
6018.000000	0.351953 
6017.000000	0.352740 
6016.000000	0.353455 
6015.000000	0.354123 
6014.000000	0.354719 
6013.000000	0.355172 
6012.000000	0.355529 
6011.000000	0.355792 
6010.000000	0.355982 
6009.000000	0.356125 
6008.000000	0.356245 
6007.000000	0.356388 
6006.000000	0.356531 
6005.000000	0.356721 
6004.000000	0.356912 
6003.000000	0.357079 
6002.000000	0.357174 
6001.000000	0.357174 
6000.000000	0.357055 
5999.000000	0.356817 
5998.000000	0.356507 
5997.000000	0.356149 
5996.000000	0.355815 
5995.000000	0.355601 
5994.000000	0.355482 
5993.000000	0.355553 
5992.000000	0.355768 
5991.000000	0.356173 
5990.000000	0.356721 
5989.000000	0.357365 
5988.000000	0.358057 
5987.000000	0.358772 
5986.000000	0.359511 
5985.000000	0.360155 
5984.000000	0.360727 
5983.000000	0.361204 
5982.000000	0.361633 
5981.000000	0.361919 
5980.000000	0.362157 
5979.000000	0.362300 
5978.000000	0.362420 
5977.000000	0.362467 
5976.000000	0.362539 
5975.000000	0.362610 
5974.000000	0.362706 
5973.000000	0.362896 
5972.000000	0.363159 
5971.000000	0.363469 
5970.000000	0.363850 
5969.000000	0.364255 
5968.000000	0.364661 
5967.000000	0.365042 
5966.000000	0.365376 
5965.000000	0.365567 
5964.000000	0.365734 
5963.000000	0.365805 
5962.000000	0.365900 
5961.000000	0.365972 
5960.000000	0.366139 
5959.000000	0.366377 
5958.000000	0.366735 
5957.000000	0.367212 
5956.000000	0.367784 
5955.000000	0.368404 
5954.000000	0.369048 
5953.000000	0.369668 
5952.000000	0.370287 
5951.000000	0.370836 
5950.000000	0.371241 
5949.000000	0.371527 
5948.000000	0.371670 
5947.000000	0.371623 
5946.000000	0.371527 
5945.000000	0.371336 
5944.000000	0.371098 
5943.000000	0.370931 
5942.000000	0.370836 
5941.000000	0.370860 
5940.000000	0.371026 
5939.000000	0.371313 
5938.000000	0.371694 
5937.000000	0.372099 
5936.000000	0.372505 
5935.000000	0.372862 
5934.000000	0.373196 
5933.000000	0.373506 
5932.000000	0.373840 
5931.000000	0.374221 
5930.000000	0.374698 
5929.000000	0.375294 
5928.000000	0.375962 
5927.000000	0.376629 
5926.000000	0.377249 
5925.000000	0.377750 
5924.000000	0.378036 
5923.000000	0.378084 
5922.000000	0.377917 
5921.000000	0.377535 
5920.000000	0.377058 
5919.000000	0.376486 
5918.000000	0.375914 
5917.000000	0.375318 
5916.000000	0.374794 
5915.000000	0.374388 
5914.000000	0.374054 
5913.000000	0.373816 
5912.000000	0.373721 
5911.000000	0.373744 
5910.000000	0.373911 
5909.000000	0.374293 
5908.000000	0.374817 
5907.000000	0.375461 
5906.000000	0.376200 
5905.000000	0.376987 
5904.000000	0.377798 
5903.000000	0.378537 
5902.000000	0.379252 
5901.000000	0.379896 
5900.000000	0.380468 
5899.000000	0.380969 
5898.000000	0.381374 
5897.000000	0.381684 
5896.000000	0.381922 
5895.000000	0.382018 
5894.000000	0.382065 
5893.000000	0.381994 
5892.000000	0.381875 
5891.000000	0.381708 
5890.000000	0.381517 
5889.000000	0.381374 
5888.000000	0.381278 
5887.000000	0.381255 
5886.000000	0.381278 
5885.000000	0.381398 
5884.000000	0.381541 
5883.000000	0.381755 
5882.000000	0.381970 
5881.000000	0.382208 
5880.000000	0.382518 
5879.000000	0.382852 
5878.000000	0.383234 
5877.000000	0.383687 
5876.000000	0.384211 
5875.000000	0.384759 
5874.000000	0.385308 
5873.000000	0.385832 
5872.000000	0.386285 
5871.000000	0.386571 
5870.000000	0.386714 
5869.000000	0.386738 
5868.000000	0.386595 
5867.000000	0.386428 
5866.000000	0.386285 
5865.000000	0.386238 
5864.000000	0.386357 
5863.000000	0.386667 
5862.000000	0.387215 
5861.000000	0.387883 
5860.000000	0.388646 
5859.000000	0.389409 
5858.000000	0.390076 
5857.000000	0.390577 
5856.000000	0.390911 
5855.000000	0.391077 
5854.000000	0.391125 
5853.000000	0.391149 
5852.000000	0.391244 
5851.000000	0.391435 
5850.000000	0.391745 
5849.000000	0.392222 
5848.000000	0.392818 
5847.000000	0.393462 
5846.000000	0.394034 
5845.000000	0.394511 
5844.000000	0.394725 
5843.000000	0.394725 
5842.000000	0.394511 
5841.000000	0.394082 
5840.000000	0.393557 
5839.000000	0.393033 
5838.000000	0.392556 
5837.000000	0.392246 
5836.000000	0.392150 
5835.000000	0.392341 
5834.000000	0.392794 
5833.000000	0.393462 
5832.000000	0.394248 
5831.000000	0.395154 
5830.000000	0.396060 
5829.000000	0.396943 
5828.000000	0.397658 
5827.000000	0.398302 
5826.000000	0.398802 
5825.000000	0.399160 
5824.000000	0.399398 
5823.000000	0.399541 
5822.000000	0.399613 
5821.000000	0.399661 
5820.000000	0.399708 
5819.000000	0.399780 
5818.000000	0.399899 
5817.000000	0.400114 
5816.000000	0.400424 
5815.000000	0.400829 
5814.000000	0.401258 
5813.000000	0.401687 
5812.000000	0.402069 
5811.000000	0.402402 
5810.000000	0.402593 
5809.000000	0.402712 
5808.000000	0.402688 
5807.000000	0.402569 
5806.000000	0.402379 
5805.000000	0.402164 
5804.000000	0.401997 
5803.000000	0.401878 
5802.000000	0.401854 
5801.000000	0.402021 
5800.000000	0.402307 
5799.000000	0.402712 
5798.000000	0.403261 
5797.000000	0.403904 
5796.000000	0.404644 
5795.000000	0.405430 
5794.000000	0.406193 
5793.000000	0.406932 
5792.000000	0.407576 
5791.000000	0.408053 
5790.000000	0.408363 
5789.000000	0.408506 
5788.000000	0.408482 
5787.000000	0.408315 
5786.000000	0.408124 
5785.000000	0.407934 
5784.000000	0.407838 
5783.000000	0.407910 
5782.000000	0.408124 
5781.000000	0.408506 
5780.000000	0.409030 
5779.000000	0.409674 
5778.000000	0.410389 
5777.000000	0.411128 
5776.000000	0.411868 
5775.000000	0.412535 
5774.000000	0.413107 
5773.000000	0.413560 
5772.000000	0.413846 
5771.000000	0.414037 
5770.000000	0.414061 
5769.000000	0.413966 
5768.000000	0.413823 
5767.000000	0.413584 
5766.000000	0.413393 
5765.000000	0.413250 
5764.000000	0.413179 
5763.000000	0.413346 
5762.000000	0.413656 
5761.000000	0.414204 
5760.000000	0.414896 
5759.000000	0.415778 
5758.000000	0.416684 
5757.000000	0.417566 
5756.000000	0.418281 
5755.000000	0.418853 
5754.000000	0.419163 
5753.000000	0.419235 
5752.000000	0.419139 
5751.000000	0.418901 
5750.000000	0.418663 
5749.000000	0.418448 
5748.000000	0.418305 
5747.000000	0.418281 
5746.000000	0.418329 
5745.000000	0.418472 
5744.000000	0.418615 
5743.000000	0.418758 
5742.000000	0.418949 
5741.000000	0.419139 
5740.000000	0.419425 
5739.000000	0.419807 
5738.000000	0.420236 
5737.000000	0.420784 
5736.000000	0.421380 
5735.000000	0.421977 
5734.000000	0.422549 
5733.000000	0.423073 
5732.000000	0.423526 
5731.000000	0.423932 
5730.000000	0.424289 
5729.000000	0.424575 
5728.000000	0.424814 
5727.000000	0.425004 
5726.000000	0.425100 
5725.000000	0.425124 
5724.000000	0.425076 
5723.000000	0.424933 
5722.000000	0.424790 
5721.000000	0.424575 
5720.000000	0.424408 
5719.000000	0.424242 
5718.000000	0.424122 
5717.000000	0.424051 
5716.000000	0.424051 
5715.000000	0.424098 
5714.000000	0.424242 
5713.000000	0.424432 
5712.000000	0.424623 
5711.000000	0.424909 
5710.000000	0.425219 
5709.000000	0.425624 
5708.000000	0.426054 
5707.000000	0.426554 
5706.000000	0.427055 
5705.000000	0.427603 
5704.000000	0.428152 
5703.000000	0.428748 
5702.000000	0.429344 
5701.000000	0.429916 
5700.000000	0.430440 
5699.000000	0.430893 
5698.000000	0.431275 
5697.000000	0.431537 
5696.000000	0.431680 
5695.000000	0.431704 
5694.000000	0.431585 
5693.000000	0.431442 
5692.000000	0.431203 
5691.000000	0.430870 
5690.000000	0.430464 
5689.000000	0.430035 
5688.000000	0.429534 
5687.000000	0.429034 
5686.000000	0.428533 
5685.000000	0.428080 
5684.000000	0.427722 
5683.000000	0.427436 
5682.000000	0.427269 
5681.000000	0.427198 
5680.000000	0.427222 
5679.000000	0.427365 
5678.000000	0.427532 
5677.000000	0.427746 
5676.000000	0.428009 
5675.000000	0.428390 
5674.000000	0.428795 
5673.000000	0.429344 
5672.000000	0.429916 
5671.000000	0.430583 
5670.000000	0.431251 
5669.000000	0.431895 
5668.000000	0.432538 
5667.000000	0.433087 
5666.000000	0.433588 
5665.000000	0.433993 
5664.000000	0.434327 
5663.000000	0.434613 
5662.000000	0.434875 
5661.000000	0.435066 
5660.000000	0.435185 
5659.000000	0.435256 
5658.000000	0.435185 
5657.000000	0.434994 
5656.000000	0.434732 
5655.000000	0.434446 
5654.000000	0.434112 
5653.000000	0.433897 
5652.000000	0.433802 
5651.000000	0.433850 
5650.000000	0.434088 
5649.000000	0.434470 
5648.000000	0.434947 
5647.000000	0.435447 
5646.000000	0.435972 
5645.000000	0.436496 
5644.000000	0.437021 
5643.000000	0.437569 
5642.000000	0.438141 
5641.000000	0.438666 
5640.000000	0.439167 
5639.000000	0.439643 
5638.000000	0.440001 
5637.000000	0.440239 
5636.000000	0.440335 
5635.000000	0.440311 
5634.000000	0.440216 
5633.000000	0.440096 
5632.000000	0.440049 
5631.000000	0.440120 
5630.000000	0.440382 
5629.000000	0.440764 
5628.000000	0.441336 
5627.000000	0.441932 
5626.000000	0.442528 
5625.000000	0.443100 
5624.000000	0.443553 
5623.000000	0.443840 
5622.000000	0.444030 
5621.000000	0.444102 
5620.000000	0.444126 
5619.000000	0.444102 
5618.000000	0.444126 
5617.000000	0.444197 
5616.000000	0.444364 
5615.000000	0.444602 
5614.000000	0.444912 
5613.000000	0.445294 
5612.000000	0.445699 
5611.000000	0.446057 
5610.000000	0.446343 
5609.000000	0.446510 
5608.000000	0.446581 
5607.000000	0.446510 
5606.000000	0.446343 
5605.000000	0.446081 
5604.000000	0.445842 
5603.000000	0.445628 
5602.000000	0.445532 
5601.000000	0.445628 
5600.000000	0.445890 
5599.000000	0.446271 
5598.000000	0.446844 
5597.000000	0.447416 
5596.000000	0.448012 
5595.000000	0.448608 
5594.000000	0.449109 
5593.000000	0.449514 
5592.000000	0.449824 
5591.000000	0.449991 
5590.000000	0.450086 
5589.000000	0.450110 
5588.000000	0.450062 
5587.000000	0.450038 
5586.000000	0.450015 
5585.000000	0.450015 
5584.000000	0.450086 
5583.000000	0.450277 
5582.000000	0.450563 
5581.000000	0.450992 
5580.000000	0.451588 
5579.000000	0.452303 
5578.000000	0.453114 
5577.000000	0.454020 
5576.000000	0.454902 
5575.000000	0.455760 
5574.000000	0.456595 
5573.000000	0.457286 
5572.000000	0.457882 
5571.000000	0.458288 
5570.000000	0.458621 
5569.000000	0.458836 
5568.000000	0.458955 
5567.000000	0.459051 
5566.000000	0.459074 
5565.000000	0.459122 
5564.000000	0.459194 
5563.000000	0.459361 
5562.000000	0.459623 
5561.000000	0.459980 
5560.000000	0.460457 
5559.000000	0.461006 
5558.000000	0.461554 
5557.000000	0.462102 
5556.000000	0.462651 
5555.000000	0.463104 
5554.000000	0.463485 
5553.000000	0.463795 
5552.000000	0.464105 
5551.000000	0.464391 
5550.000000	0.464677 
5549.000000	0.464963 
5548.000000	0.465250 
5547.000000	0.465488 
5546.000000	0.465679 
5545.000000	0.465822 
5544.000000	0.465893 
5543.000000	0.465965 
5542.000000	0.466060 
5541.000000	0.466179 
5540.000000	0.466370 
5539.000000	0.466680 
5538.000000	0.467133 
5537.000000	0.467729 
5536.000000	0.468420 
5535.000000	0.469231 
5534.000000	0.470137 
5533.000000	0.471138 
5532.000000	0.472116 
5531.000000	0.473093 
5530.000000	0.474023 
5529.000000	0.474858 
5528.000000	0.475597 
5527.000000	0.476145 
5526.000000	0.476598 
5525.000000	0.476956 
5524.000000	0.477194 
5523.000000	0.477409 
5522.000000	0.477647 
5521.000000	0.477910 
5520.000000	0.478148 
5519.000000	0.478482 
5518.000000	0.478816 
5517.000000	0.479221 
5516.000000	0.479650 
5515.000000	0.480151 
5514.000000	0.480628 
5513.000000	0.481152 
5512.000000	0.481700 
5511.000000	0.482201 
5510.000000	0.482583 
5509.000000	0.482845 
5508.000000	0.482988 
5507.000000	0.482988 
5506.000000	0.482869 
5505.000000	0.482678 
5504.000000	0.482535 
5503.000000	0.482439 
5502.000000	0.482511 
5501.000000	0.482749 
5500.000000	0.483131 
5499.000000	0.483679 
5498.000000	0.484347 
5497.000000	0.485062 
5496.000000	0.485777 
5495.000000	0.486469 
5494.000000	0.487089 
5493.000000	0.487637 
5492.000000	0.488114 
5491.000000	0.488543 
5490.000000	0.488853 
5489.000000	0.489115 
5488.000000	0.489306 
5487.000000	0.489425 
5486.000000	0.489568 
5485.000000	0.489807 
5484.000000	0.490140 
5483.000000	0.490546 
5482.000000	0.491142 
5481.000000	0.491857 
5480.000000	0.492644 
5479.000000	0.493431 
5478.000000	0.494217 
5477.000000	0.494861 
5476.000000	0.495409 
5475.000000	0.495839 
5474.000000	0.496196 
5473.000000	0.496602 
5472.000000	0.497055 
5471.000000	0.497651 
5470.000000	0.498342 
5469.000000	0.499153 
5468.000000	0.500035 
5467.000000	0.500893 
5466.000000	0.501728 
5465.000000	0.502443 
5464.000000	0.502943 
5463.000000	0.503301 
5462.000000	0.503444 
5461.000000	0.503468 
5460.000000	0.503420 
5459.000000	0.503301 
5458.000000	0.503230 
5457.000000	0.503206 
5456.000000	0.503277 
5455.000000	0.503444 
5454.000000	0.503706 
5453.000000	0.504112 
5452.000000	0.504589 
5451.000000	0.505137 
5450.000000	0.505661 
5449.000000	0.506162 
5448.000000	0.506591 
5447.000000	0.506901 
5446.000000	0.507044 
5445.000000	0.507092 
5444.000000	0.507068 
5443.000000	0.506973 
5442.000000	0.506925 
5441.000000	0.506949 
5440.000000	0.507068 
5439.000000	0.507378 
5438.000000	0.507855 
5437.000000	0.508499 
5436.000000	0.509333 
5435.000000	0.510287 
5434.000000	0.511312 
5433.000000	0.512385 
5432.000000	0.513505 
5431.000000	0.514531 
5430.000000	0.515437 
5429.000000	0.516271 
5428.000000	0.516891 
5427.000000	0.517439 
5426.000000	0.517797 
5425.000000	0.518083 
5424.000000	0.518321 
5423.000000	0.518560 
5422.000000	0.518846 
5421.000000	0.519204 
5420.000000	0.519585 
5419.000000	0.519943 
5418.000000	0.520300 
5417.000000	0.520586 
5416.000000	0.520777 
5415.000000	0.520920 
5414.000000	0.521016 
5413.000000	0.521159 
5412.000000	0.521421 
5411.000000	0.521898 
5410.000000	0.522613 
5409.000000	0.523519 
5408.000000	0.524616 
5407.000000	0.525760 
5406.000000	0.526928 
5405.000000	0.527977 
5404.000000	0.528860 
5403.000000	0.529527 
5402.000000	0.529956 
5401.000000	0.530171 
5400.000000	0.530195 
5399.000000	0.530052 
5398.000000	0.529909 
5397.000000	0.529718 
5396.000000	0.529575 
5395.000000	0.529479 
5394.000000	0.529456 
5393.000000	0.529503 
5392.000000	0.529599 
5391.000000	0.529766 
5390.000000	0.530028 
5389.000000	0.530362 
5388.000000	0.530791 
5387.000000	0.531291 
5386.000000	0.531888 
5385.000000	0.532579 
5384.000000	0.533294 
5383.000000	0.534009 
5382.000000	0.534677 
5381.000000	0.535273 
5380.000000	0.535774 
5379.000000	0.536203 
5378.000000	0.536561 
5377.000000	0.536823 
5376.000000	0.537133 
5375.000000	0.537467 
5374.000000	0.537872 
5373.000000	0.538301 
5372.000000	0.538778 
5371.000000	0.539255 
5370.000000	0.539755 
5369.000000	0.540280 
5368.000000	0.540804 
5367.000000	0.541329 
5366.000000	0.541877 
5365.000000	0.542426 
5364.000000	0.542974 
5363.000000	0.543522 
5362.000000	0.544071 
5361.000000	0.544571 
5360.000000	0.545048 
5359.000000	0.545477 
5358.000000	0.545883 
5357.000000	0.546264 
5356.000000	0.546622 
5355.000000	0.546979 
5354.000000	0.547385 
5353.000000	0.547814 
5352.000000	0.548267 
5351.000000	0.548744 
5350.000000	0.549197 
5349.000000	0.549626 
5348.000000	0.549936 
5347.000000	0.550198 
5346.000000	0.550413 
5345.000000	0.550556 
5344.000000	0.550699 
5343.000000	0.550913 
5342.000000	0.551271 
5341.000000	0.551795 
5340.000000	0.552511 
5339.000000	0.553393 
5338.000000	0.554418 
5337.000000	0.555491 
5336.000000	0.556564 
5335.000000	0.557541 
5334.000000	0.558423 
5333.000000	0.559186 
5332.000000	0.559830 
5331.000000	0.560426 
5330.000000	0.560998 
5329.000000	0.561571 
5328.000000	0.562286 
5327.000000	0.563049 
5326.000000	0.564002 
5325.000000	0.564980 
5324.000000	0.566029 
5323.000000	0.567102 
5322.000000	0.568199 
5321.000000	0.569248 
5320.000000	0.570225 
5319.000000	0.571107 
5318.000000	0.571894 
5317.000000	0.572586 
5316.000000	0.573205 
5315.000000	0.573825 
5314.000000	0.574398 
5313.000000	0.574970 
5312.000000	0.575613 
5311.000000	0.576329 
5310.000000	0.577116 
5309.000000	0.577926 
5308.000000	0.578737 
5307.000000	0.579500 
5306.000000	0.580215 
5305.000000	0.580787 
5304.000000	0.581240 
5303.000000	0.581550 
5302.000000	0.581765 
5301.000000	0.581932 
5300.000000	0.582122 
5299.000000	0.582385 
5298.000000	0.582742 
5297.000000	0.583362 
5296.000000	0.584149 
5295.000000	0.585079 
5294.000000	0.586152 
5293.000000	0.587177 
5292.000000	0.588083 
5291.000000	0.588774 
5290.000000	0.589156 
5289.000000	0.589227 
5288.000000	0.589084 
5287.000000	0.588846 
5286.000000	0.588655 
5285.000000	0.588631 
5284.000000	0.588917 
5283.000000	0.589537 
5282.000000	0.590443 
5281.000000	0.591564 
5280.000000	0.592732 
5279.000000	0.593829 
5278.000000	0.594663 
5277.000000	0.595283 
5276.000000	0.595593 
5275.000000	0.595688 
5274.000000	0.595641 
5273.000000	0.595593 
5272.000000	0.595641 
5271.000000	0.595903 
5270.000000	0.596356 
5269.000000	0.597119 
5268.000000	0.598073 
5267.000000	0.599193 
5266.000000	0.600385 
5265.000000	0.601601 
5264.000000	0.602793 
5263.000000	0.603866 
5262.000000	0.604748 
5261.000000	0.605463 
5260.000000	0.605988 
5259.000000	0.606346 
5258.000000	0.606584 
5257.000000	0.606751 
5256.000000	0.607037 
5255.000000	0.607514 
5254.000000	0.608301 
5253.000000	0.609493 
5252.000000	0.611019 
5251.000000	0.612878 
5250.000000	0.614905 
5249.000000	0.617027 
5248.000000	0.619101 
5247.000000	0.621128 
5246.000000	0.623083 
5245.000000	0.624990 
5244.000000	0.627040 
5243.000000	0.629281 
5242.000000	0.631690 
5241.000000	0.634241 
5240.000000	0.636768 
5239.000000	0.639081 
5238.000000	0.640988 
5237.000000	0.642275 
5236.000000	0.642991 
5235.000000	0.643253 
5234.000000	0.643229 
5233.000000	0.643205 
5232.000000	0.643420 
5231.000000	0.644016 
5230.000000	0.644898 
5229.000000	0.645971 
5228.000000	0.646877 
5227.000000	0.647377 
5226.000000	0.647163 
5225.000000	0.646162 
5224.000000	0.644421 
5223.000000	0.642228 
5222.000000	0.639891 
5221.000000	0.637769 
5220.000000	0.636124 
5219.000000	0.635147 
5218.000000	0.634908 
5217.000000	0.635242 
5216.000000	0.635957 
5215.000000	0.636911 
5214.000000	0.637817 
5213.000000	0.638604 
5212.000000	0.639176 
5211.000000	0.639438 
5210.000000	0.639486 
5209.000000	0.639367 
5208.000000	0.639104 
5207.000000	0.638794 
5206.000000	0.638508 
5205.000000	0.638270 
5204.000000	0.638198 
5203.000000	0.638437 
5202.000000	0.639033 
5201.000000	0.640082 
5200.000000	0.641560 
5199.000000	0.643491 
5198.000000	0.645780 
5197.000000	0.648331 
5196.000000	0.651001 
5195.000000	0.653672 
5194.000000	0.656270 
5193.000000	0.658655 
5192.000000	0.660729 
5191.000000	0.662446 
5190.000000	0.663781 
5189.000000	0.664639 
5188.000000	0.664973 
5187.000000	0.664663 
5186.000000	0.663781 
5185.000000	0.662231 
5184.000000	0.660204 
5183.000000	0.657725 
5182.000000	0.655007 
5181.000000	0.652313 
5180.000000	0.649881 
5179.000000	0.647926 
5178.000000	0.646615 
5177.000000	0.646018 
5176.000000	0.646257 
5175.000000	0.647234 
5174.000000	0.648880 
5173.000000	0.651073 
5172.000000	0.653624 
5171.000000	0.656390 
5170.000000	0.659179 
5169.000000	0.661826 
5168.000000	0.664234 
5167.000000	0.666356 
5166.000000	0.668096 
5165.000000	0.669527 
5164.000000	0.670647 
5163.000000	0.671529 
5162.000000	0.672316 
5161.000000	0.673079 
5160.000000	0.673913 
5159.000000	0.674915 
5158.000000	0.675988 
5157.000000	0.677180 
5156.000000	0.678300 
5155.000000	0.679254 
5154.000000	0.679898 
5153.000000	0.680184 
5152.000000	0.680065 
5151.000000	0.679636 
5150.000000	0.678944 
5149.000000	0.678181 
5148.000000	0.677466 
5147.000000	0.676941 
5146.000000	0.676703 
5145.000000	0.676774 
5144.000000	0.677132 
5143.000000	0.677824 
5142.000000	0.678706 
5141.000000	0.679779 
5140.000000	0.680971 
5139.000000	0.682258 
5138.000000	0.683546 
5137.000000	0.684785 
5136.000000	0.685906 
5135.000000	0.686836 
5134.000000	0.687575 
5133.000000	0.688099 
5132.000000	0.688362 
5131.000000	0.688457 
5130.000000	0.688457 
5129.000000	0.688385 
5128.000000	0.688266 
5127.000000	0.688195 
5126.000000	0.688147 
5125.000000	0.688147 
5124.000000	0.688242 
5123.000000	0.688529 
5122.000000	0.688958 
5121.000000	0.689578 
5120.000000	0.690388 
5119.000000	0.691390 
5118.000000	0.692439 
5117.000000	0.693464 
5116.000000	0.694417 
5115.000000	0.695204 
5114.000000	0.695776 
5113.000000	0.696158 
5112.000000	0.696420 
5111.000000	0.696706 
5110.000000	0.697040 
5109.000000	0.697565 
5108.000000	0.698232 
5107.000000	0.699067 
5106.000000	0.699973 
5105.000000	0.700926 
5104.000000	0.701832 
5103.000000	0.702643 
5102.000000	0.703263 
5101.000000	0.703763 
5100.000000	0.704097 
5099.000000	0.704264 
5098.000000	0.704383 
5097.000000	0.704503 
5096.000000	0.704622 
5095.000000	0.704860 
5094.000000	0.705218 
5093.000000	0.705790 
5092.000000	0.706601 
5091.000000	0.707674 
5090.000000	0.708985 
5089.000000	0.710511 
5088.000000	0.712180 
5087.000000	0.713849 
5086.000000	0.715398 
5085.000000	0.716757 
5084.000000	0.717806 
5083.000000	0.718545 
5082.000000	0.719022 
5081.000000	0.719213 
5080.000000	0.719308 
5079.000000	0.719380 
5078.000000	0.719594 
5077.000000	0.719976 
5076.000000	0.720548 
5075.000000	0.721287 
5074.000000	0.722146 
5073.000000	0.723004 
5072.000000	0.723743 
5071.000000	0.724339 
5070.000000	0.724840 
5069.000000	0.725197 
5068.000000	0.725483 
5067.000000	0.725769 
5066.000000	0.726127 
5065.000000	0.726556 
5064.000000	0.727081 
5063.000000	0.727605 
5062.000000	0.728178 
5061.000000	0.728750 
5060.000000	0.729274 
5059.000000	0.729799 
5058.000000	0.730347 
5057.000000	0.730943 
5056.000000	0.731611 
5055.000000	0.732350 
5054.000000	0.733184 
5053.000000	0.734066 
5052.000000	0.734925 
5051.000000	0.735759 
5050.000000	0.736522 
5049.000000	0.737214 
5048.000000	0.737857 
5047.000000	0.738453 
5046.000000	0.739026 
5045.000000	0.739717 
5044.000000	0.740504 
5043.000000	0.741386 
5042.000000	0.742387 
5041.000000	0.743484 
5040.000000	0.744581 
5039.000000	0.745677 
5038.000000	0.746679 
5037.000000	0.747585 
5036.000000	0.748348 
5035.000000	0.749063 
5034.000000	0.749659 
5033.000000	0.750184 
5032.000000	0.750732 
5031.000000	0.751304 
5030.000000	0.751900 
5029.000000	0.752496 
5028.000000	0.753092 
5027.000000	0.753664 
5026.000000	0.754165 
5025.000000	0.754618 
5024.000000	0.755000 
5023.000000	0.755357 
5022.000000	0.755691 
5021.000000	0.756049 
5020.000000	0.756454 
5019.000000	0.756931 
5018.000000	0.757455 
5017.000000	0.758075 
5016.000000	0.758719 
5015.000000	0.759434 
5014.000000	0.760173 
5013.000000	0.760912 
5012.000000	0.761628 
5011.000000	0.762343 
5010.000000	0.763058 
5009.000000	0.763773 
5008.000000	0.764489 
5007.000000	0.765156 
5006.000000	0.765776 
5005.000000	0.766348 
5004.000000	0.766801 
5003.000000	0.767159 
5002.000000	0.767350 
5001.000000	0.767445 
5000.000000	0.767540 
4999.000000	0.767612 
4998.000000	0.767803 
4997.000000	0.768136 
4996.000000	0.768709 
4995.000000	0.769519 
4994.000000	0.770545 
4993.000000	0.771737 
4992.000000	0.773048 
4991.000000	0.774359 
4990.000000	0.775599 
4989.000000	0.776767 
4988.000000	0.777745 
4987.000000	0.778555 
4986.000000	0.779199 
4985.000000	0.779628 
4984.000000	0.779962 
4983.000000	0.780177 
4982.000000	0.780367 
4981.000000	0.780534 
4980.000000	0.780653 
4979.000000	0.780773 
4978.000000	0.780892 
4977.000000	0.780963 
4976.000000	0.780987 
4975.000000	0.780987 
4974.000000	0.780940 
4973.000000	0.780892 
4972.000000	0.780868 
4971.000000	0.780892 
4970.000000	0.780987 
4969.000000	0.781178 
4968.000000	0.781488 
4967.000000	0.781893 
4966.000000	0.782394 
4965.000000	0.782942 
4964.000000	0.783562 
4963.000000	0.784182 
4962.000000	0.784850 
4961.000000	0.785493 
4960.000000	0.786113 
4959.000000	0.786709 
4958.000000	0.787258 
4957.000000	0.787734 
4956.000000	0.788140 
4955.000000	0.788521 
4954.000000	0.788879 
4953.000000	0.789237 
4952.000000	0.789570 
4951.000000	0.789928 
4950.000000	0.790286 
4949.000000	0.790572 
4948.000000	0.790882 
4947.000000	0.791120 
4946.000000	0.791335 
4945.000000	0.791549 
4944.000000	0.791835 
4943.000000	0.792193 
4942.000000	0.792694 
4941.000000	0.793290 
4940.000000	0.794053 
4939.000000	0.794839 
4938.000000	0.795698 
4937.000000	0.796580 
4936.000000	0.797438 
4935.000000	0.798177 
4934.000000	0.798845 
4933.000000	0.799465 
4932.000000	0.799989 
4931.000000	0.800418 
4930.000000	0.800752 
4929.000000	0.800991 
4928.000000	0.801157 
4927.000000	0.801229 
4926.000000	0.801229 
4925.000000	0.801205 
4924.000000	0.801181 
4923.000000	0.801181 
4922.000000	0.801229 
4921.000000	0.801372 
4920.000000	0.801610 
4919.000000	0.801944 
4918.000000	0.802373 
4917.000000	0.802850 
4916.000000	0.803446 
4915.000000	0.804066 
4914.000000	0.804710 
4913.000000	0.805354 
4912.000000	0.805950 
4911.000000	0.806474 
4910.000000	0.806927 
4909.000000	0.807237 
4908.000000	0.807523 
4907.000000	0.807762 
4906.000000	0.807976 
4905.000000	0.808262 
4904.000000	0.808620 
4903.000000	0.809073 
4902.000000	0.809621 
4901.000000	0.810217 
4900.000000	0.810790 
4899.000000	0.811290 
4898.000000	0.811624 
4897.000000	0.811743 
4896.000000	0.811648 
4895.000000	0.811362 
4894.000000	0.810885 
4893.000000	0.810384 
4892.000000	0.809884 
4891.000000	0.809526 
4890.000000	0.809359 
4889.000000	0.809478 
4888.000000	0.809907 
4887.000000	0.810599 
4886.000000	0.811553 
4885.000000	0.812649 
4884.000000	0.813889 
4883.000000	0.815081 
4882.000000	0.816297 
4881.000000	0.817394 
4880.000000	0.818395 
4879.000000	0.819277 
4878.000000	0.820016 
4877.000000	0.820684 
4876.000000	0.821256 
4875.000000	0.821781 
4874.000000	0.822305 
4873.000000	0.822854 
4872.000000	0.823497 
4871.000000	0.824141 
4870.000000	0.824904 
4869.000000	0.825667 
4868.000000	0.826406 
4867.000000	0.827074 
4866.000000	0.827717 
4865.000000	0.828242 
4864.000000	0.828695 
4863.000000	0.829124 
4862.000000	0.829553 
4861.000000	0.830078 
4860.000000	0.830698 
4859.000000	0.831460 
4858.000000	0.832319 
4857.000000	0.833272 
4856.000000	0.834250 
4855.000000	0.835204 
4854.000000	0.836133 
4853.000000	0.836944 
4852.000000	0.837707 
4851.000000	0.838327 
4850.000000	0.838899 
4849.000000	0.839400 
4848.000000	0.839924 
4847.000000	0.840449 
4846.000000	0.840973 
4845.000000	0.841546 
4844.000000	0.842118 
4843.000000	0.842666 
4842.000000	0.843214 
4841.000000	0.843644 
4840.000000	0.844001 
4839.000000	0.844264 
4838.000000	0.844407 
4837.000000	0.844550 
4836.000000	0.844669 
4835.000000	0.844860 
4834.000000	0.845146 
4833.000000	0.845527 
4832.000000	0.846052 
4831.000000	0.846648 
4830.000000	0.847291 
4829.000000	0.847911 
4828.000000	0.848531 
4827.000000	0.849056 
4826.000000	0.849533 
4825.000000	0.850009 
4824.000000	0.850462 
4823.000000	0.850963 
4822.000000	0.851488 
4821.000000	0.852084 
4820.000000	0.852727 
4819.000000	0.853419 
4818.000000	0.854110 
4817.000000	0.854825 
4816.000000	0.855493 
4815.000000	0.856137 
4814.000000	0.856781 
4813.000000	0.857400 
4812.000000	0.858068 
4811.000000	0.858783 
4810.000000	0.859594 
4809.000000	0.860428 
4808.000000	0.861310 
4807.000000	0.862216 
4806.000000	0.863051 
4805.000000	0.863766 
4804.000000	0.864338 
4803.000000	0.864791 
4802.000000	0.865054 
4801.000000	0.865244 
4800.000000	0.865340 
4799.000000	0.865435 
4798.000000	0.865626 
4797.000000	0.865936 
4796.000000	0.866389 
4795.000000	0.866961 
4794.000000	0.867700 
4793.000000	0.868463 
4792.000000	0.869250 
4791.000000	0.869965 
4790.000000	0.870633 
4789.000000	0.871157 
4788.000000	0.871562 
4787.000000	0.871920 
4786.000000	0.872230 
4785.000000	0.872540 
4784.000000	0.872898 
4783.000000	0.873303 
4782.000000	0.873780 
4781.000000	0.874376 
4780.000000	0.875020 
4779.000000	0.875711 
4778.000000	0.876402 
4777.000000	0.877094 
4776.000000	0.877785 
4775.000000	0.878429 
4774.000000	0.879025 
4773.000000	0.879621 
4772.000000	0.880169 
4771.000000	0.880646 
4770.000000	0.881028 
4769.000000	0.881338 
4768.000000	0.881552 
4767.000000	0.881695 
4766.000000	0.881791 
4765.000000	0.881862 
4764.000000	0.881958 
4763.000000	0.882124 
4762.000000	0.882363 
4761.000000	0.882697 
4760.000000	0.883173 
4759.000000	0.883674 
4758.000000	0.884342 
4757.000000	0.885009 
4756.000000	0.885748 
4755.000000	0.886416 
4754.000000	0.887084 
4753.000000	0.887656 
4752.000000	0.888156 
4751.000000	0.888538 
4750.000000	0.888776 
4749.000000	0.888943 
4748.000000	0.889039 
4747.000000	0.889086 
4746.000000	0.889134 
4745.000000	0.889229 
4744.000000	0.889396 
4743.000000	0.889682 
4742.000000	0.890064 
4741.000000	0.890541 
4740.000000	0.891089 
4739.000000	0.891661 
4738.000000	0.892257 
4737.000000	0.892853 
4736.000000	0.893402 
4735.000000	0.893926 
4734.000000	0.894403 
4733.000000	0.894808 
4732.000000	0.895142 
4731.000000	0.895500 
4730.000000	0.895833 
4729.000000	0.896120 
4728.000000	0.896453 
4727.000000	0.896739 
4726.000000	0.897097 
4725.000000	0.897383 
4724.000000	0.897669 
4723.000000	0.897955 
4722.000000	0.898218 
4721.000000	0.898432 
4720.000000	0.898647 
4719.000000	0.898909 
4718.000000	0.899195 
4717.000000	0.899529 
4716.000000	0.899910 
4715.000000	0.900340 
4714.000000	0.900745 
4713.000000	0.901103 
4712.000000	0.901412 
4711.000000	0.901579 
4710.000000	0.901627 
4709.000000	0.901603 
4708.000000	0.901412 
4707.000000	0.901126 
4706.000000	0.900816 
4705.000000	0.900483 
4704.000000	0.900101 
4703.000000	0.899744 
4702.000000	0.899362 
4701.000000	0.898981 
4700.000000	0.898647 
4699.000000	0.898385 
4698.000000	0.898146 
4697.000000	0.898051 
4696.000000	0.898027 
4695.000000	0.898194 
4694.000000	0.898456 
4693.000000	0.898885 
4692.000000	0.899457 
4691.000000	0.900101 
4690.000000	0.900816 
4689.000000	0.901556 
4688.000000	0.902295 
4687.000000	0.903034 
4686.000000	0.903725 
4685.000000	0.904345 
4684.000000	0.904893 
4683.000000	0.905394 
4682.000000	0.905823 
4681.000000	0.906181 
4680.000000	0.906419 
4679.000000	0.906586 
4678.000000	0.906682 
4677.000000	0.906658 
4676.000000	0.906562 
4675.000000	0.906443 
4674.000000	0.906324 
4673.000000	0.906276 
4672.000000	0.906300 
4671.000000	0.906395 
4670.000000	0.906610 
4669.000000	0.906896 
4668.000000	0.907206 
4667.000000	0.907564 
4666.000000	0.907874 
4665.000000	0.908160 
4664.000000	0.908398 
4663.000000	0.908613 
4662.000000	0.908827 
4661.000000	0.909066 
4660.000000	0.909328 
4659.000000	0.909662 
4658.000000	0.910019 
4657.000000	0.910353 
4656.000000	0.910687 
4655.000000	0.911045 
4654.000000	0.911402 
4653.000000	0.911760 
4652.000000	0.912261 
4651.000000	0.912809 
4650.000000	0.913524 
4649.000000	0.914311 
4648.000000	0.915217 
4647.000000	0.916194 
4646.000000	0.917148 
4645.000000	0.918054 
4644.000000	0.918865 
4643.000000	0.919580 
4642.000000	0.920152 
4641.000000	0.920605 
4640.000000	0.920891 
4639.000000	0.921130 
4638.000000	0.921297 
4637.000000	0.921368 
4636.000000	0.921440 
4635.000000	0.921440 
4634.000000	0.921368 
4633.000000	0.921297 
4632.000000	0.921201 
4631.000000	0.921130 
4630.000000	0.921058 
4629.000000	0.921082 
4628.000000	0.921225 
4627.000000	0.921463 
4626.000000	0.921821 
4625.000000	0.922322 
4624.000000	0.922894 
4623.000000	0.923514 
4622.000000	0.924181 
4621.000000	0.924873 
4620.000000	0.925564 
4619.000000	0.926256 
4618.000000	0.926923 
4617.000000	0.927662 
4616.000000	0.928425 
4615.000000	0.929212 
4614.000000	0.929999 
4613.000000	0.930786 
4612.000000	0.931549 
4611.000000	0.932216 
4610.000000	0.932788 
4609.000000	0.933218 
4608.000000	0.933551 
4607.000000	0.933766 
4606.000000	0.933909 
4605.000000	0.934052 
4604.000000	0.934195 
4603.000000	0.934433 
4602.000000	0.934720 
4601.000000	0.935029 
4600.000000	0.935387 
4599.000000	0.935816 
4598.000000	0.936293 
4597.000000	0.936794 
4596.000000	0.937342 
4595.000000	0.937914 
4594.000000	0.938606 
4593.000000	0.939321 
4592.000000	0.940084 
4591.000000	0.940871 
4590.000000	0.941681 
4589.000000	0.942444 
4588.000000	0.943136 
4587.000000	0.943756 
4586.000000	0.944304 
4585.000000	0.944805 
4584.000000	0.945281 
4583.000000	0.945830 
4582.000000	0.946450 
4581.000000	0.947213 
4580.000000	0.948119 
4579.000000	0.949072 
4578.000000	0.950121 
4577.000000	0.951170 
4576.000000	0.952172 
4575.000000	0.953102 
4574.000000	0.953984 
4573.000000	0.954747 
4572.000000	0.955462 
4571.000000	0.956130 
4570.000000	0.956797 
4569.000000	0.957441 
4568.000000	0.958132 
4567.000000	0.958871 
4566.000000	0.959706 
4565.000000	0.960588 
4564.000000	0.961613 
4563.000000	0.962662 
4562.000000	0.963759 
4561.000000	0.964832 
4560.000000	0.965785 
4559.000000	0.966572 
4558.000000	0.967097 
4557.000000	0.967359 
4556.000000	0.967359 
4555.000000	0.967192 
4554.000000	0.966954 
4553.000000	0.966811 
4552.000000	0.966858 
4551.000000	0.967216 
4550.000000	0.967860 
4549.000000	0.968837 
4548.000000	0.970053 
4547.000000	0.971412 
4546.000000	0.972795 
4545.000000	0.974154 
4544.000000	0.975465 
4543.000000	0.976634 
4542.000000	0.977754 
4541.000000	0.978827 
4540.000000	0.979852 
4539.000000	0.980877 
4538.000000	0.981903 
4537.000000	0.982880 
4536.000000	0.983810 
4535.000000	0.984573 
4534.000000	0.985288 
4533.000000	0.985836 
4532.000000	0.986242 
4531.000000	0.986576 
4530.000000	0.986909 
4529.000000	0.987219 
4528.000000	0.987601 
4527.000000	0.988078 
4526.000000	0.988650 
4525.000000	0.989341 
4524.000000	0.990128 
4523.000000	0.990962 
4522.000000	0.991821 
4521.000000	0.992655 
4520.000000	0.993466 
4519.000000	0.994205 
4518.000000	0.994873 
4517.000000	0.995492 
4516.000000	0.996017 
4515.000000	0.996470 
4514.000000	0.996875 
4513.000000	0.997257 
4512.000000	0.997591 
4511.000000	0.997805 
4510.000000	0.997948 
4509.000000	0.997996 
4508.000000	0.997948 
4507.000000	0.997781 
4506.000000	0.997495 
4505.000000	0.997185 
4504.000000	0.996875 
4503.000000	0.996637 
4502.000000	0.996518 
4501.000000	0.996565 
4500.000000	0.996828 
4499.000000	0.997281 
4498.000000	0.997948 
4497.000000	0.998783 
4496.000000	0.999712 
4495.000000	1.000666 
4494.000000	1.001572 
4493.000000	1.002359 
4492.000000	1.003003 
4491.000000	1.003456 
4490.000000	1.003766 
4489.000000	1.003909 
4488.000000	1.003956 
4487.000000	1.003956 
4486.000000	1.003956 
4485.000000	1.004028 
4484.000000	1.004171 
4483.000000	1.004457 
4482.000000	1.004838 
4481.000000	1.005315 
4480.000000	1.005840 
4479.000000	1.006317 
4478.000000	1.006722 
4477.000000	1.006984 
4476.000000	1.007151 
4475.000000	1.007175 
4474.000000	1.007103 
4473.000000	1.006937 
4472.000000	1.006722 
4471.000000	1.006579 
4470.000000	1.006507 
4469.000000	1.006531 
4468.000000	1.006698 
4467.000000	1.006984 
4466.000000	1.007390 
4465.000000	1.007890 
4464.000000	1.008391 
4463.000000	1.008772 
4462.000000	1.008987 
4461.000000	1.008939 
4460.000000	1.008629 
4459.000000	1.008129 
4458.000000	1.007390 
4457.000000	1.006555 
4456.000000	1.005697 
4455.000000	1.004934 
4454.000000	1.004338 
4453.000000	1.003980 
4452.000000	1.003861 
4451.000000	1.004004 
4450.000000	1.004409 
4449.000000	1.005005 
4448.000000	1.005673 
4447.000000	1.006412 
4446.000000	1.007127 
4445.000000	1.007771 
4444.000000	1.008224 
4443.000000	1.008486 
4442.000000	1.008605 
4441.000000	1.008605 
4440.000000	1.008486 
4439.000000	1.008367 
4438.000000	1.008319 
4437.000000	1.008319 
4436.000000	1.008415 
4435.000000	1.008653 
4434.000000	1.009082 
4433.000000	1.009583 
4432.000000	1.010131 
4431.000000	1.010608 
4430.000000	1.010918 
4429.000000	1.010918 
4428.000000	1.010537 
4427.000000	1.009750 
4426.000000	1.008558 
4425.000000	1.007199 
4424.000000	1.005697 
4423.000000	1.004242 
4422.000000	1.002955 
4421.000000	1.001954 
4420.000000	1.001238 
4419.000000	1.000833 
4418.000000	1.000642 
4417.000000	1.000499 
4416.000000	1.000070 
4415.000000	0.998830 
4414.000000	0.996208 
4413.000000	0.991559 
4412.000000	0.984239 
4411.000000	0.973749 
4410.000000	0.960063 
4409.000000	0.943684 
4408.000000	0.925636 
4407.000000	0.907516 
4406.000000	0.891280 
4405.000000	0.878787 
4404.000000	0.871825 
4403.000000	0.871348 
4402.000000	0.877642 
4401.000000	0.890111 
4400.000000	0.907611 
4399.000000	0.928449 
4398.000000	0.950741 
4397.000000	0.972795 
4396.000000	0.993180 
4395.000000	1.010966 
4394.000000	1.025581 
4393.000000	1.036906 
4392.000000	1.045155 
4391.000000	1.050734 
4390.000000	1.054143 
4389.000000	1.055932 
4388.000000	1.056575 
4387.000000	1.056671 
4386.000000	1.056647 
4385.000000	1.056790 
4384.000000	1.057362 
4383.000000	1.058387 
4382.000000	1.059794 
4381.000000	1.061344 
4380.000000	1.062774 
4379.000000	1.063919 
4378.000000	1.064562 
4377.000000	1.064658 
4376.000000	1.064252 
4375.000000	1.063442 
4374.000000	1.062417 
4373.000000	1.061296 
4372.000000	1.060199 
4371.000000	1.059198 
4370.000000	1.058268 
4369.000000	1.057481 
4368.000000	1.056814 
4367.000000	1.056194 
4366.000000	1.055741 
4365.000000	1.055598 
4364.000000	1.055836 
4363.000000	1.056575 
4362.000000	1.057839 
4361.000000	1.059556 
4360.000000	1.061582 
4359.000000	1.063632 
4358.000000	1.065516 
4357.000000	1.067090 
4356.000000	1.068162 
4355.000000	1.068687 
4354.000000	1.068782 
4353.000000	1.068520 
4352.000000	1.068091 
4351.000000	1.067686 
4350.000000	1.067423 
4349.000000	1.067352 
4348.000000	1.067519 
4347.000000	1.067996 
4346.000000	1.068711 
4345.000000	1.069641 
4344.000000	1.070761 
4343.000000	1.071977 
4342.000000	1.073217 
4341.000000	1.074457 
4340.000000	1.075625 
4339.000000	1.076602 
4338.000000	1.077389 
4337.000000	1.078081 
4336.000000	1.078701 
4335.000000	1.079344 
4334.000000	1.080107 
4333.000000	1.081109 
4332.000000	1.082348 
4331.000000	1.083827 
4330.000000	1.085495 
4329.000000	1.087260 
4328.000000	1.089072 
4327.000000	1.090812 
4326.000000	1.092410 
4325.000000	1.093864 
4324.000000	1.095104 
4323.000000	1.096177 
4322.000000	1.097154 
4321.000000	1.098036 
4320.000000	1.098966 
4319.000000	1.099896 
4318.000000	1.100969 
4317.000000	1.102137 
4316.000000	1.103377 
4315.000000	1.104640 
4314.000000	1.105880 
4313.000000	1.107072 
4312.000000	1.108169 
4311.000000	1.109170 
4310.000000	1.110100 
4309.000000	1.111030 
4308.000000	1.111936 
4307.000000	1.112890 
4306.000000	1.113915 
4305.000000	1.114940 
4304.000000	1.115989 
4303.000000	1.116991 
4302.000000	1.117920 
4301.000000	1.118826 
4300.000000	1.119637 
4299.000000	1.120400 
4298.000000	1.121187 
4297.000000	1.121950 
4296.000000	1.122784 
4295.000000	1.123666 
4294.000000	1.124620 
4293.000000	1.125669 
4292.000000	1.126742 
4291.000000	1.127886 
4290.000000	1.129007 
4289.000000	1.130199 
4288.000000	1.131367 
4287.000000	1.132488 
4286.000000	1.133561 
4285.000000	1.134538 
4284.000000	1.135468 
4283.000000	1.136326 
4282.000000	1.137113 
4281.000000	1.137924 
4280.000000	1.138758 
4279.000000	1.139640 
4278.000000	1.140618 
4277.000000	1.141643 
4276.000000	1.142668 
4275.000000	1.143717 
4274.000000	1.144695 
4273.000000	1.145601 
4272.000000	1.146411 
4271.000000	1.147103 
4270.000000	1.147699 
4269.000000	1.148247 
4268.000000	1.148724 
4267.000000	1.149272 
4266.000000	1.149892 
4265.000000	1.150584 
4264.000000	1.151418 
4263.000000	1.152396 
4262.000000	1.153469 
4261.000000	1.154589 
4260.000000	1.155734 
4259.000000	1.156878 
4258.000000	1.157999 
4257.000000	1.159095 
4256.000000	1.160168 
4255.000000	1.161193 
4254.000000	1.162219 
4253.000000	1.163196 
4252.000000	1.164126 
4251.000000	1.164913 
4250.000000	1.165604 
4249.000000	1.166129 
4248.000000	1.166486 
4247.000000	1.166725 
4246.000000	1.166915 
4245.000000	1.167058 
4244.000000	1.167273 
4243.000000	1.167631 
4242.000000	1.168155 
4241.000000	1.168918 
4240.000000	1.169896 
4239.000000	1.171064 
4238.000000	1.172351 
4237.000000	1.173734 
4236.000000	1.175117 
4235.000000	1.176500 
4234.000000	1.177716 
4233.000000	1.178836 
4232.000000	1.179718 
4231.000000	1.180458 
4230.000000	1.180982 
4229.000000	1.181340 
4228.000000	1.181626 
4227.000000	1.181864 
4226.000000	1.182103 
4225.000000	1.182413 
4224.000000	1.182723 
4223.000000	1.183080 
4222.000000	1.183485 
4221.000000	1.183891 
4220.000000	1.184272 
4219.000000	1.184606 
4218.000000	1.184892 
4217.000000	1.185107 
4216.000000	1.185274 
4215.000000	1.185345 
4214.000000	1.185417 
4213.000000	1.185488 
4212.000000	1.185679 
4211.000000	1.185989 
4210.000000	1.186513 
4209.000000	1.187252 
4208.000000	1.188278 
4207.000000	1.189517 
4206.000000	1.190924 
4205.000000	1.192355 
4204.000000	1.193714 
4203.000000	1.194930 
4202.000000	1.195859 
4201.000000	1.196479 
4200.000000	1.196765 
4199.000000	1.196742 
4198.000000	1.196527 
4197.000000	1.196122 
4196.000000	1.195669 
4195.000000	1.195216 
4194.000000	1.194906 
4193.000000	1.194763 
4192.000000	1.194810 
4191.000000	1.195096 
4190.000000	1.195597 
4189.000000	1.196360 
4188.000000	1.197242 
4187.000000	1.198244 
4186.000000	1.199340 
4185.000000	1.200437 
4184.000000	1.201534 
4183.000000	1.202535 
4182.000000	1.203441 
4181.000000	1.204228 
4180.000000	1.204872 
4179.000000	1.205325 
4178.000000	1.205611 
4177.000000	1.205658 
4176.000000	1.205587 
4175.000000	1.205420 
4174.000000	1.205229 
4173.000000	1.205110 
4172.000000	1.205134 
4171.000000	1.205325 
4170.000000	1.205778 
4169.000000	1.206517 
4168.000000	1.207423 
4167.000000	1.208519 
4166.000000	1.209759 
4165.000000	1.211023 
4164.000000	1.212239 
4163.000000	1.213383 
4162.000000	1.214385 
4161.000000	1.215314 
4160.000000	1.216125 
4159.000000	1.216888 
4158.000000	1.217651 
4157.000000	1.218414 
4156.000000	1.219177 
4155.000000	1.219916 
4154.000000	1.220655 
4153.000000	1.221323 
4152.000000	1.221895 
4151.000000	1.222419 
4150.000000	1.222872 
4149.000000	1.223301 
4148.000000	1.223826 
4147.000000	1.224422 
4146.000000	1.225137 
4145.000000	1.225948 
4144.000000	1.226758 
4143.000000	1.227593 
4142.000000	1.228308 
4141.000000	1.228857 
4140.000000	1.229333 
4139.000000	1.229739 
4138.000000	1.230120 
4137.000000	1.230525 
4136.000000	1.231002 
4135.000000	1.231575 
4134.000000	1.232218 
4133.000000	1.232957 
4132.000000	1.233720 
4131.000000	1.234483 
4130.000000	1.235294 
4129.000000	1.236104 
4128.000000	1.236963 
4127.000000	1.237797 
4126.000000	1.238679 
4125.000000	1.239538 
4124.000000	1.240396 
4123.000000	1.241207 
4122.000000	1.241946 
4121.000000	1.242589 
4120.000000	1.243233 
4119.000000	1.243853 
4118.000000	1.244592 
4117.000000	1.245427 
4116.000000	1.246404 
4115.000000	1.247525 
4114.000000	1.248788 
4113.000000	1.250052 
4112.000000	1.251292 
4111.000000	1.252460 
4110.000000	1.253461 
4109.000000	1.254343 
4108.000000	1.255130 
4107.000000	1.255869 
4106.000000	1.256656 
4105.000000	1.257491 
4104.000000	1.258516 
4103.000000	1.259636 
4102.000000	1.260876 
4101.000000	1.262187 
4100.000000	1.263475 
4099.000000	1.264739 
4098.000000	1.265931 
4097.000000	1.267075 
4096.000000	1.268243 
4095.000000	1.269435 
4094.000000	1.270675 
4093.000000	1.272010 
4092.000000	1.273393 
4091.000000	1.274895 
4090.000000	1.276397 
4089.000000	1.277923 
4088.000000	1.279449 
4087.000000	1.280951 
4086.000000	1.282405 
4085.000000	1.283693 
4084.000000	1.284909 
4083.000000	1.285982 
4082.000000	1.286959 
4081.000000	1.287770 
4080.000000	1.288509 
4079.000000	1.289176 
4078.000000	1.289844 
4077.000000	1.290583 
4076.000000	1.291418 
4075.000000	1.292419 
4074.000000	1.293587 
4073.000000	1.294970 
4072.000000	1.296472 
4071.000000	1.298141 
4070.000000	1.299905 
4069.000000	1.301789 
4068.000000	1.303648 
4067.000000	1.305484 
4066.000000	1.307225 
4065.000000	1.308846 
4064.000000	1.310372 
4063.000000	1.311755 
4062.000000	1.313042 
4061.000000	1.314306 
4060.000000	1.315546 
4059.000000	1.316785 
4058.000000	1.318120 
4057.000000	1.319527 
4056.000000	1.320981 
4055.000000	1.322460 
4054.000000	1.323914 
4053.000000	1.325321 
4052.000000	1.326632 
4051.000000	1.327800 
4050.000000	1.328921 
4049.000000	1.329994 
4048.000000	1.331043 
4047.000000	1.332139 
4046.000000	1.333355 
4045.000000	1.334667 
4044.000000	1.336097 
4043.000000	1.337671 
4042.000000	1.339316 
4041.000000	1.341009 
4040.000000	1.342701 
4039.000000	1.344323 
4038.000000	1.345849 
4037.000000	1.347255 
4036.000000	1.348495 
4035.000000	1.349639 
4034.000000	1.350665 
4033.000000	1.351666 
4032.000000	1.352667 
4031.000000	1.353693 
4030.000000	1.354813 
4029.000000	1.356005 
4028.000000	1.357221 
4027.000000	1.358485 
4026.000000	1.359772 
4025.000000	1.361012 
4024.000000	1.362228 
4023.000000	1.363372 
4022.000000	1.364517 
4021.000000	1.365661 
4020.000000	1.366829 
4019.000000	1.368045 
4018.000000	1.369357 
4017.000000	1.370716 
4016.000000	1.372146 
4015.000000	1.373577 
4014.000000	1.374983 
4013.000000	1.376342 
4012.000000	1.377677 
4011.000000	1.378917 
4010.000000	1.380109 
4009.000000	1.381254 
4008.000000	1.382303 
4007.000000	1.383304 
4006.000000	1.384234 
4005.000000	1.385045 
4004.000000	1.385712 
4003.000000	1.386308 
4002.000000	1.386809 
4001.000000	1.387214 
4000.000000	1.387572 
3999.000000	1.387882 
3998.000000	1.388192 
3997.000000	1.388478 
3996.000000	1.388859 
3995.000000	1.389312 
3994.000000	1.389932 
3993.000000	1.390695 
3992.000000	1.391625 
3991.000000	1.392745 
3990.000000	1.393961 
3989.000000	1.395249 
3988.000000	1.396536 
3987.000000	1.397800 
3986.000000	1.398921 
3985.000000	1.399898 
3984.000000	1.400709 
3983.000000	1.401376 
3982.000000	1.401925 
3981.000000	1.402330 
3980.000000	1.402688 
3979.000000	1.402997 
3978.000000	1.403284 
3977.000000	1.403546 
3976.000000	1.403832 
3975.000000	1.404166 
3974.000000	1.404500 
3973.000000	1.404905 
3972.000000	1.405358 
3971.000000	1.405906 
3970.000000	1.406502 
3969.000000	1.407146 
3968.000000	1.407814 
3967.000000	1.408529 
3966.000000	1.409244 
3965.000000	1.409912 
3964.000000	1.410531 
3963.000000	1.411080 
3962.000000	1.411557 
3961.000000	1.411914 
3960.000000	1.412177 
3959.000000	1.412415 
3958.000000	1.412606 
3957.000000	1.412820 
3956.000000	1.413035 
3955.000000	1.413369 
3954.000000	1.413798 
3953.000000	1.414346 
3952.000000	1.414990 
3951.000000	1.415705 
3950.000000	1.416540 
3949.000000	1.417398 
3948.000000	1.418256 
3947.000000	1.419043 
3946.000000	1.419806 
3945.000000	1.420521 
3944.000000	1.421189 
3943.000000	1.421785 
3942.000000	1.422333 
3941.000000	1.422858 
3940.000000	1.423382 
3939.000000	1.423835 
3938.000000	1.424241 
3937.000000	1.424574 
3936.000000	1.424837 
3935.000000	1.425027 
3934.000000	1.425170 
3933.000000	1.425290 
3932.000000	1.425433 
3931.000000	1.425671 
3930.000000	1.426029 
3929.000000	1.426458 
3928.000000	1.427006 
3927.000000	1.427555 
3926.000000	1.428079 
3925.000000	1.428484 
3924.000000	1.428747 
3923.000000	1.428842 
3922.000000	1.428794 
3921.000000	1.428651 
3920.000000	1.428484 
3919.000000	1.428413 
3918.000000	1.428461 
3917.000000	1.428747 
3916.000000	1.429247 
3915.000000	1.429986 
3914.000000	1.430869 
3913.000000	1.431775 
3912.000000	1.432561 
3911.000000	1.433134 
3910.000000	1.433372 
3909.000000	1.433205 
3908.000000	1.432704 
3907.000000	1.431989 
3906.000000	1.431155 
3905.000000	1.430416 
3904.000000	1.429939 
3903.000000	1.429915 
3902.000000	1.430320 
3901.000000	1.431226 
3900.000000	1.432490 
3899.000000	1.433992 
3898.000000	1.435613 
3897.000000	1.437163 
3896.000000	1.438546 
3895.000000	1.439619 
3894.000000	1.440358 
3893.000000	1.440811 
3892.000000	1.440978 
3891.000000	1.440930 
3890.000000	1.440787 
3889.000000	1.440596 
3888.000000	1.440429 
3887.000000	1.440334 
3886.000000	1.440429 
3885.000000	1.440668 
3884.000000	1.441121 
3883.000000	1.441717 
3882.000000	1.442408 
3881.000000	1.443123 
3880.000000	1.443791 
3879.000000	1.444339 
3878.000000	1.444745 
3877.000000	1.444959 
3876.000000	1.445078 
3875.000000	1.445174 
3874.000000	1.445317 
3873.000000	1.445555 
3872.000000	1.446008 
3871.000000	1.446676 
3870.000000	1.447629 
3869.000000	1.448750 
3868.000000	1.450085 
3867.000000	1.451563 
3866.000000	1.453089 
3865.000000	1.454615 
3864.000000	1.455998 
3863.000000	1.457166 
3862.000000	1.457881 
3861.000000	1.458096 
3860.000000	1.457762 
3859.000000	1.456880 
3858.000000	1.455712 
3857.000000	1.454472 
3856.000000	1.453471 
3855.000000	1.453018 
3854.000000	1.453375 
3853.000000	1.454591 
3852.000000	1.456642 
3851.000000	1.459288 
3850.000000	1.462173 
3849.000000	1.464962 
3848.000000	1.467275 
3847.000000	1.468873 
3846.000000	1.469707 
3845.000000	1.469802 
3844.000000	1.469349 
3843.000000	1.468563 
3842.000000	1.467776 
3841.000000	1.467227 
3840.000000	1.467132 
3839.000000	1.467609 
3838.000000	1.468658 
3837.000000	1.470303 
3836.000000	1.472330 
3835.000000	1.474690 
3834.000000	1.477217 
3833.000000	1.479721 
3832.000000	1.482105 
3831.000000	1.484227 
3830.000000	1.486015 
3829.000000	1.487445 
3828.000000	1.488518 
3827.000000	1.489329 
3826.000000	1.489877 
3825.000000	1.490259 
3824.000000	1.490545 
3823.000000	1.490879 
3822.000000	1.491332 
3821.000000	1.491975 
3820.000000	1.492881 
3819.000000	1.494097 
3818.000000	1.495647 
3817.000000	1.497507 
3816.000000	1.499629 
3815.000000	1.501846 
3814.000000	1.504039 
3813.000000	1.505947 
3812.000000	1.507520 
3811.000000	1.508569 
3810.000000	1.509094 
3809.000000	1.509141 
3808.000000	1.508760 
3807.000000	1.508116 
3806.000000	1.507425 
3805.000000	1.506924 
3804.000000	1.506757 
3803.000000	1.507091 
3802.000000	1.508021 
3801.000000	1.509547 
3800.000000	1.511597 
3799.000000	1.514101 
3798.000000	1.516866 
3797.000000	1.519703 
3796.000000	1.522445 
3795.000000	1.524949 
3794.000000	1.527094 
3793.000000	1.528882 
3792.000000	1.530241 
3791.000000	1.531291 
3790.000000	1.532077 
3789.000000	1.532697 
3788.000000	1.533246 
3787.000000	1.533842 
3786.000000	1.534533 
3785.000000	1.535344 
3784.000000	1.536297 
3783.000000	1.537370 
3782.000000	1.538610 
3781.000000	1.539945 
3780.000000	1.541304 
3779.000000	1.542639 
3778.000000	1.543927 
3777.000000	1.545023 
3776.000000	1.545929 
3775.000000	1.546573 
3774.000000	1.547026 
3773.000000	1.547288 
3772.000000	1.547384 
3771.000000	1.547384 
3770.000000	1.547431 
3769.000000	1.547574 
3768.000000	1.547813 
3767.000000	1.548218 
3766.000000	1.548719 
3765.000000	1.549363 
3764.000000	1.550006 
3763.000000	1.550626 
3762.000000	1.551103 
3761.000000	1.551389 
3760.000000	1.551389 
3759.000000	1.551127 
3758.000000	1.550555 
3757.000000	1.549673 
3756.000000	1.548600 
3755.000000	1.547408 
3754.000000	1.546096 
3753.000000	1.544833 
3752.000000	1.543664 
3751.000000	1.542687 
3750.000000	1.542019 
3749.000000	1.541686 
3748.000000	1.541781 
3747.000000	1.542377 
3746.000000	1.543474 
3745.000000	1.545047 
3744.000000	1.546955 
3743.000000	1.549053 
3742.000000	1.551151 
3741.000000	1.553034 
3740.000000	1.554608 
3739.000000	1.555752 
3738.000000	1.556515 
3737.000000	1.556944 
3736.000000	1.557254 
3735.000000	1.557540 
3734.000000	1.558041 
3733.000000	1.558828 
3732.000000	1.559877 
3731.000000	1.561212 
3730.000000	1.562666 
3729.000000	1.564168 
3728.000000	1.565599 
3727.000000	1.566910 
3726.000000	1.568055 
3725.000000	1.569008 
3724.000000	1.569795 
3723.000000	1.570463 
3722.000000	1.570916 
3721.000000	1.571226 
3720.000000	1.571393 
3719.000000	1.571297 
3718.000000	1.571083 
3717.000000	1.570653 
3716.000000	1.570153 
3715.000000	1.569676 
3714.000000	1.569247 
3713.000000	1.569056 
3712.000000	1.569080 
3711.000000	1.569342 
3710.000000	1.569843 
3709.000000	1.570510 
3708.000000	1.571297 
3707.000000	1.572084 
3706.000000	1.572895 
3705.000000	1.573681 
3704.000000	1.574444 
3703.000000	1.575279 
3702.000000	1.576137 
3701.000000	1.577019 
3700.000000	1.577830 
3699.000000	1.578474 
3698.000000	1.578855 
3697.000000	1.578855 
3696.000000	1.578402 
3695.000000	1.577448 
3694.000000	1.576089 
3693.000000	1.574468 
3692.000000	1.572751 
3691.000000	1.571202 
3690.000000	1.570057 
3689.000000	1.569485 
3688.000000	1.569461 
3687.000000	1.570010 
3686.000000	1.570916 
3685.000000	1.571965 
3684.000000	1.572895 
3683.000000	1.573467 
3682.000000	1.573514 
3681.000000	1.573014 
3680.000000	1.571941 
3679.000000	1.570463 
3678.000000	1.568794 
3677.000000	1.567149 
3676.000000	1.565790 
3675.000000	1.564884 
3674.000000	1.564455 
3673.000000	1.564645 
3672.000000	1.565456 
3671.000000	1.566767 
3670.000000	1.568460 
3669.000000	1.570415 
3668.000000	1.572537 
3667.000000	1.574611 
3666.000000	1.576471 
3665.000000	1.577997 
3664.000000	1.579141 
3663.000000	1.579833 
3662.000000	1.580071 
3661.000000	1.579904 
3660.000000	1.579380 
3659.000000	1.578617 
3658.000000	1.577663 
3657.000000	1.576495 
3656.000000	1.575183 
3655.000000	1.573848 
3654.000000	1.572513 
3653.000000	1.571273 
3652.000000	1.570248 
3651.000000	1.569581 
3650.000000	1.569366 
3649.000000	1.569676 
3648.000000	1.570558 
3647.000000	1.571846 
3646.000000	1.573491 
3645.000000	1.575255 
3644.000000	1.577019 
3643.000000	1.578569 
3642.000000	1.579856 
3641.000000	1.580810 
3640.000000	1.581406 
3639.000000	1.581668 
3638.000000	1.581645 
3637.000000	1.581358 
3636.000000	1.580834 
3635.000000	1.580166 
3634.000000	1.579403 
3633.000000	1.578617 
3632.000000	1.578021 
3631.000000	1.577711 
3630.000000	1.577782 
3629.000000	1.578283 
3628.000000	1.579117 
3627.000000	1.580214 
3626.000000	1.581454 
3625.000000	1.582598 
3624.000000	1.583480 
3623.000000	1.584005 
3622.000000	1.584172 
3621.000000	1.583957 
3620.000000	1.583623 
3619.000000	1.583242 
3618.000000	1.582980 
3617.000000	1.582908 
3616.000000	1.583099 
3615.000000	1.583528 
3614.000000	1.584196 
3613.000000	1.585078 
3612.000000	1.586008 
3611.000000	1.587033 
3610.000000	1.588082 
3609.000000	1.589083 
3608.000000	1.590037 
3607.000000	1.590895 
3606.000000	1.591634 
3605.000000	1.592230 
3604.000000	1.592683 
3603.000000	1.592993 
3602.000000	1.593184 
3601.000000	1.593303 
3600.000000	1.593422 
3599.000000	1.593542 
3598.000000	1.593708 
3597.000000	1.593947 
3596.000000	1.594257 
3595.000000	1.594614 
3594.000000	1.594972 
3593.000000	1.595401 
3592.000000	1.595807 
3591.000000	1.596283 
3590.000000	1.596832 
3589.000000	1.597476 
3588.000000	1.598262 
3587.000000	1.599168 
3586.000000	1.600170 
3585.000000	1.601290 
3584.000000	1.602411 
3583.000000	1.603436 
3582.000000	1.604366 
3581.000000	1.605129 
3580.000000	1.605677 
3579.000000	1.606035 
3578.000000	1.606178 
3577.000000	1.606130 
3576.000000	1.605939 
3575.000000	1.605653 
3574.000000	1.605319 
3573.000000	1.605010 
3572.000000	1.604723 
3571.000000	1.604580 
3570.000000	1.604652 
3569.000000	1.604938 
3568.000000	1.605510 
3567.000000	1.606369 
3566.000000	1.607441 
3565.000000	1.608753 
3564.000000	1.610183 
3563.000000	1.611661 
3562.000000	1.613092 
3561.000000	1.614475 
3560.000000	1.615691 
3559.000000	1.616740 
3558.000000	1.617646 
3557.000000	1.618385 
3556.000000	1.618933 
3555.000000	1.619362 
3554.000000	1.619672 
3553.000000	1.619863 
3552.000000	1.619982 
3551.000000	1.620078 
3550.000000	1.620173 
3549.000000	1.620316 
3548.000000	1.620483 
3547.000000	1.620721 
3546.000000	1.620984 
3545.000000	1.621246 
3544.000000	1.621460 
3543.000000	1.621675 
3542.000000	1.621818 
3541.000000	1.621913 
3540.000000	1.621961 
3539.000000	1.621985 
3538.000000	1.622033 
3537.000000	1.622104 
3536.000000	1.622176 
3535.000000	1.622319 
3534.000000	1.622414 
3533.000000	1.622462 
3532.000000	1.622486 
3531.000000	1.622414 
3530.000000	1.622271 
3529.000000	1.622152 
3528.000000	1.622033 
3527.000000	1.621937 
3526.000000	1.621913 
3525.000000	1.621985 
3524.000000	1.622128 
3523.000000	1.622319 
3522.000000	1.622557 
3521.000000	1.622843 
3520.000000	1.623201 
3519.000000	1.623558 
3518.000000	1.623940 
3517.000000	1.624345 
3516.000000	1.624751 
3515.000000	1.625084 
3514.000000	1.625370 
3513.000000	1.625561 
3512.000000	1.625561 
3511.000000	1.625418 
3510.000000	1.625108 
3509.000000	1.624655 
3508.000000	1.624107 
3507.000000	1.623439 
3506.000000	1.622772 
3505.000000	1.622080 
3504.000000	1.621460 
3503.000000	1.620841 
3502.000000	1.620197 
3501.000000	1.619577 
3500.000000	1.618957 
3499.000000	1.618313 
3498.000000	1.617717 
3497.000000	1.617097 
3496.000000	1.616501 
3495.000000	1.615905 
3494.000000	1.615405 
3493.000000	1.614975 
3492.000000	1.614618 
3491.000000	1.614356 
3490.000000	1.614189 
3489.000000	1.614093 
3488.000000	1.613998 
3487.000000	1.613903 
3486.000000	1.613736 
3485.000000	1.613521 
3484.000000	1.613163 
3483.000000	1.612687 
3482.000000	1.612114 
3481.000000	1.611447 
3480.000000	1.610803 
3479.000000	1.610183 
3478.000000	1.609659 
3477.000000	1.609158 
3476.000000	1.608705 
3475.000000	1.608252 
3474.000000	1.607799 
3473.000000	1.607275 
3472.000000	1.606655 
3471.000000	1.605987 
3470.000000	1.605296 
3469.000000	1.604604 
3468.000000	1.603960 
3467.000000	1.603412 
3466.000000	1.602935 
3465.000000	1.602554 
3464.000000	1.602196 
3463.000000	1.601791 
3462.000000	1.601386 
3461.000000	1.600909 
3460.000000	1.600289 
3459.000000	1.599597 
3458.000000	1.598834 
3457.000000	1.598072 
3456.000000	1.597309 
3455.000000	1.596570 
3454.000000	1.595878 
3453.000000	1.595282 
3452.000000	1.594710 
3451.000000	1.594185 
3450.000000	1.593685 
3449.000000	1.593160 
3448.000000	1.592564 
3447.000000	1.591873 
3446.000000	1.591062 
3445.000000	1.590156 
3444.000000	1.589131 
3443.000000	1.588058 
3442.000000	1.586914 
3441.000000	1.585769 
3440.000000	1.584696 
3439.000000	1.583766 
3438.000000	1.582980 
3437.000000	1.582360 
3436.000000	1.581954 
3435.000000	1.581716 
3434.000000	1.581621 
3433.000000	1.581597 
3432.000000	1.581621 
3431.000000	1.581621 
3430.000000	1.581597 
3429.000000	1.581525 
3428.000000	1.581454 
3427.000000	1.581406 
3426.000000	1.581478 
3425.000000	1.581668 
3424.000000	1.582098 
3423.000000	1.582646 
3422.000000	1.583409 
3421.000000	1.584267 
3420.000000	1.585173 
3419.000000	1.586008 
3418.000000	1.586723 
3417.000000	1.587247 
3416.000000	1.587581 
3415.000000	1.587796 
3414.000000	1.587915 
3413.000000	1.588034 
3412.000000	1.588153 
3411.000000	1.588392 
3410.000000	1.588678 
3409.000000	1.589107 
3408.000000	1.589608 
3407.000000	1.590132 
3406.000000	1.590704 
3405.000000	1.591300 
3404.000000	1.591944 
3403.000000	1.592612 
3402.000000	1.593351 
3401.000000	1.594161 
3400.000000	1.594972 
3399.000000	1.595807 
3398.000000	1.596593 
3397.000000	1.597332 
3396.000000	1.597952 
3395.000000	1.598501 
3394.000000	1.598978 
3393.000000	1.599383 
3392.000000	1.599788 
3391.000000	1.600241 
3390.000000	1.600813 
3389.000000	1.601457 
3388.000000	1.602196 
3387.000000	1.603007 
3386.000000	1.603841 
3385.000000	1.604700 
3384.000000	1.605534 
3383.000000	1.606321 
3382.000000	1.607012 
3381.000000	1.607632 
3380.000000	1.608204 
3379.000000	1.608777 
3378.000000	1.609373 
3377.000000	1.610016 
3376.000000	1.610755 
3375.000000	1.611614 
3374.000000	1.612615 
3373.000000	1.613688 
3372.000000	1.614832 
3371.000000	1.616024 
3370.000000	1.617169 
3369.000000	1.618266 
3368.000000	1.619315 
3367.000000	1.620316 
3366.000000	1.621317 
3365.000000	1.622390 
3364.000000	1.623606 
3363.000000	1.624989 
3362.000000	1.626586 
3361.000000	1.628422 
3360.000000	1.630449 
3359.000000	1.632642 
3358.000000	1.634812 
3357.000000	1.636958 
3356.000000	1.638913 
3355.000000	1.640653 
3354.000000	1.642107 
3353.000000	1.643323 
3352.000000	1.644349 
3351.000000	1.645278 
3350.000000	1.646208 
3349.000000	1.647210 
3348.000000	1.648306 
3347.000000	1.649522 
3346.000000	1.650857 
3345.000000	1.652240 
3344.000000	1.653623 
3343.000000	1.654982 
3342.000000	1.656222 
3341.000000	1.657366 
3340.000000	1.658463 
3339.000000	1.659512 
3338.000000	1.660609 
3337.000000	1.661777 
3336.000000	1.663017 
3335.000000	1.664447 
3334.000000	1.666069 
3333.000000	1.667809 
3332.000000	1.669764 
3331.000000	1.671838 
3330.000000	1.674056 
3329.000000	1.676321 
3328.000000	1.678586 
3327.000000	1.680803 
3326.000000	1.682901 
3325.000000	1.684737 
3324.000000	1.686358 
3323.000000	1.687717 
3322.000000	1.688861 
3321.000000	1.689863 
3320.000000	1.690745 
3319.000000	1.691627 
3318.000000	1.692533 
3317.000000	1.693487 
3316.000000	1.694512 
3315.000000	1.695632 
3314.000000	1.696801 
3313.000000	1.697945 
3312.000000	1.699113 
3311.000000	1.700282 
3310.000000	1.701450 
3309.000000	1.702666 
3308.000000	1.703929 
3307.000000	1.705265 
3306.000000	1.706671 
3305.000000	1.708173 
3304.000000	1.709699 
3303.000000	1.711320 
3302.000000	1.712942 
3301.000000	1.714587 
3300.000000	1.716208 
3299.000000	1.717805 
3298.000000	1.719307 
3297.000000	1.720738 
3296.000000	1.722049 
3295.000000	1.723194 
3294.000000	1.724243 
3293.000000	1.725149 
3292.000000	1.725959 
3291.000000	1.726722 
3290.000000	1.727461 
3289.000000	1.728296 
3288.000000	1.729226 
3287.000000	1.730275 
3286.000000	1.731491 
3285.000000	1.732826 
3284.000000	1.734256 
3283.000000	1.735734 
3282.000000	1.737260 
3281.000000	1.738739 
3280.000000	1.740193 
3279.000000	1.741600 
3278.000000	1.742982 
3277.000000	1.744413 
3276.000000	1.745867 
3275.000000	1.747369 
3274.000000	1.748943 
3273.000000	1.750516 
3272.000000	1.752066 
3271.000000	1.753520 
3270.000000	1.754784 
3269.000000	1.755881 
3268.000000	1.756763 
3267.000000	1.757335 
3266.000000	1.757740 
3265.000000	1.758098 
3264.000000	1.758360 
3263.000000	1.758670 
3262.000000	1.759052 
3261.000000	1.759505 
3260.000000	1.760029 
3259.000000	1.760649 
3258.000000	1.761293 
3257.000000	1.761960 
3256.000000	1.762628 
3255.000000	1.763272 
3254.000000	1.763916 
3253.000000	1.764559 
3252.000000	1.765227 
3251.000000	1.765942 
3250.000000	1.766681 
3249.000000	1.767492 
3248.000000	1.768326 
3247.000000	1.769232 
3246.000000	1.770162 
3245.000000	1.771092 
3244.000000	1.772022 
3243.000000	1.772952 
3242.000000	1.773810 
3241.000000	1.774573 
3240.000000	1.775193 
3239.000000	1.775717 
3238.000000	1.776075 
3237.000000	1.776385 
3236.000000	1.776623 
3235.000000	1.776933 
3234.000000	1.777362 
3233.000000	1.777935 
3232.000000	1.778650 
3231.000000	1.779460 
3230.000000	1.780319 
3229.000000	1.781201 
3228.000000	1.782011 
3227.000000	1.782679 
3226.000000	1.783180 
3225.000000	1.783585 
3224.000000	1.783800 
3223.000000	1.783943 
3222.000000	1.784062 
3221.000000	1.784181 
3220.000000	1.784300 
3219.000000	1.784443 
3218.000000	1.784563 
3217.000000	1.784706 
3216.000000	1.784825 
3215.000000	1.784896 
3214.000000	1.784968 
3213.000000	1.784992 
3212.000000	1.785039 
3211.000000	1.785063 
3210.000000	1.785087 
3209.000000	1.785135 
3208.000000	1.785159 
3207.000000	1.785182 
3206.000000	1.785182 
3205.000000	1.785159 
3204.000000	1.785111 
3203.000000	1.785063 
3202.000000	1.785016 
3201.000000	1.785016 
3200.000000	1.785063 
3199.000000	1.785135 
3198.000000	1.785302 
3197.000000	1.785564 
3196.000000	1.785850 
3195.000000	1.786184 
3194.000000	1.786565 
3193.000000	1.786971 
3192.000000	1.787352 
3191.000000	1.787757 
3190.000000	1.788115 
3189.000000	1.788449 
3188.000000	1.788806 
3187.000000	1.789140 
3186.000000	1.789474 
3185.000000	1.789808 
3184.000000	1.790165 
3183.000000	1.790499 
3182.000000	1.790904 
3181.000000	1.791262 
3180.000000	1.791596 
3179.000000	1.791882 
3178.000000	1.792120 
3177.000000	1.792287 
3176.000000	1.792359 
3175.000000	1.792383 
3174.000000	1.792383 
3173.000000	1.792430 
3172.000000	1.792478 
3171.000000	1.792716 
3170.000000	1.793146 
3169.000000	1.793742 
3168.000000	1.794528 
3167.000000	1.795482 
3166.000000	1.796507 
3165.000000	1.797580 
3164.000000	1.798605 
3163.000000	1.799488 
3162.000000	1.800203 
3161.000000	1.800799 
3160.000000	1.801204 
3159.000000	1.801562 
3158.000000	1.801824 
3157.000000	1.802134 
3156.000000	1.802468 
3155.000000	1.802825 
3154.000000	1.803302 
3153.000000	1.803827 
3152.000000	1.804447 
3151.000000	1.805138 
3150.000000	1.805853 
3149.000000	1.806592 
3148.000000	1.807355 
3147.000000	1.808166 
3146.000000	1.809024 
3145.000000	1.809906 
3144.000000	1.810860 
3143.000000	1.811885 
3142.000000	1.813030 
3141.000000	1.814270 
3140.000000	1.815629 
3139.000000	1.817154 
3138.000000	1.818776 
3137.000000	1.820468 
3136.000000	1.822233 
3135.000000	1.824021 
3134.000000	1.825785 
3133.000000	1.827454 
3132.000000	1.828956 
3131.000000	1.830315 
3130.000000	1.831412 
3129.000000	1.832342 
3128.000000	1.833033 
3127.000000	1.833605 
3126.000000	1.834058 
3125.000000	1.834535 
3124.000000	1.835036 
3123.000000	1.835656 
3122.000000	1.836466 
3121.000000	1.837444 
3120.000000	1.838612 
3119.000000	1.839971 
3118.000000	1.841449 
3117.000000	1.843023 
3116.000000	1.844596 
3115.000000	1.846194 
3114.000000	1.847791 
3113.000000	1.849341 
3112.000000	1.850843 
3111.000000	1.852345 
3110.000000	1.853799 
3109.000000	1.855278 
3108.000000	1.856756 
3107.000000	1.858305 
3106.000000	1.859831 
3105.000000	1.861429 
3104.000000	1.863098 
3103.000000	1.864790 
3102.000000	1.866579 
3101.000000	1.868462 
3100.000000	1.870441 
3099.000000	1.872539 
3098.000000	1.874685 
3097.000000	1.876854 
3096.000000	1.879024 
3095.000000	1.881122 
3094.000000	1.883172 
3093.000000	1.885128 
3092.000000	1.886987 
3091.000000	1.888775 
3090.000000	1.890563 
3089.000000	1.892399 
3088.000000	1.894235 
3087.000000	1.896119 
3086.000000	1.898074 
3085.000000	1.900029 
3084.000000	1.901936 
3083.000000	1.903796 
3082.000000	1.905512 
3081.000000	1.907134 
3080.000000	1.908707 
3079.000000	1.910138 
3078.000000	1.911568 
3077.000000	1.912951 
3076.000000	1.914334 
3075.000000	1.915693 
3074.000000	1.917028 
3073.000000	1.918268 
3072.000000	1.919364 
3071.000000	1.920342 
3070.000000	1.921176 
3069.000000	1.921963 
3068.000000	1.922798 
3067.000000	1.923727 
3066.000000	1.924800 
3065.000000	1.926159 
3064.000000	1.927757 
3063.000000	1.929569 
3062.000000	1.931595 
3061.000000	1.933717 
3060.000000	1.935887 
3059.000000	1.938009 
3058.000000	1.940107 
3057.000000	1.942133 
3056.000000	1.944088 
3055.000000	1.945996 
3054.000000	1.947832 
3053.000000	1.949596 
3052.000000	1.951313 
3051.000000	1.952862 
3050.000000	1.954293 
3049.000000	1.955580 
3048.000000	1.956748 
3047.000000	1.957845 
3046.000000	1.958823 
3045.000000	1.959776 
3044.000000	1.960730 
3043.000000	1.961612 
3042.000000	1.962447 
3041.000000	1.963210 
3040.000000	1.963877 
3039.000000	1.964497 
3038.000000	1.964998 
3037.000000	1.965427 
3036.000000	1.965808 
3035.000000	1.966166 
3034.000000	1.966452 
3033.000000	1.966691 
3032.000000	1.966786 
3031.000000	1.966667 
3030.000000	1.966285 
3029.000000	1.965570 
3028.000000	1.964497 
3027.000000	1.963067 
3026.000000	1.961350 
3025.000000	1.959395 
3024.000000	1.957392 
3023.000000	1.955461 
3022.000000	1.953840 
3021.000000	1.952624 
3020.000000	1.952052 
3019.000000	1.952219 
3018.000000	1.953244 
3017.000000	1.955103 
3016.000000	1.957821 
3015.000000	1.961326 
3014.000000	1.965451 
3013.000000	1.970100 
3012.000000	1.975035 
3011.000000	1.980113 
3010.000000	1.985192 
3009.000000	1.990127 
3008.000000	1.994752 
3007.000000	1.999044 
3006.000000	2.002930 
3005.000000	2.006316 
3004.000000	2.009272 
3003.000000	2.011871 
3002.000000	2.014112 
3001.000000	2.016043 
3000.000000	2.017760 
2999.000000	2.019262 
2998.000000	2.020549 
2997.000000	2.021670 
2996.000000	2.022624 
2995.000000	2.023386 
2994.000000	2.024006 
2993.000000	2.024459 
2992.000000	2.024793 
2991.000000	2.024960 
2990.000000	2.024984 
2989.000000	2.024865 
2988.000000	2.024483 
2987.000000	2.023935 
2986.000000	2.023077 
2985.000000	2.021956 
2984.000000	2.020525 
2983.000000	2.018857 
2982.000000	2.016949 
2981.000000	2.014803 
2980.000000	2.012491 
2979.000000	2.009868 
2978.000000	2.006983 
2977.000000	2.003788 
2976.000000	2.000212 
2975.000000	1.996207 
2974.000000	1.991748 
2973.000000	1.986813 
2972.000000	1.981544 
2971.000000	1.975893 
2970.000000	1.969981 
2969.000000	1.963901 
2968.000000	1.957798 
2967.000000	1.951837 
2966.000000	1.946163 
2965.000000	1.940965 
2964.000000	1.936364 
2963.000000	1.932454 
2962.000000	1.929306 
2961.000000	1.926922 
2960.000000	1.925206 
2959.000000	1.924037 
2958.000000	1.923298 
2957.000000	1.922774 
2956.000000	1.922297 
2955.000000	1.921772 
2954.000000	1.921057 
2953.000000	1.920080 
2952.000000	1.918768 
2951.000000	1.917052 
2950.000000	1.914834 
2949.000000	1.911973 
2948.000000	1.908421 
2947.000000	1.904058 
2946.000000	1.898670 
2945.000000	1.892423 
2944.000000	1.885271 
2943.000000	1.877331 
2942.000000	1.868724 
2941.000000	1.859617 
2940.000000	1.850247 
2939.000000	1.840853 
2938.000000	1.831555 
2937.000000	1.822566 
2936.000000	1.814007 
2935.000000	1.805901 
2934.000000	1.798319 
2933.000000	1.791238 
2932.000000	1.784706 
2931.000000	1.778721 
2930.000000	1.773428 
2929.000000	1.769018 
2928.000000	1.765680 
2927.000000	1.763725 
2926.000000	1.763391 
2925.000000	1.764941 
2924.000000	1.768517 
2923.000000	1.774168 
2922.000000	1.781773 
2921.000000	1.791191 
2920.000000	1.802039 
2919.000000	1.813983 
2918.000000	1.826548 
2917.000000	1.839327 
2916.000000	1.851940 
2915.000000	1.864004 
2914.000000	1.875329 
2913.000000	1.885819 
2912.000000	1.895356 
2911.000000	1.904010 
2910.000000	1.911830 
2909.000000	1.918911 
2908.000000	1.925349 
2907.000000	1.931238 
2906.000000	1.936626 
2905.000000	1.941680 
2904.000000	1.946353 
2903.000000	1.950693 
2902.000000	1.954746 
2901.000000	1.958537 
2900.000000	1.962041 
2899.000000	1.965355 
2898.000000	1.968526 
2897.000000	1.971554 
2896.000000	1.974511 
2895.000000	1.977419 
2894.000000	1.980233 
2893.000000	1.982998 
2892.000000	1.985692 
2891.000000	1.988291 
2890.000000	1.990818 
2889.000000	1.993250 
2888.000000	1.995611 
2887.000000	1.997876 
2886.000000	2.000045 
2885.000000	2.002024 
2884.000000	2.003836 
2883.000000	2.005362 
2882.000000	2.006554 
2881.000000	2.007269 
2880.000000	2.007436 
2879.000000	2.007031 
2878.000000	2.005982 
2877.000000	2.004194 
2876.000000	2.001619 
2875.000000	1.998186 
2874.000000	1.993918 
2873.000000	1.988673 
2872.000000	1.982498 
2871.000000	1.975345 
2870.000000	1.967334 
2869.000000	1.958632 
2868.000000	1.949405 
2867.000000	1.940083 
2866.000000	1.930999 
2865.000000	1.922631 
2864.000000	1.915359 
2863.000000	1.909756 
2862.000000	1.905941 
2861.000000	1.904273 
2860.000000	1.904678 
2859.000000	1.907157 
2858.000000	1.911520 
2857.000000	1.917576 
2856.000000	1.924920 
2855.000000	1.933336 
2854.000000	1.942467 
2853.000000	1.952075 
2852.000000	1.962018 
2851.000000	1.972079 
2850.000000	1.982116 
2849.000000	1.992058 
2848.000000	2.001857 
2847.000000	2.011394 
2846.000000	2.020645 
2845.000000	2.029514 
2844.000000	2.037954 
2843.000000	2.045965 
2842.000000	2.053475 
2841.000000	2.060437 
2840.000000	2.066874 
2839.000000	2.072787 
2838.000000	2.078199 
2837.000000	2.083158 
2836.000000	2.087736 
2835.000000	2.091979 
2834.000000	2.095913 
2833.000000	2.099585 
2832.000000	2.102994 
2831.000000	2.106237 
2830.000000	2.109241 
2829.000000	2.112054 
2828.000000	2.114677 
2827.000000	2.117204 
2826.000000	2.119660 
2825.000000	2.122044 
2824.000000	2.124404 
2823.000000	2.126836 
2822.000000	2.129340 
2821.000000	2.131938 
2820.000000	2.134585 
2819.000000	2.137327 
2818.000000	2.140116 
2817.000000	2.142882 
2816.000000	2.145576 
2815.000000	2.148222 
2814.000000	2.150702 
2813.000000	2.152943 
2812.000000	2.155065 
2811.000000	2.156972 
2810.000000	2.158737 
2809.000000	2.160382 
2808.000000	2.161931 
2807.000000	2.163505 
2806.000000	2.165102 
2805.000000	2.166724 
2804.000000	2.168369 
2803.000000	2.170085 
2802.000000	2.171802 
2801.000000	2.173495 
2800.000000	2.175116 
2799.000000	2.176690 
2798.000000	2.178192 
2797.000000	2.179670 
2796.000000	2.181148 
2795.000000	2.182626 
2794.000000	2.184104 
2793.000000	2.185678 
2792.000000	2.187323 
2791.000000	2.189016 
2790.000000	2.190756 
2789.000000	2.192544 
2788.000000	2.194356 
2787.000000	2.196240 
2786.000000	2.198123 
2785.000000	2.200078 
2784.000000	2.202057 
2783.000000	2.204084 
2782.000000	2.206087 
2781.000000	2.208065 
2780.000000	2.210021 
2779.000000	2.211928 
2778.000000	2.213811 
2777.000000	2.215623 
2776.000000	2.217435 
2775.000000	2.219223 
2774.000000	2.221012 
2773.000000	2.222824 
2772.000000	2.224659 
2771.000000	2.226448 
2770.000000	2.228260 
2769.000000	2.229976 
2768.000000	2.231645 
2767.000000	2.233195 
2766.000000	2.234625 
2765.000000	2.235889 
2764.000000	2.236986 
2763.000000	2.237915 
2762.000000	2.238655 
2761.000000	2.239298 
2760.000000	2.239918 
2759.000000	2.240514 
2758.000000	2.241134 
2757.000000	2.241897 
2756.000000	2.242732 
2755.000000	2.243661 
2754.000000	2.244663 
2753.000000	2.245664 
2752.000000	2.246594 
2751.000000	2.247428 
2750.000000	2.248024 
2749.000000	2.248525 
2748.000000	2.248859 
2747.000000	2.249121 
2746.000000	2.249336 
2745.000000	2.249574 
2744.000000	2.249860 
2743.000000	2.250194 
2742.000000	2.250599 
2741.000000	2.251029 
2740.000000	2.251458 
2739.000000	2.251815 
2738.000000	2.252149 
2737.000000	2.252364 
2736.000000	2.252531 
2735.000000	2.252602 
2734.000000	2.252602 
2733.000000	2.252578 
2732.000000	2.252554 
2731.000000	2.252483 
2730.000000	2.252483 
2729.000000	2.252459 
2728.000000	2.252483 
2727.000000	2.252554 
2726.000000	2.252626 
2725.000000	2.252674 
2724.000000	2.252721 
2723.000000	2.252745 
2722.000000	2.252745 
2721.000000	2.252697 
2720.000000	2.252626 
2719.000000	2.252554 
2718.000000	2.252411 
2717.000000	2.252221 
2716.000000	2.251958 
2715.000000	2.251601 
2714.000000	2.251195 
2713.000000	2.250695 
2712.000000	2.250170 
2711.000000	2.249622 
2710.000000	2.249050 
2709.000000	2.248501 
2708.000000	2.247929 
2707.000000	2.247357 
2706.000000	2.246785 
2705.000000	2.246189 
2704.000000	2.245593 
2703.000000	2.244997 
2702.000000	2.244377 
2701.000000	2.243828 
2700.000000	2.243328 
2699.000000	2.242970 
2698.000000	2.242779 
2697.000000	2.242732 
2696.000000	2.242875 
2695.000000	2.243137 
2694.000000	2.243494 
2693.000000	2.243900 
2692.000000	2.244281 
2691.000000	2.244544 
2690.000000	2.244687 
2689.000000	2.244615 
2688.000000	2.244329 
2687.000000	2.243828 
2686.000000	2.243113 
2685.000000	2.242231 
2684.000000	2.241206 
2683.000000	2.240180 
2682.000000	2.239155 
2681.000000	2.238178 
2680.000000	2.237319 
2679.000000	2.236604 
2678.000000	2.236032 
2677.000000	2.235555 
2676.000000	2.235174 
2675.000000	2.234768 
2674.000000	2.234339 
2673.000000	2.233862 
2672.000000	2.233242 
2671.000000	2.232480 
2670.000000	2.231597 
2669.000000	2.230620 
2668.000000	2.229619 
2667.000000	2.228641 
2666.000000	2.227711 
2665.000000	2.226853 
2664.000000	2.226114 
2663.000000	2.225494 
2662.000000	2.224993 
2661.000000	2.224588 
2660.000000	2.224230 
2659.000000	2.223920 
2658.000000	2.223658 
2657.000000	2.223467 
2656.000000	2.223277 
2655.000000	2.223157 
2654.000000	2.223062 
2653.000000	2.222990 
2652.000000	2.222943 
2651.000000	2.222895 
2650.000000	2.222847 
2649.000000	2.222800 
2648.000000	2.222752 
2647.000000	2.222704 
2646.000000	2.222657 
2645.000000	2.222609 
2644.000000	2.222537 
2643.000000	2.222466 
2642.000000	2.222347 
2641.000000	2.222228 
2640.000000	2.222061 
2639.000000	2.221894 
2638.000000	2.221703 
2637.000000	2.221560 
2636.000000	2.221441 
2635.000000	2.221417 
2634.000000	2.221441 
2633.000000	2.221560 
2632.000000	2.221679 
2631.000000	2.221798 
2630.000000	2.221894 
2629.000000	2.221941 
2628.000000	2.221918 
2627.000000	2.221822 
2626.000000	2.221679 
2625.000000	2.221465 
2624.000000	2.221226 
2623.000000	2.221012 
2622.000000	2.220821 
2621.000000	2.220630 
2620.000000	2.220535 
2619.000000	2.220535 
2618.000000	2.220606 
2617.000000	2.220797 
2616.000000	2.221083 
2615.000000	2.221441 
2614.000000	2.221894 
2613.000000	2.222347 
2612.000000	2.222800 
2611.000000	2.223229 
2610.000000	2.223634 
2609.000000	2.223968 
2608.000000	2.224278 
2607.000000	2.224540 
2606.000000	2.224802 
2605.000000	2.225065 
2604.000000	2.225327 
2603.000000	2.225565 
2602.000000	2.225804 
2601.000000	2.226090 
2600.000000	2.226352 
2599.000000	2.226686 
2598.000000	2.227044 
2597.000000	2.227520 
2596.000000	2.228093 
2595.000000	2.228760 
2594.000000	2.229547 
2593.000000	2.230405 
2592.000000	2.231335 
2591.000000	2.232241 
2590.000000	2.233147 
2589.000000	2.233982 
2588.000000	2.234768 
2587.000000	2.235531 
2586.000000	2.236366 
2585.000000	2.237272 
2584.000000	2.238321 
2583.000000	2.239561 
2582.000000	2.241015 
2581.000000	2.242636 
2580.000000	2.244424 
2579.000000	2.246284 
2578.000000	2.248167 
2577.000000	2.250003 
2576.000000	2.251815 
2575.000000	2.253460 
2574.000000	2.255082 
2573.000000	2.256560 
2572.000000	2.257990 
2571.000000	2.259349 
2570.000000	2.260708 
2569.000000	2.262043 
2568.000000	2.263355 
2567.000000	2.264618 
2566.000000	2.265834 
2565.000000	2.266955 
2564.000000	2.267956 
2563.000000	2.268886 
2562.000000	2.269768 
2561.000000	2.270627 
2560.000000	2.271461 
2559.000000	2.272295 
2558.000000	2.273225 
2557.000000	2.274203 
2556.000000	2.275300 
2555.000000	2.276468 
2554.000000	2.277755 
2553.000000	2.279162 
2552.000000	2.280664 
2551.000000	2.282190 
2550.000000	2.283740 
2549.000000	2.285265 
2548.000000	2.286767 
2547.000000	2.288198 
2546.000000	2.289533 
2545.000000	2.290749 
2544.000000	2.291893 
2543.000000	2.292895 
2542.000000	2.293848 
2541.000000	2.294707 
2540.000000	2.295494 
2539.000000	2.296280 
2538.000000	2.297067 
2537.000000	2.297902 
2536.000000	2.298712 
2535.000000	2.299594 
2534.000000	2.300500 
2533.000000	2.301406 
2532.000000	2.302360 
2531.000000	2.303338 
2530.000000	2.304291 
2529.000000	2.305269 
2528.000000	2.306246 
2527.000000	2.307224 
2526.000000	2.308130 
2525.000000	2.308964 
2524.000000	2.309823 
2523.000000	2.310538 
2522.000000	2.311229 
2521.000000	2.311873 
2520.000000	2.312493 
2519.000000	2.313113 
2518.000000	2.313733 
2517.000000	2.314352 
2516.000000	2.314972 
2515.000000	2.315640 
2514.000000	2.316308 
2513.000000	2.316951 
2512.000000	2.317595 
2511.000000	2.318239 
2510.000000	2.318835 
2509.000000	2.319359 
2508.000000	2.319860 
2507.000000	2.320265 
2506.000000	2.320623 
2505.000000	2.320814 
2504.000000	2.320957 
2503.000000	2.321004 
2502.000000	2.321052 
2501.000000	2.321100 
2500.000000	2.321195 
2499.000000	2.321362 
2498.000000	2.321624 
2497.000000	2.321910 
2496.000000	2.322244 
2495.000000	2.322602 
2494.000000	2.322936 
2493.000000	2.323174 
2492.000000	2.323389 
2491.000000	2.323460 
2490.000000	2.323412 
2489.000000	2.323293 
2488.000000	2.323102 
2487.000000	2.322864 
2486.000000	2.322530 
2485.000000	2.322173 
2484.000000	2.321791 
2483.000000	2.321386 
2482.000000	2.320933 
2481.000000	2.320456 
2480.000000	2.319955 
2479.000000	2.319478 
2478.000000	2.318954 
2477.000000	2.318429 
2476.000000	2.317857 
2475.000000	2.317237 
2474.000000	2.316522 
2473.000000	2.315759 
2472.000000	2.314949 
2471.000000	2.314066 
2470.000000	2.313208 
2469.000000	2.312374 
2468.000000	2.311563 
2467.000000	2.310848 
2466.000000	2.310204 
2465.000000	2.309608 
2464.000000	2.309060 
2463.000000	2.308535 
2462.000000	2.308011 
2461.000000	2.307438 
2460.000000	2.306842 
2459.000000	2.306246 
2458.000000	2.305603 
2457.000000	2.304959 
2456.000000	2.304291 
2455.000000	2.303647 
2454.000000	2.302980 
2453.000000	2.302312 
2452.000000	2.301573 
2451.000000	2.300715 
2450.000000	2.299761 
2449.000000	2.298712 
2448.000000	2.297592 
2447.000000	2.296376 
2446.000000	2.295112 
2445.000000	2.293872 
2444.000000	2.292680 
2443.000000	2.291512 
2442.000000	2.290368 
2441.000000	2.289247 
2440.000000	2.288174 
2439.000000	2.287125 
2438.000000	2.286124 
2437.000000	2.285146 
2436.000000	2.284145 
2435.000000	2.283191 
2434.000000	2.282214 
2433.000000	2.281236 
2432.000000	2.280235 
2431.000000	2.279257 
2430.000000	2.278256 
2429.000000	2.277302 
2428.000000	2.276396 
2427.000000	2.275609 
2426.000000	2.274966 
2425.000000	2.274441 
2424.000000	2.273964 
2423.000000	2.273559 
2422.000000	2.273082 
2421.000000	2.272534 
2420.000000	2.271866 
2419.000000	2.271080 
2418.000000	2.270174 
2417.000000	2.269172 
2416.000000	2.268195 
2415.000000	2.267217 
2414.000000	2.266311 
2413.000000	2.265453 
2412.000000	2.264618 
2411.000000	2.263784 
2410.000000	2.262949 
2409.000000	2.262067 
2408.000000	2.261114 
2407.000000	2.260112 
2406.000000	2.259135 
2405.000000	2.258157 
2404.000000	2.257251 
2403.000000	2.256441 
2402.000000	2.255702 
2401.000000	2.255034 
2400.000000	2.254414 
2399.000000	2.253866 
2398.000000	2.253293 
2397.000000	2.252745 
2396.000000	2.252221 
2395.000000	2.251768 
2394.000000	2.251386 
2393.000000	2.251100 
2392.000000	2.250909 
2391.000000	2.250814 
2390.000000	2.250766 
2389.000000	2.250766 
2388.000000	2.250742 
2387.000000	2.250647 
2386.000000	2.250456 
2385.000000	2.250146 
2384.000000	2.249717 
2383.000000	2.249121 
2382.000000	2.248501 
2381.000000	2.247786 
2380.000000	2.247023 
2379.000000	2.246189 
2378.000000	2.245283 
2377.000000	2.244329 
2376.000000	2.243304 
2375.000000	2.242255 
2374.000000	2.241134 
2373.000000	2.240037 
2372.000000	2.238941 
2371.000000	2.237868 
2370.000000	2.236866 
2369.000000	2.235960 
2368.000000	2.235221 
2367.000000	2.234625 
2366.000000	2.234244 
2365.000000	2.234125 
2364.000000	2.234268 
2363.000000	2.234697 
2362.000000	2.235436 
2361.000000	2.236461 
2360.000000	2.237725 
2359.000000	2.239203 
2358.000000	2.240920 
2357.000000	2.242851 
2356.000000	2.244997 
2355.000000	2.247309 
2354.000000	2.249693 
2353.000000	2.252125 
2352.000000	2.254509 
2351.000000	2.256751 
2350.000000	2.258729 
2349.000000	2.260398 
2348.000000	2.261662 
2347.000000	2.262616 
2346.000000	2.263212 
2345.000000	2.263641 
2344.000000	2.263903 
2343.000000	2.264165 
2342.000000	2.264499 
2341.000000	2.265000 
2340.000000	2.265691 
2339.000000	2.266573 
2338.000000	2.267622 
2337.000000	2.268815 
2336.000000	2.270102 
2335.000000	2.271437 
2334.000000	2.272796 
2333.000000	2.274179 
2332.000000	2.275562 
2331.000000	2.277016 
2330.000000	2.278494 
2329.000000	2.279996 
2328.000000	2.281665 
2327.000000	2.283406 
2326.000000	2.285218 
2325.000000	2.287149 
2324.000000	2.289175 
2323.000000	2.291274 
2322.000000	2.293419 
2321.000000	2.295613 
2320.000000	2.297782 
2319.000000	2.299904 
2318.000000	2.302002 
2317.000000	2.303981 
2316.000000	2.305841 
2315.000000	2.307629 
2314.000000	2.309346 
2313.000000	2.311015 
2312.000000	2.312707 
2311.000000	2.314424 
2310.000000	2.316236 
2309.000000	2.318096 
2308.000000	2.320003 
2307.000000	2.321910 
2306.000000	2.323770 
2305.000000	2.325606 
2304.000000	2.327275 
2303.000000	2.328824 
2302.000000	2.330231 
2301.000000	2.331519 
2300.000000	2.332806 
2299.000000	2.333998 
2298.000000	2.335238 
2297.000000	2.336525 
2296.000000	2.337861 
2295.000000	2.339267 
2294.000000	2.340722 
2293.000000	2.342200 
2292.000000	2.343654 
2291.000000	2.345085 
2290.000000	2.346444 
2289.000000	2.347779 
2288.000000	2.349042 
2287.000000	2.350234 
2286.000000	2.351355 
2285.000000	2.352404 
2284.000000	2.353405 
2283.000000	2.354335 
2282.000000	2.355241 
2281.000000	2.356171 
2280.000000	2.357053 
2279.000000	2.358007 
2278.000000	2.358961 
2277.000000	2.359938 
2276.000000	2.360916 
2275.000000	2.361869 
2274.000000	2.362799 
2273.000000	2.363634 
2272.000000	2.364373 
2271.000000	2.364969 
2270.000000	2.365493 
2269.000000	2.365922 
2268.000000	2.366304 
2267.000000	2.366685 
2266.000000	2.367115 
2265.000000	2.367615 
2264.000000	2.368187 
2263.000000	2.368855 
2262.000000	2.369642 
2261.000000	2.370429 
2260.000000	2.371239 
2259.000000	2.372050 
2258.000000	2.372837 
2257.000000	2.373528 
2256.000000	2.374148 
2255.000000	2.374720 
2254.000000	2.375197 
2253.000000	2.375555 
2252.000000	2.375817 
2251.000000	2.375936 
2250.000000	2.375912 
2249.000000	2.375769 
2248.000000	2.375483 
2247.000000	2.375173 
2246.000000	2.374863 
2245.000000	2.374529 
2244.000000	2.374315 
2243.000000	2.374124 
2242.000000	2.374053 
2241.000000	2.374029 
2240.000000	2.374053 
2239.000000	2.374124 
2238.000000	2.374196 
2237.000000	2.374243 
2236.000000	2.374243 
2235.000000	2.374172 
2234.000000	2.374076 
2233.000000	2.373957 
2232.000000	2.373790 
2231.000000	2.373623 
2230.000000	2.373385 
2229.000000	2.373123 
2228.000000	2.372813 
2227.000000	2.372479 
2226.000000	2.372145 
2225.000000	2.371788 
2224.000000	2.371430 
2223.000000	2.371048 
2222.000000	2.370643 
2221.000000	2.370166 
2220.000000	2.369666 
2219.000000	2.369046 
2218.000000	2.368307 
2217.000000	2.367520 
2216.000000	2.366662 
2215.000000	2.365779 
2214.000000	2.364945 
2213.000000	2.364182 
2212.000000	2.363538 
2211.000000	2.363014 
2210.000000	2.362561 
2209.000000	2.362203 
2208.000000	2.361822 
2207.000000	2.361464 
2206.000000	2.361035 
2205.000000	2.360486 
2204.000000	2.359867 
2203.000000	2.359175 
2202.000000	2.358388 
2201.000000	2.357530 
2200.000000	2.356648 
2199.000000	2.355766 
2198.000000	2.354860 
2197.000000	2.353954 
2196.000000	2.353072 
2195.000000	2.352166 
2194.000000	2.351260 
2193.000000	2.350354 
2192.000000	2.349448 
2191.000000	2.348494 
2190.000000	2.347540 
2189.000000	2.346611 
2188.000000	2.345728 
2187.000000	2.344918 
2186.000000	2.344131 
2185.000000	2.343440 
2184.000000	2.342772 
2183.000000	2.342200 
2182.000000	2.341580 
2181.000000	2.340984 
2180.000000	2.340364 
2179.000000	2.339720 
2178.000000	2.339076 
2177.000000	2.338409 
2176.000000	2.337741 
2175.000000	2.337074 
2174.000000	2.336359 
2173.000000	2.335667 
2172.000000	2.334952 
2171.000000	2.334189 
2170.000000	2.333426 
2169.000000	2.332663 
2168.000000	2.331924 
2167.000000	2.331185 
2166.000000	2.330565 
2165.000000	2.330040 
2164.000000	2.329611 
2163.000000	2.329277 
2162.000000	2.329015 
2161.000000	2.328872 
2160.000000	2.328801 
2159.000000	2.328824 
2158.000000	2.328920 
2157.000000	2.329111 
2156.000000	2.329421 
2155.000000	2.329778 
2154.000000	2.330231 
2153.000000	2.330660 
2152.000000	2.331066 
2151.000000	2.331423 
2150.000000	2.331686 
2149.000000	2.331876 
2148.000000	2.331995 
2147.000000	2.332019 
2146.000000	2.331995 
2145.000000	2.331924 
2144.000000	2.331829 
2143.000000	2.331733 
2142.000000	2.331590 
2141.000000	2.331471 
2140.000000	2.331352 
2139.000000	2.331233 
2138.000000	2.331137 
2137.000000	2.331042 
2136.000000	2.330923 
2135.000000	2.330851 
2134.000000	2.330803 
2133.000000	2.330780 
2132.000000	2.330780 
2131.000000	2.330803 
2130.000000	2.330923 
2129.000000	2.331066 
2128.000000	2.331280 
2127.000000	2.331542 
2126.000000	2.331805 
2125.000000	2.332115 
2124.000000	2.332401 
2123.000000	2.332663 
2122.000000	2.332878 
2121.000000	2.333045 
2120.000000	2.333140 
2119.000000	2.333188 
2118.000000	2.333188 
2117.000000	2.333164 
2116.000000	2.333116 
2115.000000	2.333092 
2114.000000	2.333116 
2113.000000	2.333164 
2112.000000	2.333283 
2111.000000	2.333474 
2110.000000	2.333688 
2109.000000	2.333927 
2108.000000	2.334141 
2107.000000	2.334284 
2106.000000	2.334308 
2105.000000	2.334260 
2104.000000	2.334046 
2103.000000	2.333784 
2102.000000	2.333498 
2101.000000	2.333188 
2100.000000	2.332901 
2099.000000	2.332711 
2098.000000	2.332568 
2097.000000	2.332520 
2096.000000	2.332520 
2095.000000	2.332592 
2094.000000	2.332687 
2093.000000	2.332854 
2092.000000	2.333021 
2091.000000	2.333235 
2090.000000	2.333474 
2089.000000	2.333831 
2088.000000	2.334284 
2087.000000	2.334880 
2086.000000	2.335596 
2085.000000	2.336406 
2084.000000	2.337360 
2083.000000	2.338385 
2082.000000	2.339482 
2081.000000	2.340555 
2080.000000	2.341651 
2079.000000	2.342772 
2078.000000	2.343821 
2077.000000	2.344870 
2076.000000	2.345895 
2075.000000	2.346992 
2074.000000	2.348113 
2073.000000	2.349352 
2072.000000	2.350711 
2071.000000	2.352237 
2070.000000	2.353906 
2069.000000	2.355718 
2068.000000	2.357649 
2067.000000	2.359604 
2066.000000	2.361655 
2065.000000	2.363777 
2064.000000	2.365922 
2063.000000	2.368116 
2062.000000	2.370333 
2061.000000	2.372622 
2060.000000	2.374911 
2059.000000	2.377176 
2058.000000	2.379369 
2057.000000	2.381443 
2056.000000	2.383422 
2055.000000	2.385306 
2054.000000	2.387142 
2053.000000	2.388954 
2052.000000	2.390861 
2051.000000	2.392840 
2050.000000	2.394914 
2049.000000	2.397084 
2048.000000	2.399277 
2047.000000	2.401494 
2046.000000	2.403640 
2045.000000	2.405667 
2044.000000	2.407574 
2043.000000	2.409410 
2042.000000	2.411174 
2041.000000	2.412891 
2040.000000	2.414584 
2039.000000	2.416300 
2038.000000	2.417993 
2037.000000	2.419686 
2036.000000	2.421331 
2035.000000	2.422952 
2034.000000	2.424478 
2033.000000	2.425861 
2032.000000	2.427148 
2031.000000	2.428364 
2030.000000	2.429509 
2029.000000	2.430605 
2028.000000	2.431654 
2027.000000	2.432656 
2026.000000	2.433633 
2025.000000	2.434563 
2024.000000	2.435493 
2023.000000	2.436351 
2022.000000	2.437138 
2021.000000	2.437853 
2020.000000	2.438521 
2019.000000	2.439117 
2018.000000	2.439641 
2017.000000	2.440118 
2016.000000	2.440571 
2015.000000	2.441000 
2014.000000	2.441430 
2013.000000	2.441883 
2012.000000	2.442359 
2011.000000	2.442884 
2010.000000	2.443432 
2009.000000	2.444005 
2008.000000	2.444624 
2007.000000	2.445220 
2006.000000	2.445793 
2005.000000	2.446317 
2004.000000	2.446794 
2003.000000	2.447175 
2002.000000	2.447438 
2001.000000	2.447605 
2000.000000	2.447628 
1999.000000	2.447533 
1998.000000	2.447295 
1997.000000	2.446961 
1996.000000	2.446532 
1995.000000	2.446126 
1994.000000	2.445697 
1993.000000	2.445340 
1992.000000	2.445077 
1991.000000	2.444911 
1990.000000	2.444815 
1989.000000	2.444815 
1988.000000	2.444839 
1987.000000	2.444863 
1986.000000	2.444767 
1985.000000	2.444553 
1984.000000	2.444195 
1983.000000	2.443623 
1982.000000	2.442932 
1981.000000	2.442097 
1980.000000	2.441215 
1979.000000	2.440309 
1978.000000	2.439451 
1977.000000	2.438592 
1976.000000	2.437806 
1975.000000	2.437019 
1974.000000	2.436232 
1973.000000	2.435398 
1972.000000	2.434515 
1971.000000	2.433609 
1970.000000	2.432632 
1969.000000	2.431607 
1968.000000	2.430582 
1967.000000	2.429533 
1966.000000	2.428507 
1965.000000	2.427530 
1964.000000	2.426600 
1963.000000	2.425694 
1962.000000	2.424907 
1961.000000	2.424192 
1960.000000	2.423548 
1959.000000	2.422952 
1958.000000	2.422404 
1957.000000	2.421879 
1956.000000	2.421307 
1955.000000	2.420711 
1954.000000	2.419972 
1953.000000	2.419090 
1952.000000	2.418088 
1951.000000	2.416944 
1950.000000	2.415728 
1949.000000	2.414512 
1948.000000	2.413320 
1947.000000	2.412199 
1946.000000	2.411198 
1945.000000	2.410316 
1944.000000	2.409601 
1943.000000	2.409005 
1942.000000	2.408480 
1941.000000	2.408003 
1940.000000	2.407598 
1939.000000	2.407121 
1938.000000	2.406573 
1937.000000	2.405929 
1936.000000	2.405238 
1935.000000	2.404403 
1934.000000	2.403473 
1933.000000	2.402448 
1932.000000	2.401328 
1931.000000	2.400064 
1930.000000	2.398705 
1929.000000	2.397227 
1928.000000	2.395606 
1927.000000	2.393913 
1926.000000	2.392172 
1925.000000	2.390456 
1924.000000	2.388858 
1923.000000	2.387356 
1922.000000	2.386069 
1921.000000	2.384972 
1920.000000	2.384066 
1919.000000	2.383279 
1918.000000	2.382659 
1917.000000	2.382063 
1916.000000	2.381467 
1915.000000	2.380871 
1914.000000	2.380204 
1913.000000	2.379417 
1912.000000	2.378559 
1911.000000	2.377629 
1910.000000	2.376627 
1909.000000	2.375555 
1908.000000	2.374410 
1907.000000	2.373266 
1906.000000	2.372074 
1905.000000	2.370882 
1904.000000	2.369713 
1903.000000	2.368593 
1902.000000	2.367544 
1901.000000	2.366614 
1900.000000	2.365779 
1899.000000	2.365064 
1898.000000	2.364468 
1897.000000	2.363920 
1896.000000	2.363419 
1895.000000	2.362895 
1894.000000	2.362394 
1893.000000	2.361893 
1892.000000	2.361440 
1891.000000	2.361083 
1890.000000	2.360892 
1889.000000	2.360916 
1888.000000	2.361202 
1887.000000	2.361750 
1886.000000	2.362465 
1885.000000	2.363348 
1884.000000	2.364373 
1883.000000	2.365398 
1882.000000	2.366352 
1881.000000	2.367138 
1880.000000	2.367758 
1879.000000	2.368164 
1878.000000	2.368330 
1877.000000	2.368283 
1876.000000	2.368092 
1875.000000	2.367758 
1874.000000	2.367401 
1873.000000	2.367091 
1872.000000	2.366948 
1871.000000	2.366971 
1870.000000	2.367281 
1869.000000	2.367830 
1868.000000	2.368664 
1867.000000	2.369666 
1866.000000	2.370762 
1865.000000	2.371907 
1864.000000	2.373003 
1863.000000	2.373981 
1862.000000	2.374887 
1861.000000	2.375698 
1860.000000	2.376532 
1859.000000	2.377390 
1858.000000	2.378368 
1857.000000	2.379465 
1856.000000	2.380633 
1855.000000	2.381801 
1854.000000	2.382850 
1853.000000	2.383732 
1852.000000	2.384352 
1851.000000	2.384686 
1850.000000	2.384710 
1849.000000	2.384567 
1848.000000	2.384352 
1847.000000	2.384209 
1846.000000	2.384305 
1845.000000	2.384757 
1844.000000	2.385568 
1843.000000	2.386760 
1842.000000	2.388238 
1841.000000	2.389931 
1840.000000	2.391600 
1839.000000	2.393150 
1838.000000	2.394461 
1837.000000	2.395415 
1836.000000	2.396035 
1835.000000	2.396273 
1834.000000	2.396321 
1833.000000	2.396178 
1832.000000	2.396130 
1831.000000	2.396154 
1830.000000	2.396416 
1829.000000	2.396917 
1828.000000	2.397704 
1827.000000	2.398753 
1826.000000	2.400016 
1825.000000	2.401423 
1824.000000	2.402925 
1823.000000	2.404427 
1822.000000	2.405881 
1821.000000	2.407288 
1820.000000	2.408576 
1819.000000	2.409791 
1818.000000	2.410864 
1817.000000	2.411842 
1816.000000	2.412700 
1815.000000	2.413392 
1814.000000	2.413964 
1813.000000	2.414441 
1812.000000	2.414846 
1811.000000	2.415156 
1810.000000	2.415490 
1809.000000	2.415847 
1808.000000	2.416276 
1807.000000	2.416753 
1806.000000	2.417278 
1805.000000	2.417802 
1804.000000	2.418327 
1803.000000	2.418780 
1802.000000	2.419090 
1801.000000	2.419281 
1800.000000	2.419257 
1799.000000	2.418994 
1798.000000	2.418541 
1797.000000	2.417922 
1796.000000	2.417278 
1795.000000	2.416729 
1794.000000	2.416300 
1793.000000	2.416110 
1792.000000	2.416181 
1791.000000	2.416467 
1790.000000	2.416920 
1789.000000	2.417469 
1788.000000	2.417945 
1787.000000	2.418255 
1786.000000	2.418422 
1785.000000	2.418422 
1784.000000	2.418255 
1783.000000	2.417922 
1782.000000	2.417421 
1781.000000	2.416753 
1780.000000	2.415800 
1779.000000	2.414536 
1778.000000	2.412939 
1777.000000	2.411007 
1776.000000	2.408838 
1775.000000	2.406573 
1774.000000	2.404451 
1773.000000	2.402663 
1772.000000	2.401351 
1771.000000	2.400612 
1770.000000	2.400374 
1769.000000	2.400565 
1768.000000	2.400946 
1767.000000	2.401351 
1766.000000	2.401638 
1765.000000	2.401638 
1764.000000	2.401351 
1763.000000	2.400684 
1762.000000	2.399802 
1761.000000	2.398610 
1760.000000	2.397131 
1759.000000	2.395439 
1758.000000	2.393460 
1757.000000	2.391219 
1756.000000	2.388715 
1755.000000	2.385973 
1754.000000	2.383089 
1753.000000	2.380180 
1752.000000	2.377271 
1751.000000	2.374505 
1750.000000	2.371835 
1749.000000	2.369213 
1748.000000	2.366590 
1747.000000	2.363872 
1746.000000	2.360892 
1745.000000	2.357625 
1744.000000	2.353930 
1743.000000	2.349829 
1742.000000	2.345371 
1741.000000	2.340579 
1740.000000	2.335619 
1739.000000	2.330636 
1738.000000	2.325892 
1737.000000	2.321577 
1736.000000	2.317953 
1735.000000	2.315211 
1734.000000	2.313423 
1733.000000	2.312636 
1732.000000	2.312684 
1731.000000	2.313423 
1730.000000	2.314567 
1729.000000	2.315759 
1728.000000	2.316689 
1727.000000	2.317094 
1726.000000	2.316761 
1725.000000	2.315568 
1724.000000	2.313613 
1723.000000	2.310872 
1722.000000	2.307558 
1721.000000	2.303981 
1720.000000	2.300405 
1719.000000	2.297115 
1718.000000	2.294373 
1717.000000	2.292323 
1716.000000	2.290987 
1715.000000	2.290344 
1714.000000	2.290129 
1713.000000	2.290153 
1712.000000	2.290034 
1711.000000	2.289581 
1710.000000	2.288508 
1709.000000	2.286624 
1708.000000	2.283954 
1707.000000	2.280402 
1706.000000	2.276086 
1705.000000	2.271127 
1704.000000	2.265787 
1703.000000	2.260279 
1702.000000	2.254962 
1701.000000	2.250170 
1700.000000	2.246236 
1699.000000	2.243471 
1698.000000	2.241945 
1697.000000	2.241754 
1696.000000	2.242684 
1695.000000	2.244329 
1694.000000	2.246260 
1693.000000	2.247905 
1692.000000	2.248835 
1691.000000	2.248692 
1690.000000	2.247428 
1689.000000	2.245163 
1688.000000	2.242231 
1687.000000	2.239060 
1686.000000	2.236104 
1685.000000	2.233743 
1684.000000	2.232170 
1683.000000	2.231383 
1682.000000	2.231240 
1681.000000	2.231383 
1680.000000	2.231502 
1679.000000	2.231287 
1678.000000	2.230572 
1677.000000	2.229261 
1676.000000	2.227473 
1675.000000	2.225375 
1674.000000	2.223157 
1673.000000	2.220988 
1672.000000	2.218937 
1671.000000	2.217054 
1670.000000	2.215337 
1669.000000	2.213716 
1668.000000	2.212190 
1667.000000	2.210712 
1666.000000	2.209258 
1665.000000	2.207732 
1664.000000	2.206087 
1663.000000	2.204179 
1662.000000	2.201819 
1661.000000	2.198767 
1660.000000	2.194905 
1659.000000	2.190208 
1658.000000	2.184820 
1657.000000	2.178978 
1656.000000	2.173089 
1655.000000	2.167558 
1654.000000	2.162814 
1653.000000	2.159142 
1652.000000	2.156591 
1651.000000	2.155113 
1650.000000	2.154541 
1649.000000	2.154541 
1648.000000	2.154803 
1647.000000	2.155089 
1646.000000	2.155160 
1645.000000	2.154874 
1644.000000	2.154040 
1643.000000	2.152681 
1642.000000	2.150726 
1641.000000	2.148318 
1640.000000	2.145481 
1639.000000	2.142381 
1638.000000	2.139282 
1637.000000	2.136373 
1636.000000	2.133774 
1635.000000	2.131652 
1634.000000	2.129912 
1633.000000	2.128505 
1632.000000	2.127122 
1631.000000	2.125525 
1630.000000	2.123451 
1629.000000	2.120780 
1628.000000	2.117347 
1627.000000	2.113151 
1626.000000	2.108240 
1625.000000	2.102684 
1624.000000	2.096486 
1623.000000	2.089738 
1622.000000	2.082443 
1621.000000	2.074623 
1620.000000	2.066254 
1619.000000	2.057385 
1618.000000	2.048039 
1617.000000	2.038311 
1616.000000	2.028274 
1615.000000	2.018141 
1614.000000	2.008080 
1613.000000	1.998353 
1612.000000	1.989197 
1611.000000	1.980972 
1610.000000	1.973986 
1609.000000	1.968526 
1608.000000	1.964807 
1607.000000	1.962924 
1606.000000	1.962828 
1605.000000	1.964378 
1604.000000	1.967239 
1603.000000	1.971125 
1602.000000	1.975607 
1601.000000	1.980400 
1600.000000	1.985144 
1599.000000	1.989674 
1598.000000	1.993870 
1597.000000	1.997566 
1596.000000	2.000761 
1595.000000	2.003431 
1594.000000	2.005481 
1593.000000	2.006983 
1592.000000	2.007889 
1591.000000	2.008199 
1590.000000	2.008056 
1589.000000	2.007460 
1588.000000	2.006435 
1587.000000	2.004981 
1586.000000	2.003145 
1585.000000	2.000856 
1584.000000	1.998114 
1583.000000	1.995015 
1582.000000	1.991629 
1581.000000	1.988101 
1580.000000	1.984620 
1579.000000	1.981425 
1578.000000	1.978683 
1577.000000	1.976490 
1576.000000	1.974964 
1575.000000	1.973938 
1574.000000	1.973319 
1573.000000	1.972889 
1572.000000	1.972436 
1571.000000	1.971697 
1570.000000	1.970386 
1569.000000	1.968288 
1568.000000	1.965284 
1567.000000	1.961255 
1566.000000	1.956224 
1565.000000	1.950240 
1564.000000	1.943635 
1563.000000	1.936793 
1562.000000	1.930284 
1561.000000	1.924633 
1560.000000	1.920366 
1559.000000	1.917934 
1558.000000	1.917529 
1557.000000	1.919078 
1556.000000	1.922249 
1555.000000	1.926660 
1554.000000	1.931691 
1553.000000	1.936650 
1552.000000	1.941037 
1551.000000	1.944518 
1550.000000	1.946878 
1549.000000	1.948070 
1548.000000	1.948261 
1547.000000	1.947832 
1546.000000	1.947212 
1545.000000	1.947021 
1544.000000	1.947903 
1543.000000	1.950383 
1542.000000	1.955008 
1541.000000	1.961970 
1540.000000	1.971292 
1539.000000	1.982712 
1538.000000	1.995825 
1537.000000	2.009940 
1536.000000	2.024388 
1535.000000	2.038526 
1534.000000	2.051806 
1533.000000	2.063679 
1532.000000	2.073931 
1531.000000	2.082443 
1530.000000	2.089285 
1529.000000	2.094459 
1528.000000	2.098059 
1527.000000	2.100419 
1526.000000	2.101707 
1525.000000	2.102184 
1524.000000	2.102041 
1523.000000	2.101516 
1522.000000	2.100825 
1521.000000	2.100086 
1520.000000	2.099299 
1519.000000	2.098417 
1518.000000	2.097463 
1517.000000	2.096247 
1516.000000	2.094626 
1515.000000	2.092432 
1514.000000	2.089524 
1513.000000	2.085828 
1512.000000	2.081298 
1511.000000	2.075791 
1510.000000	2.069377 
1509.000000	2.061772 
1508.000000	2.052640 
1507.000000	2.041268 
1506.000000	2.026915 
1505.000000	2.008676 
1504.000000	1.985740 
1503.000000	1.957488 
1502.000000	1.923918 
1501.000000	1.885724 
1500.000000	1.844358 
1499.000000	1.801967 
1498.000000	1.761245 
1497.000000	1.724934 
1496.000000	1.695775 
1495.000000	1.675748 
1494.000000	1.666069 
1493.000000	1.666927 
1492.000000	1.677727 
1491.000000	1.696896 
1490.000000	1.722478 
1489.000000	1.752138 
1488.000000	1.783871 
1487.000000	1.815509 
1486.000000	1.845598 
1485.000000	1.872849 
1484.000000	1.896643 
1483.000000	1.916646 
1482.000000	1.932764 
1481.000000	1.945185 
1480.000000	1.954269 
1479.000000	1.960563 
1478.000000	1.964664 
1477.000000	1.967024 
1476.000000	1.968169 
1475.000000	1.968574 
1474.000000	1.968479 
1473.000000	1.967978 
1472.000000	1.967096 
1471.000000	1.965761 
1470.000000	1.963925 
1469.000000	1.961207 
1468.000000	1.957488 
1467.000000	1.952624 
1466.000000	1.946425 
1465.000000	1.938629 
1464.000000	1.929092 
1463.000000	1.917672 
1462.000000	1.904368 
1461.000000	1.889204 
1460.000000	1.872324 
1459.000000	1.854109 
1458.000000	1.835179 
1457.000000	1.816391 
1456.000000	1.798582 
1455.000000	1.782774 
1454.000000	1.769852 
1453.000000	1.760768 
1452.000000	1.755952 
1451.000000	1.755619 
1450.000000	1.759576 
1449.000000	1.767301 
1448.000000	1.777815 
1447.000000	1.790118 
1446.000000	1.803016 
1445.000000	1.815485 
1444.000000	1.826643 
1443.000000	1.835942 
1442.000000	1.843190 
1441.000000	1.848506 
1440.000000	1.852154 
1439.000000	1.854586 
1438.000000	1.856279 
1437.000000	1.857686 
1436.000000	1.859045 
1435.000000	1.860499 
1434.000000	1.862001 
1433.000000	1.863503 
1432.000000	1.864910 
1431.000000	1.866030 
1430.000000	1.866722 
1429.000000	1.866960 
1428.000000	1.866674 
1427.000000	1.865863 
1426.000000	1.864433 
1425.000000	1.862549 
1424.000000	1.860237 
1423.000000	1.857590 
1422.000000	1.854729 
1421.000000	1.851797 
1420.000000	1.848864 
1419.000000	1.845932 
1418.000000	1.842927 
1417.000000	1.839709 
1416.000000	1.835942 
1415.000000	1.831340 
1414.000000	1.825594 
1413.000000	1.818370 
1412.000000	1.809620 
1411.000000	1.799345 
1410.000000	1.787734 
1409.000000	1.775312 
1408.000000	1.762652 
1407.000000	1.750493 
1406.000000	1.739501 
1405.000000	1.730513 
1404.000000	1.723957 
1403.000000	1.720237 
1402.000000	1.719474 
1401.000000	1.721501 
1400.000000	1.725983 
1399.000000	1.732468 
1398.000000	1.740312 
1397.000000	1.748871 
1396.000000	1.757454 
1395.000000	1.765489 
1394.000000	1.772403 
1393.000000	1.777863 
1392.000000	1.781630 
1391.000000	1.783680 
1390.000000	1.784205 
1389.000000	1.783561 
1388.000000	1.782155 
1387.000000	1.780629 
1386.000000	1.779413 
1385.000000	1.779007 
1384.000000	1.779580 
1383.000000	1.781225 
1382.000000	1.783823 
1381.000000	1.787066 
1380.000000	1.790571 
1379.000000	1.794123 
1378.000000	1.797389 
1377.000000	1.800203 
1376.000000	1.802539 
1375.000000	1.804423 
1374.000000	1.805973 
1373.000000	1.807212 
1372.000000	1.808238 
1371.000000	1.809120 
1370.000000	1.809787 
1369.000000	1.810336 
1368.000000	1.810669 
1367.000000	1.810812 
1366.000000	1.810789 
1365.000000	1.810693 
1364.000000	1.810574 
1363.000000	1.810526 
1362.000000	1.810479 
1361.000000	1.810550 
1360.000000	1.810646 
1359.000000	1.810765 
1358.000000	1.810860 
1357.000000	1.810884 
1356.000000	1.810836 
1355.000000	1.810598 
1354.000000	1.810264 
1353.000000	1.809763 
1352.000000	1.809167 
1351.000000	1.808452 
1350.000000	1.807641 
1349.000000	1.806807 
1348.000000	1.805949 
1347.000000	1.805138 
1346.000000	1.804399 
1345.000000	1.803851 
1344.000000	1.803588 
1343.000000	1.803660 
1342.000000	1.804137 
1341.000000	1.805138 
1340.000000	1.806664 
1339.000000	1.808738 
1338.000000	1.811313 
1337.000000	1.814270 
1336.000000	1.817440 
1335.000000	1.820755 
1334.000000	1.823997 
1333.000000	1.827120 
1332.000000	1.829957 
1331.000000	1.832485 
1330.000000	1.834702 
1329.000000	1.836657 
1328.000000	1.838397 
1327.000000	1.839876 
1326.000000	1.841235 
1325.000000	1.842451 
1324.000000	1.843523 
1323.000000	1.844477 
1322.000000	1.845264 
1321.000000	1.845979 
1320.000000	1.846528 
1319.000000	1.847004 
1318.000000	1.847386 
1317.000000	1.847720 
1316.000000	1.848006 
1315.000000	1.848268 
1314.000000	1.848483 
1313.000000	1.848697 
1312.000000	1.848816 
1311.000000	1.848888 
1310.000000	1.848888 
1309.000000	1.848840 
1308.000000	1.848697 
1307.000000	1.848483 
1306.000000	1.848220 
1305.000000	1.847958 
1304.000000	1.847720 
1303.000000	1.847529 
1302.000000	1.847410 
1301.000000	1.847338 
1300.000000	1.847410 
1299.000000	1.847529 
1298.000000	1.847767 
1297.000000	1.847958 
1296.000000	1.848125 
1295.000000	1.848268 
1294.000000	1.848316 
1293.000000	1.848220 
1292.000000	1.848101 
1291.000000	1.847887 
1290.000000	1.847648 
1289.000000	1.847410 
1288.000000	1.847171 
1287.000000	1.846933 
1286.000000	1.846694 
1285.000000	1.846385 
1284.000000	1.845932 
1283.000000	1.845216 
1282.000000	1.844215 
1281.000000	1.842761 
1280.000000	1.840782 
1279.000000	1.838231 
1278.000000	1.835083 
1277.000000	1.831269 
1276.000000	1.826667 
1275.000000	1.821208 
1274.000000	1.814770 
1273.000000	1.807332 
1272.000000	1.798725 
1271.000000	1.789069 
1270.000000	1.778411 
1269.000000	1.767015 
1268.000000	1.755237 
1267.000000	1.743626 
1266.000000	1.732754 
1265.000000	1.723241 
1264.000000	1.715779 
1263.000000	1.710796 
1262.000000	1.708698 
1261.000000	1.709628 
1260.000000	1.713538 
1259.000000	1.720070 
1258.000000	1.728773 
1257.000000	1.739001 
1256.000000	1.750111 
1255.000000	1.761388 
1254.000000	1.772284 
1253.000000	1.782393 
1252.000000	1.791381 
1251.000000	1.799154 
1250.000000	1.805639 
1249.000000	1.810932 
1248.000000	1.815223 
1247.000000	1.818680 
1246.000000	1.821398 
1245.000000	1.823592 
1244.000000	1.825261 
1243.000000	1.826548 
1242.000000	1.827478 
1241.000000	1.828002 
1240.000000	1.828193 
1239.000000	1.828122 
1238.000000	1.827812 
1237.000000	1.827287 
1236.000000	1.826643 
1235.000000	1.825952 
1234.000000	1.825189 
1233.000000	1.824355 
1232.000000	1.823496 
1231.000000	1.822495 
1230.000000	1.821422 
1229.000000	1.820135 
1228.000000	1.818609 
1227.000000	1.816821 
1226.000000	1.814794 
1225.000000	1.812481 
1224.000000	1.809811 
1223.000000	1.806783 
1222.000000	1.803398 
1221.000000	1.799607 
1220.000000	1.795387 
1219.000000	1.790785 
1218.000000	1.785778 
1217.000000	1.780557 
1216.000000	1.775145 
1215.000000	1.769733 
1214.000000	1.764464 
1213.000000	1.759433 
1212.000000	1.754832 
1211.000000	1.750731 
1210.000000	1.747226 
1209.000000	1.744270 
1208.000000	1.741909 
1207.000000	1.740097 
1206.000000	1.738810 
1205.000000	1.737952 
1204.000000	1.737499 
1203.000000	1.737308 
1202.000000	1.737427 
1201.000000	1.737666 
1200.000000	1.737976 
1199.000000	1.738309 
1198.000000	1.738524 
1197.000000	1.738572 
1196.000000	1.738429 
1195.000000	1.738023 
1194.000000	1.737380 
1193.000000	1.736426 
1192.000000	1.735210 
1191.000000	1.733708 
1190.000000	1.731967 
1189.000000	1.729941 
1188.000000	1.727676 
1187.000000	1.725172 
1186.000000	1.722502 
1185.000000	1.719689 
1184.000000	1.716828 
1183.000000	1.713919 
1182.000000	1.711082 
1181.000000	1.708316 
1180.000000	1.705598 
1179.000000	1.702880 
1178.000000	1.700091 
1177.000000	1.697254 
1176.000000	1.694178 
1175.000000	1.690888 
1174.000000	1.687383 
1173.000000	1.683592 
1172.000000	1.679515 
1171.000000	1.675295 
1170.000000	1.670885 
1169.000000	1.666378 
1168.000000	1.661801 
1167.000000	1.657104 
1166.000000	1.652407 
1165.000000	1.647639 
1164.000000	1.642870 
1163.000000	1.638174 
1162.000000	1.633596 
1161.000000	1.629304 
1160.000000	1.625347 
1159.000000	1.621818 
1158.000000	1.618742 
1157.000000	1.616120 
1156.000000	1.613926 
1155.000000	1.612019 
1154.000000	1.610326 
1153.000000	1.608681 
1152.000000	1.607060 
1151.000000	1.605391 
1150.000000	1.603603 
1149.000000	1.601791 
1148.000000	1.599907 
1147.000000	1.598024 
1146.000000	1.596164 
1145.000000	1.594328 
1144.000000	1.592493 
1143.000000	1.590633 
1142.000000	1.588630 
1141.000000	1.586437 
1140.000000	1.584005 
1139.000000	1.581335 
1138.000000	1.578354 
1137.000000	1.575064 
1136.000000	1.571536 
1135.000000	1.567769 
1134.000000	1.563811 
1133.000000	1.559615 
1132.000000	1.555228 
1131.000000	1.550674 
1130.000000	1.545929 
1129.000000	1.541042 
1128.000000	1.536059 
1127.000000	1.531004 
1126.000000	1.525878 
1125.000000	1.520776 
1124.000000	1.515650 
1123.000000	1.510524 
1122.000000	1.505398 
1121.000000	1.500201 
1120.000000	1.494884 
1119.000000	1.489496 
1118.000000	1.484012 
1117.000000	1.478433 
1116.000000	1.472830 
1115.000000	1.467323 
1114.000000	1.461911 
1113.000000	1.456713 
1112.000000	1.451826 
1111.000000	1.447248 
1110.000000	1.443076 
1109.000000	1.439332 
1108.000000	1.436090 
1107.000000	1.433277 
1106.000000	1.430869 
1105.000000	1.428818 
1104.000000	1.427054 
1103.000000	1.425552 
1102.000000	1.424193 
1101.000000	1.423025 
1100.000000	1.421976 
1099.000000	1.421046 
1098.000000	1.420259 
1097.000000	1.419663 
1096.000000	1.419258 
1095.000000	1.419019 
1094.000000	1.418972 
1093.000000	1.419115 
1092.000000	1.419401 
1091.000000	1.419806 
1090.000000	1.420331 
1089.000000	1.420879 
1088.000000	1.421427 
1087.000000	1.421928 
1086.000000	1.422381 
1085.000000	1.422619 
1084.000000	1.422691 
1083.000000	1.422572 
1082.000000	1.422309 
1081.000000	1.421880 
1080.000000	1.421427 
1079.000000	1.420974 
1078.000000	1.420640 
1077.000000	1.420617 
1076.000000	1.420903 
1075.000000	1.421594 
1074.000000	1.422595 
1073.000000	1.423954 
1072.000000	1.425528 
1071.000000	1.427197 
1070.000000	1.428794 
1069.000000	1.430249 
1068.000000	1.431441 
1067.000000	1.432275 
1066.000000	1.432704 
1065.000000	1.432609 
1064.000000	1.431798 
1063.000000	1.430106 
1062.000000	1.427173 
1061.000000	1.422619 
1060.000000	1.416039 
1059.000000	1.407098 
1058.000000	1.395702 
1057.000000	1.381897 
1056.000000	1.366329 
1055.000000	1.349830 
1054.000000	1.333522 
1053.000000	1.318740 
1052.000000	1.306748 
1051.000000	1.298546 
1050.000000	1.294779 
1049.000000	1.295495 
1048.000000	1.300430 
1047.000000	1.308655 
1046.000000	1.319122 
1045.000000	1.330566 
1044.000000	1.341915 
1043.000000	1.352262 
1042.000000	1.361012 
1041.000000	1.367855 
1040.000000	1.372766 
1039.000000	1.375961 
1038.000000	1.377701 
1037.000000	1.378321 
1036.000000	1.378011 
1035.000000	1.377058 
1034.000000	1.375675 
1033.000000	1.373934 
1032.000000	1.371955 
1031.000000	1.369833 
1030.000000	1.367616 
1029.000000	1.365375 
1028.000000	1.363205 
1027.000000	1.361203 
1026.000000	1.359343 
1025.000000	1.357746 
1024.000000	1.356434 
1023.000000	1.355504 
1022.000000	1.354980 
1021.000000	1.354837 
1020.000000	1.355171 
1019.000000	1.355910 
1018.000000	1.357078 
1017.000000	1.358604 
1016.000000	1.360487 
1015.000000	1.362681 
1014.000000	1.365137 
1013.000000	1.367783 
1012.000000	1.370549 
1011.000000	1.373338 
1010.000000	1.376152 
1009.000000	1.378917 
1008.000000	1.381540 
1007.000000	1.383972 
1006.000000	1.386165 
1005.000000	1.388072 
1004.000000	1.389694 
1003.000000	1.391005 
1002.000000	1.391959 
1001.000000	1.392555 
1000.000000	1.392793 
999.000000	 1.392745 
998.000000	 1.392412 
997.000000	 1.391863 
996.000000	 1.391124 
995.000000	 1.390337 
994.000000	 1.389479 
993.000000	 1.388597 
992.000000	 1.387691 
991.000000	 1.386785 
990.000000	 1.385831 
989.000000	 1.384806 
988.000000	 1.383662 
987.000000	 1.382422 
986.000000	 1.381087 
985.000000	 1.379632 
984.000000	 1.378035 
983.000000	 1.376295 
982.000000	 1.374506 
981.000000	 1.372575 
980.000000	 1.370596 
979.000000	 1.368570 
978.000000	 1.366472 
977.000000	 1.364326 
976.000000	 1.362037 
975.000000	 1.359653 
974.000000	 1.357173 
973.000000	 1.354503 
972.000000	 1.351666 
971.000000	 1.348638 
970.000000	 1.345467 
969.000000	 1.342153 
968.000000	 1.338696 
967.000000	 1.335120 
966.000000	 1.331543 
965.000000	 1.327872 
964.000000	 1.324248 
963.000000	 1.320576 
962.000000	 1.316928 
961.000000	 1.313257 
960.000000	 1.309609 
959.000000	 1.306009 
958.000000	 1.302456 
957.000000	 1.298999 
956.000000	 1.295638 
955.000000	 1.292419 
954.000000	 1.289296 
953.000000	 1.286244 
952.000000	 1.283311 
951.000000	 1.280379 
950.000000	 1.277446 
949.000000	 1.274561 
948.000000	 1.271748 
947.000000	 1.269030 
946.000000	 1.266503 
945.000000	 1.264190 
944.000000	 1.262092 
943.000000	 1.260137 
942.000000	 1.258325 
941.000000	 1.256537 
940.000000	 1.254701 
939.000000	 1.252698 
938.000000	 1.250553 
937.000000	 1.248288 
936.000000	 1.245927 
935.000000	 1.243543 
934.000000	 1.241183 
933.000000	 1.238942 
932.000000	 1.236772 
931.000000	 1.234769 
930.000000	 1.232814 
929.000000	 1.230859 
928.000000	 1.228904 
927.000000	 1.226902 
926.000000	 1.224851 
925.000000	 1.222634 
924.000000	 1.220321 
923.000000	 1.217913 
922.000000	 1.215386 
921.000000	 1.212692 
920.000000	 1.209831 
919.000000	 1.206803 
918.000000	 1.203560 
917.000000	 1.200103 
916.000000	 1.196503 
915.000000	 1.192712 
914.000000	 1.188850 
913.000000	 1.184964 
912.000000	 1.181030 
911.000000	 1.177191 
910.000000	 1.173424 
909.000000	 1.169824 
908.000000	 1.166415 
907.000000	 1.163196 
906.000000	 1.160264 
905.000000	 1.157593 
904.000000	 1.155257 
903.000000	 1.153254 
902.000000	 1.151537 
901.000000	 1.150131 
900.000000	 1.148891 
899.000000	 1.147818 
898.000000	 1.146769 
897.000000	 1.145672 
896.000000	 1.144456 
895.000000	 1.143002 
894.000000	 1.141214 
893.000000	 1.139020 
892.000000	 1.136302 
891.000000	 1.133012 
890.000000	 1.128888 
889.000000	 1.123929 
888.000000	 1.118040 
887.000000	 1.111149 
886.000000	 1.103234 
885.000000	 1.094460 
884.000000	 1.084947 
883.000000	 1.075029 
882.000000	 1.064991 
881.000000	 1.055216 
880.000000	 1.046133 
879.000000	 1.038074 
878.000000	 1.031422 
877.000000	 1.026487 
876.000000	 1.023435 
875.000000	 1.022410 
874.000000	 1.023364 
873.000000	 1.026201 
872.000000	 1.030635 
871.000000	 1.036381 
870.000000	 1.042985 
869.000000	 1.050066 
868.000000	 1.057219 
867.000000	 1.064085 
866.000000	 1.070404 
865.000000	 1.075935 
864.000000	 1.080679 
863.000000	 1.084542 
862.000000	 1.087617 
861.000000	 1.089882 
860.000000	 1.091408 
859.000000	 1.092314 
858.000000	 1.092648 
857.000000	 1.092338 
856.000000	 1.091432 
855.000000	 1.090025 
854.000000	 1.088237 
853.000000	 1.086091 
852.000000	 1.083779 
851.000000	 1.081466 
850.000000	 1.079320 
849.000000	 1.077508 
848.000000	 1.076054 
847.000000	 1.074886 
846.000000	 1.073884 
845.000000	 1.072859 
844.000000	 1.071453 
843.000000	 1.069402 
842.000000	 1.066350 
841.000000	 1.062154 
840.000000	 1.056575 
839.000000	 1.049518 
838.000000	 1.040935 
837.000000	 1.030898 
836.000000	 1.019358 
835.000000	 1.006293 
834.000000	 0.991725 
833.000000	 0.975704 
832.000000	 0.958442 
831.000000	 0.940275 
830.000000	 0.921678 
829.000000	 0.903344 
828.000000	 0.886249 
827.000000	 0.871276 
826.000000	 0.859332 
825.000000	 0.851130 
824.000000	 0.847125 
823.000000	 0.847291 
822.000000	 0.851416 
821.000000	 0.858831 
820.000000	 0.868701 
819.000000	 0.880074 
818.000000	 0.891900 
817.000000	 0.903415 
816.000000	 0.913977 
815.000000	 0.923156 
814.000000	 0.930762 
813.000000	 0.936722 
812.000000	 0.941109 
811.000000	 0.944042 
810.000000	 0.945782 
809.000000	 0.946378 
808.000000	 0.946140 
807.000000	 0.945258 
806.000000	 0.943922 
805.000000	 0.942349 
804.000000	 0.940775 
803.000000	 0.939440 
802.000000	 0.938463 
801.000000	 0.937986 
800.000000	 0.938105 
799.000000	 0.938868 
798.000000	 0.940179 
797.000000	 0.941991 
796.000000	 0.944185 
795.000000	 0.946688 
794.000000	 0.949430 
793.000000	 0.952291 
792.000000	 0.955176 
791.000000	 0.958061 
790.000000	 0.960922 
789.000000	 0.963711 
788.000000	 0.966310 
787.000000	 0.968718 
786.000000	 0.970888 
785.000000	 0.972747 
784.000000	 0.974297 
783.000000	 0.975441 
782.000000	 0.976181 
781.000000	 0.976562 
780.000000	 0.976562 
779.000000	 0.976204 
778.000000	 0.975584 
777.000000	 0.974726 
776.000000	 0.973677 
775.000000	 0.972580 
774.000000	 0.971388 
773.000000	 0.970196 
772.000000	 0.969004 
771.000000	 0.967884 
770.000000	 0.966811 
769.000000	 0.965785 
768.000000	 0.964808 
767.000000	 0.963950 
766.000000	 0.963115 
765.000000	 0.962305 
764.000000	 0.961542 
763.000000	 0.960803 
762.000000	 0.960040 
761.000000	 0.959181 
760.000000	 0.958204 
759.000000	 0.957155 
758.000000	 0.956058 
757.000000	 0.954866 
756.000000	 0.953626 
755.000000	 0.952434 
754.000000	 0.951194 
753.000000	 0.949954 
752.000000	 0.948691 
751.000000	 0.947380 
750.000000	 0.946021 
749.000000	 0.944519 
748.000000	 0.942945 
747.000000	 0.941276 
746.000000	 0.939536 
745.000000	 0.937771 
744.000000	 0.935983 
743.000000	 0.934171 
742.000000	 0.932383 
741.000000	 0.930571 
740.000000	 0.928688 
739.000000	 0.926756 
738.000000	 0.924754 
737.000000	 0.922632 
736.000000	 0.920367 
735.000000	 0.918006 
734.000000	 0.915527 
733.000000	 0.913000 
732.000000	 0.910377 
731.000000	 0.907683 
730.000000	 0.904893 
729.000000	 0.902056 
728.000000	 0.899124 
727.000000	 0.896143 
726.000000	 0.893115 
725.000000	 0.890040 
724.000000	 0.886917 
723.000000	 0.883769 
722.000000	 0.880622 
721.000000	 0.877499 
720.000000	 0.874423 
719.000000	 0.871396 
718.000000	 0.868439 
717.000000	 0.865507 
716.000000	 0.862598 
715.000000	 0.859761 
714.000000	 0.856900 
713.000000	 0.854039 
712.000000	 0.851178 
711.000000	 0.848340 
710.000000	 0.845503 
709.000000	 0.842690 
708.000000	 0.839853 
707.000000	 0.836968 
706.000000	 0.834012 
705.000000	 0.830912 
704.000000	 0.827550 
703.000000	 0.823926 
702.000000	 0.819945 
701.000000	 0.815582 
700.000000	 0.810790 
699.000000	 0.805544 
698.000000	 0.799870 
697.000000	 0.793647 
696.000000	 0.786876 
695.000000	 0.779628 
694.000000	 0.771999 
693.000000	 0.764203 
692.000000	 0.756454 
691.000000	 0.749135 
690.000000	 0.742626 
689.000000	 0.737142 
688.000000	 0.732970 
687.000000	 0.730133 
686.000000	 0.728607 
685.000000	 0.728201 
684.000000	 0.728607 
683.000000	 0.729441 
682.000000	 0.730419 
681.000000	 0.731301 
680.000000	 0.731801 
679.000000	 0.731873 
678.000000	 0.731420 
677.000000	 0.730490 
676.000000	 0.729107 
675.000000	 0.727367 
674.000000	 0.725364 
673.000000	 0.723123 
672.000000	 0.720787 
671.000000	 0.718379 
670.000000	 0.715970 
669.000000	 0.713610 
668.000000	 0.711274 
667.000000	 0.708961 
666.000000	 0.706696 
665.000000	 0.704431 
664.000000	 0.702142 
663.000000	 0.699877 
662.000000	 0.697517 
661.000000	 0.695157 
660.000000	 0.692749 
659.000000	 0.690340 
658.000000	 0.687909 
657.000000	 0.685501 
656.000000	 0.683045 
655.000000	 0.680589 
654.000000	 0.678086 
653.000000	 0.675535 
652.000000	 0.672912 
651.000000	 0.670194 
650.000000	 0.667452 
649.000000	 0.664663 
648.000000	 0.661849 
647.000000	 0.659060 
646.000000	 0.656366 
645.000000	 0.653815 
644.000000	 0.651335 
643.000000	 0.649023 
642.000000	 0.646781 
641.000000	 0.644493 
640.000000	 0.642132 
639.000000	 0.639653 
638.000000	 0.637006 
637.000000	 0.634169 
636.000000	 0.631189 
635.000000	 0.628113 
634.000000	 0.625038 
633.000000	 0.622034 
632.000000	 0.619173 
631.000000	 0.616431 
630.000000	 0.613832 
629.000000	 0.611352 
628.000000	 0.608921 
627.000000	 0.606560 
626.000000	 0.604224 
625.000000	 0.601792 
624.000000	 0.599265 
623.000000	 0.596642 
622.000000	 0.593852 
621.000000	 0.590872 
620.000000	 0.587677 
619.000000	 0.584244 
618.000000	 0.580573 
617.000000	 0.576639 
616.000000	 0.572419 
615.000000	 0.567960 
614.000000	 0.563216 
613.000000	 0.558233 
612.000000	 0.553083 
611.000000	 0.547838 
610.000000	 0.542640 
609.000000	 0.537610 
608.000000	 0.532984 
607.000000	 0.528907 
606.000000	 0.525546 
605.000000	 0.522994 
604.000000	 0.521206 
603.000000	 0.520157 
602.000000	 0.519704 
601.000000	 0.519609 
600.000000	 0.519704 
599.000000	 0.519776 
598.000000	 0.519752 
597.000000	 0.519442 
596.000000	 0.518846 
595.000000	 0.517964 
594.000000	 0.516915 
593.000000	 0.515651 
592.000000	 0.514268 
591.000000	 0.512838 
590.000000	 0.511455 
589.000000	 0.510096 
588.000000	 0.508785 
587.000000	 0.507569 
586.000000	 0.506448 
585.000000	 0.505447 
584.000000	 0.504589 
583.000000	 0.503826 
582.000000	 0.503158 
581.000000	 0.502514 
580.000000	 0.501871 
579.000000	 0.501179 
578.000000	 0.500416 
577.000000	 0.499510 
576.000000	 0.498509 
575.000000	 0.497436 
574.000000	 0.496292 
573.000000	 0.495123 
572.000000	 0.493979 
571.000000	 0.492858 
570.000000	 0.491762 
569.000000	 0.490641 
568.000000	 0.489449 
567.000000	 0.488185 
566.000000	 0.486803 
565.000000	 0.485348 
564.000000	 0.483775 
563.000000	 0.482106 
562.000000	 0.480365 
561.000000	 0.478649 
560.000000	 0.476837 
559.000000	 0.475025 
558.000000	 0.473189 
557.000000	 0.471353 
556.000000	 0.469470 
555.000000	 0.467634 
554.000000	 0.465846 
553.000000	 0.464129 
552.000000	 0.462436 
551.000000	 0.460815 
550.000000	 0.459289 
549.000000	 0.457859 
548.000000	 0.456428 
547.000000	 0.455021 
546.000000	 0.453615 
545.000000	 0.452160 
544.000000	 0.450587 
543.000000	 0.448918 
542.000000	 0.447154 
541.000000	 0.445294 
540.000000	 0.443315 
539.000000	 0.441288 
538.000000	 0.439262 
537.000000	 0.437235 
536.000000	 0.435209 
535.000000	 0.433182 
534.000000	 0.431180 
533.000000	 0.429153 
532.000000	 0.427079 
531.000000	 0.424957 
530.000000	 0.422692 
529.000000	 0.420331 
528.000000	 0.417900 
527.000000	 0.415396 
526.000000	 0.412821 
525.000000	 0.410246 
524.000000	 0.407648 
523.000000	 0.405097 
522.000000	 0.402593 
521.000000	 0.400114 
520.000000	 0.397729 
519.000000	 0.395369 
518.000000	 0.393080 
517.000000	 0.390839 
516.000000	 0.388598 
515.000000	 0.386428 
514.000000	 0.384235 
513.000000	 0.382018 
512.000000	 0.379800 
511.000000	 0.377488 
510.000000	 0.375151 
509.000000	 0.372767 
508.000000	 0.370311 
507.000000	 0.367808 
506.000000	 0.365185 
505.000000	 0.362420 
504.000000	 0.359511 
503.000000	 0.356411 
502.000000	 0.353145 
501.000000	 0.349664 
500.000000	 0.346088 
499.000000	 0.342416 
498.000000	 0.338745 
497.000000	 0.335049 
496.000000	 0.331473 
495.000000	 0.327992 
494.000000	 0.324630 
493.000000	 0.321388 
492.000000	 0.318169 
491.000000	 0.314950 
490.000000	 0.311732 
489.000000	 0.308465 
488.000000	 0.305128 
487.000000	 0.301671 
486.000000	 0.298118 
485.000000	 0.294446 
484.000000	 0.290751 
483.000000	 0.287008 
482.000000	 0.283312 
481.000000	 0.279664 
480.000000	 0.276112 
479.000000	 0.272655 
478.000000	 0.269293 
477.000000	 0.266027 
476.000000	 0.262856 
475.000000	 0.259780 
474.000000	 0.256776 
473.000000	 0.253820 
472.000000	 0.250959 
471.000000	 0.248098 
470.000000	 0.245213 
469.000000	 0.242328 
468.000000	 0.239396 
467.000000	 0.236344 
466.000000	 0.233173 
465.000000	 0.229907 
464.000000	 0.226449 
463.000000	 0.222873 
462.000000	 0.219178 
461.000000	 0.215363 
460.000000	 0.211477 
459.000000	 0.207543 
458.000000	 0.203585 
457.000000	 0.199651 
456.000000	 0.195789 
455.000000	 0.192070 
454.000000	 0.188469 
453.000000	 0.185060 
452.000000	 0.181818 
451.000000	 0.178742 
450.000000	 0.175857 
449.000000	 0.173139 
448.000000	 0.170540 
447.000000	 0.168013 
446.000000	 0.165557 
445.000000	 0.163078 
444.000000	 0.160574 
443.000000	 0.158023 
442.000000	 0.155401 
441.000000	 0.152730 
440.000000	 0.149965 
439.000000	 0.147175 
438.000000	 0.144314 
437.000000	 0.141382 
436.000000	 0.138378 
435.000000	 0.135326 
434.000000	 0.132179 
433.000000	 0.128984 
432.000000	 0.125718 
431.000000	 0.122404 
430.000000	 0.119090 
429.000000	 0.115776 
428.000000	 0.112462 
427.000000	 0.109171 
426.000000	 0.105929 
425.000000	 0.102734 
424.000000	 0.099587 
423.000000	 0.096487 
422.000000	 0.093436 
421.000000	 0.090432 
420.000000	 0.087475 
419.000000	 0.084495 
418.000000	 0.081539 
417.000000	 0.078582 
416.000000	 0.075650 
415.000000	 0.072741 
414.000000	 0.069904 
413.000000	 0.067210 
412.000000	 0.064682 
411.000000	 0.062346 
410.000000	 0.060200 
409.000000	 0.058245 
408.000000	 0.056409 
407.000000	 0.054645 
406.000000	 0.052928 
405.000000	 0.051140 
404.000000	 0.049281 
403.000000	 0.047326 
402.000000	 0.045275 
401.000000	 0.043153 
400.000000	 0.040960 
399.000000	 0.038766 
398.000000	 0.036621 
397.000000	 0.034546 
396.000000	 0.032567 
395.000000	 0.030708 
394.000000	 0.028967 
393.000000	 0.027370 
392.000000	 0.025892 
391.000000	 0.024533 
390.000000	 0.023293 
389.000000	 0.022172 
388.000000	 0.021100 
387.000000	 0.020051 
386.000000	 0.018978 
385.000000	 0.017881 
384.000000	 0.016760 
383.000000	 0.015568 
382.000000	 0.014305 
381.000000	 0.013041 
380.000000	 0.011801 
379.000000	 0.010704 
378.000000	 0.009775 
377.000000	 0.009036 
376.000000	 0.008463 
375.000000	 0.008106 
374.000000	 0.007843 
373.000000	 0.007653 
372.000000	 0.007462 
371.000000	 0.007224 
370.000000	 0.006937 

