PE IR       SPECTRUM    SPECTRUM    ASCII       PEDS        1.60        
  -1
C-1B25~1.ASC
17/05/02
12:56:27.00
17/05/02
12:56:27.00
tln
$C-4040-8_e0039$<ebV0>[-23.3,12.1,10.0,0.0,22,1,0]
370.000000
64









2002,4.07    
MIRTGS : RIGHTBACK : INTERNAL 2
MIR : ON : INTERNAL 2
OPTKBR

0.200000
8
8.000000
FILLER
SINGLE
SPECTRUM
UNLOCKED 256

DOUBLE

COMBINED
1
0
0


1.000000
BACKG


1
0
TRUE
51149
0
LEFT NOT FITTED RIGHT NOT FITTED 0
NONE
NONE
15600
12.000000
4.427000
51148
TRUE
1 0 8 72 0 0 0 0 

15798.010000






#HDR
-1
-1
#GR
CM-1
EGY
0.00002384185791015625
0.0
7800.000000
-1.000000
7431
8
2.449369
0.006222
#DATA
7800.000000	0.030851 
7799.000000	0.030565 
7798.000000	0.030493 
7797.000000	0.030636 
7796.000000	0.031018 
7795.000000	0.031590 
7794.000000	0.032353 
7793.000000	0.033259 
7792.000000	0.034213 
7791.000000	0.035166 
7790.000000	0.036001 
7789.000000	0.036716 
7788.000000	0.037193 
7787.000000	0.037527 
7786.000000	0.037622 
7785.000000	0.037622 
7784.000000	0.037527 
7783.000000	0.037431 
7782.000000	0.037336 
7781.000000	0.037360 
7780.000000	0.037479 
7779.000000	0.037693 
7778.000000	0.038027 
7777.000000	0.038361 
7776.000000	0.038790 
7775.000000	0.039172 
7774.000000	0.039482 
7773.000000	0.039720 
7772.000000	0.039911 
7771.000000	0.040078 
7770.000000	0.040245 
7769.000000	0.040483 
7768.000000	0.040793 
7767.000000	0.041222 
7766.000000	0.041747 
7765.000000	0.042295 
7764.000000	0.042867 
7763.000000	0.043368 
7762.000000	0.043773 
7761.000000	0.044035 
7760.000000	0.044155 
7759.000000	0.044107 
7758.000000	0.044012 
7757.000000	0.043845 
7756.000000	0.043654 
7755.000000	0.043511 
7754.000000	0.043392 
7753.000000	0.043344 
7752.000000	0.043344 
7751.000000	0.043439 
7750.000000	0.043630 
7749.000000	0.043869 
7748.000000	0.044202 
7747.000000	0.044584 
7746.000000	0.045013 
7745.000000	0.045394 
7744.000000	0.045752 
7743.000000	0.045967 
7742.000000	0.046086 
7741.000000	0.045990 
7740.000000	0.045800 
7739.000000	0.045490 
7738.000000	0.045156 
7737.000000	0.044846 
7736.000000	0.044584 
7735.000000	0.044465 
7734.000000	0.044441 
7733.000000	0.044536 
7732.000000	0.044751 
7731.000000	0.045037 
7730.000000	0.045394 
7729.000000	0.045871 
7728.000000	0.046372 
7727.000000	0.046992 
7726.000000	0.047707 
7725.000000	0.048470 
7724.000000	0.049209 
7723.000000	0.049924 
7722.000000	0.050544 
7721.000000	0.051045 
7720.000000	0.051474 
7719.000000	0.051832 
7718.000000	0.052189 
7717.000000	0.052571 
7716.000000	0.053024 
7715.000000	0.053548 
7714.000000	0.054121 
7713.000000	0.054717 
7712.000000	0.055241 
7711.000000	0.055599 
7710.000000	0.055789 
7709.000000	0.055789 
7708.000000	0.055623 
7707.000000	0.055336 
7706.000000	0.055003 
7705.000000	0.054717 
7704.000000	0.054502 
7703.000000	0.054383 
7702.000000	0.054383 
7701.000000	0.054478 
7700.000000	0.054645 
7699.000000	0.054836 
7698.000000	0.055050 
7697.000000	0.055241 
7696.000000	0.055456 
7695.000000	0.055599 
7694.000000	0.055742 
7693.000000	0.055885 
7692.000000	0.056004 
7691.000000	0.056147 
7690.000000	0.056266 
7689.000000	0.056338 
7688.000000	0.056338 
7687.000000	0.056242 
7686.000000	0.056076 
7685.000000	0.055813 
7684.000000	0.055480 
7683.000000	0.055122 
7682.000000	0.054764 
7681.000000	0.054407 
7680.000000	0.054144 
7679.000000	0.054001 
7678.000000	0.054049 
7677.000000	0.054287 
7676.000000	0.054740 
7675.000000	0.055408 
7674.000000	0.056195 
7673.000000	0.057101 
7672.000000	0.058054 
7671.000000	0.059032 
7670.000000	0.059866 
7669.000000	0.060582 
7668.000000	0.061106 
7667.000000	0.061488 
7666.000000	0.061702 
7665.000000	0.061774 
7664.000000	0.061774 
7663.000000	0.061702 
7662.000000	0.061631 
7661.000000	0.061559 
7660.000000	0.061511 
7659.000000	0.061464 
7658.000000	0.061464 
7657.000000	0.061440 
7656.000000	0.061368 
7655.000000	0.061273 
7654.000000	0.061130 
7653.000000	0.060963 
7652.000000	0.060725 
7651.000000	0.060486 
7650.000000	0.060296 
7649.000000	0.060176 
7648.000000	0.060129 
7647.000000	0.060248 
7646.000000	0.060462 
7645.000000	0.060844 
7644.000000	0.061297 
7643.000000	0.061821 
7642.000000	0.062346 
7641.000000	0.062799 
7640.000000	0.063180 
7639.000000	0.063490 
7638.000000	0.063705 
7637.000000	0.063896 
7636.000000	0.064039 
7635.000000	0.064206 
7634.000000	0.064396 
7633.000000	0.064587 
7632.000000	0.064802 
7631.000000	0.064969 
7630.000000	0.065064 
7629.000000	0.065112 
7628.000000	0.065064 
7627.000000	0.064969 
7626.000000	0.064802 
7625.000000	0.064611 
7624.000000	0.064539 
7623.000000	0.064587 
7622.000000	0.064802 
7621.000000	0.065207 
7620.000000	0.065851 
7619.000000	0.066566 
7618.000000	0.067329 
7617.000000	0.068068 
7616.000000	0.068688 
7615.000000	0.069093 
7614.000000	0.069284 
7613.000000	0.069236 
7612.000000	0.069022 
7611.000000	0.068664 
7610.000000	0.068306 
7609.000000	0.067973 
7608.000000	0.067758 
7607.000000	0.067687 
7606.000000	0.067758 
7605.000000	0.067901 
7604.000000	0.068116 
7603.000000	0.068330 
7602.000000	0.068497 
7601.000000	0.068521 
7600.000000	0.068426 
7599.000000	0.068235 
7598.000000	0.067901 
7597.000000	0.067543 
7596.000000	0.067186 
7595.000000	0.066876 
7594.000000	0.066733 
7593.000000	0.066709 
7592.000000	0.066900 
7591.000000	0.067257 
7590.000000	0.067782 
7589.000000	0.068473 
7588.000000	0.069236 
7587.000000	0.070047 
7586.000000	0.070858 
7585.000000	0.071549 
7584.000000	0.072121 
7583.000000	0.072550 
7582.000000	0.072765 
7581.000000	0.072717 
7580.000000	0.072455 
7579.000000	0.071954 
7578.000000	0.071287 
7577.000000	0.070452 
7576.000000	0.069546 
7575.000000	0.068664 
7574.000000	0.067901 
7573.000000	0.067329 
7572.000000	0.067090 
7571.000000	0.067162 
7570.000000	0.067567 
7569.000000	0.068378 
7568.000000	0.069475 
7567.000000	0.070858 
7566.000000	0.072312 
7565.000000	0.073814 
7564.000000	0.075268 
7563.000000	0.076532 
7562.000000	0.077509 
7561.000000	0.078177 
7560.000000	0.078558 
7559.000000	0.078654 
7558.000000	0.078535 
7557.000000	0.078201 
7556.000000	0.077748 
7555.000000	0.077223 
7554.000000	0.076651 
7553.000000	0.076055 
7552.000000	0.075459 
7551.000000	0.074911 
7550.000000	0.074458 
7549.000000	0.074148 
7548.000000	0.073981 
7547.000000	0.074028 
7546.000000	0.074291 
7545.000000	0.074744 
7544.000000	0.075364 
7543.000000	0.076007 
7542.000000	0.076699 
7541.000000	0.077366 
7540.000000	0.077891 
7539.000000	0.078296 
7538.000000	0.078582 
7537.000000	0.078725 
7536.000000	0.078725 
7535.000000	0.078678 
7534.000000	0.078487 
7533.000000	0.078272 
7532.000000	0.077962 
7531.000000	0.077629 
7530.000000	0.077319 
7529.000000	0.077080 
7528.000000	0.076985 
7527.000000	0.077104 
7526.000000	0.077462 
7525.000000	0.078010 
7524.000000	0.078773 
7523.000000	0.079703 
7522.000000	0.080728 
7521.000000	0.081729 
7520.000000	0.082683 
7519.000000	0.083518 
7518.000000	0.084209 
7517.000000	0.084710 
7516.000000	0.085067 
7515.000000	0.085258 
7514.000000	0.085330 
7513.000000	0.085330 
7512.000000	0.085258 
7511.000000	0.085115 
7510.000000	0.084948 
7509.000000	0.084733 
7508.000000	0.084471 
7507.000000	0.084209 
7506.000000	0.083899 
7505.000000	0.083637 
7504.000000	0.083398 
7503.000000	0.083279 
7502.000000	0.083208 
7501.000000	0.083255 
7500.000000	0.083398 
7499.000000	0.083613 
7498.000000	0.083899 
7497.000000	0.084185 
7496.000000	0.084447 
7495.000000	0.084686 
7494.000000	0.084877 
7493.000000	0.085043 
7492.000000	0.085210 
7491.000000	0.085306 
7490.000000	0.085353 
7489.000000	0.085425 
7488.000000	0.085473 
7487.000000	0.085520 
7486.000000	0.085616 
7485.000000	0.085806 
7484.000000	0.086045 
7483.000000	0.086331 
7482.000000	0.086641 
7481.000000	0.086903 
7480.000000	0.087118 
7479.000000	0.087189 
7478.000000	0.087189 
7477.000000	0.087094 
7476.000000	0.086903 
7475.000000	0.086736 
7474.000000	0.086593 
7473.000000	0.086522 
7472.000000	0.086474 
7471.000000	0.086426 
7470.000000	0.086379 
7469.000000	0.086236 
7468.000000	0.086021 
7467.000000	0.085735 
7466.000000	0.085425 
7465.000000	0.085115 
7464.000000	0.084900 
7463.000000	0.084853 
7462.000000	0.084924 
7461.000000	0.085186 
7460.000000	0.085616 
7459.000000	0.086116 
7458.000000	0.086712 
7457.000000	0.087308 
7456.000000	0.087857 
7455.000000	0.088310 
7454.000000	0.088691 
7453.000000	0.088953 
7452.000000	0.089097 
7451.000000	0.089144 
7450.000000	0.089097 
7449.000000	0.089049 
7448.000000	0.089049 
7447.000000	0.089097 
7446.000000	0.089216 
7445.000000	0.089406 
7444.000000	0.089645 
7443.000000	0.089859 
7442.000000	0.090026 
7441.000000	0.090122 
7440.000000	0.090074 
7439.000000	0.089979 
7438.000000	0.089812 
7437.000000	0.089621 
7436.000000	0.089502 
7435.000000	0.089430 
7434.000000	0.089454 
7433.000000	0.089526 
7432.000000	0.089716 
7431.000000	0.089883 
7430.000000	0.090098 
7429.000000	0.090265 
7428.000000	0.090360 
7427.000000	0.090432 
7426.000000	0.090456 
7425.000000	0.090503 
7424.000000	0.090551 
7423.000000	0.090622 
7422.000000	0.090742 
7421.000000	0.090861 
7420.000000	0.091028 
7419.000000	0.091171 
7418.000000	0.091290 
7417.000000	0.091338 
7416.000000	0.091338 
7415.000000	0.091338 
7414.000000	0.091314 
7413.000000	0.091338 
7412.000000	0.091457 
7411.000000	0.091671 
7410.000000	0.091981 
7409.000000	0.092387 
7408.000000	0.092935 
7407.000000	0.093507 
7406.000000	0.094151 
7405.000000	0.094771 
7404.000000	0.095391 
7403.000000	0.095939 
7402.000000	0.096392 
7401.000000	0.096750 
7400.000000	0.096988 
7399.000000	0.097155 
7398.000000	0.097250 
7397.000000	0.097298 
7396.000000	0.097346 
7395.000000	0.097370 
7394.000000	0.097370 
7393.000000	0.097441 
7392.000000	0.097489 
7391.000000	0.097537 
7390.000000	0.097608 
7389.000000	0.097703 
7388.000000	0.097775 
7387.000000	0.097870 
7386.000000	0.097918 
7385.000000	0.097966 
7384.000000	0.097990 
7383.000000	0.098013 
7382.000000	0.098061 
7381.000000	0.098156 
7380.000000	0.098323 
7379.000000	0.098681 
7378.000000	0.099110 
7377.000000	0.099635 
7376.000000	0.100183 
7375.000000	0.100731 
7374.000000	0.101208 
7373.000000	0.101494 
7372.000000	0.101661 
7371.000000	0.101685 
7370.000000	0.101590 
7369.000000	0.101447 
7368.000000	0.101280 
7367.000000	0.101184 
7366.000000	0.101137 
7365.000000	0.101161 
7364.000000	0.101184 
7363.000000	0.101137 
7362.000000	0.100994 
7361.000000	0.100708 
7360.000000	0.100302 
7359.000000	0.099778 
7358.000000	0.099253 
7357.000000	0.098776 
7356.000000	0.098419 
7355.000000	0.098252 
7354.000000	0.098299 
7353.000000	0.098633 
7352.000000	0.099182 
7351.000000	0.099968 
7350.000000	0.100827 
7349.000000	0.101852 
7348.000000	0.102829 
7347.000000	0.103807 
7346.000000	0.104737 
7345.000000	0.105595 
7344.000000	0.106334 
7343.000000	0.106978 
7342.000000	0.107550 
7341.000000	0.108027 
7340.000000	0.108313 
7339.000000	0.108480 
7338.000000	0.108528 
7337.000000	0.108480 
7336.000000	0.108385 
7335.000000	0.108242 
7334.000000	0.108098 
7333.000000	0.107955 
7332.000000	0.107836 
7331.000000	0.107669 
7330.000000	0.107455 
7329.000000	0.107192 
7328.000000	0.106859 
7327.000000	0.106453 
7326.000000	0.106048 
7325.000000	0.105690 
7324.000000	0.105404 
7323.000000	0.105285 
7322.000000	0.105357 
7321.000000	0.105571 
7320.000000	0.105929 
7319.000000	0.106382 
7318.000000	0.106859 
7317.000000	0.107264 
7316.000000	0.107622 
7315.000000	0.107884 
7314.000000	0.108075 
7313.000000	0.108242 
7312.000000	0.108385 
7311.000000	0.108599 
7310.000000	0.108885 
7309.000000	0.109219 
7308.000000	0.109624 
7307.000000	0.110077 
7306.000000	0.110554 
7305.000000	0.110983 
7304.000000	0.111389 
7303.000000	0.111746 
7302.000000	0.111985 
7301.000000	0.112128 
7300.000000	0.112223 
7299.000000	0.112247 
7298.000000	0.112199 
7297.000000	0.112104 
7296.000000	0.111889 
7295.000000	0.111579 
7294.000000	0.111198 
7293.000000	0.110745 
7292.000000	0.110197 
7291.000000	0.109601 
7290.000000	0.109004 
7289.000000	0.108456 
7288.000000	0.108027 
7287.000000	0.107669 
7286.000000	0.107455 
7285.000000	0.107407 
7284.000000	0.107431 
7283.000000	0.107598 
7282.000000	0.107908 
7281.000000	0.108265 
7280.000000	0.108599 
7279.000000	0.108957 
7278.000000	0.109314 
7277.000000	0.109648 
7276.000000	0.110030 
7275.000000	0.110411 
7274.000000	0.110793 
7273.000000	0.111246 
7272.000000	0.111722 
7271.000000	0.112199 
7270.000000	0.112652 
7269.000000	0.113081 
7268.000000	0.113463 
7267.000000	0.113773 
7266.000000	0.113940 
7265.000000	0.114035 
7264.000000	0.114083 
7263.000000	0.114083 
7262.000000	0.114083 
7261.000000	0.114107 
7260.000000	0.114202 
7259.000000	0.114321 
7258.000000	0.114440 
7257.000000	0.114536 
7256.000000	0.114583 
7255.000000	0.114560 
7254.000000	0.114464 
7253.000000	0.114393 
7252.000000	0.114345 
7251.000000	0.114417 
7250.000000	0.114679 
7249.000000	0.115156 
7248.000000	0.115847 
7247.000000	0.116705 
7246.000000	0.117588 
7245.000000	0.118470 
7244.000000	0.119256 
7243.000000	0.119900 
7242.000000	0.120353 
7241.000000	0.120639 
7240.000000	0.120854 
7239.000000	0.120949 
7238.000000	0.120973 
7237.000000	0.120949 
7236.000000	0.120806 
7235.000000	0.120568 
7234.000000	0.120139 
7233.000000	0.119566 
7232.000000	0.118875 
7231.000000	0.118088 
7230.000000	0.117325 
7229.000000	0.116634 
7228.000000	0.116086 
7227.000000	0.115799 
7226.000000	0.115776 
7225.000000	0.115990 
7224.000000	0.116419 
7223.000000	0.116968 
7222.000000	0.117635 
7221.000000	0.118398 
7220.000000	0.119137 
7219.000000	0.119876 
7218.000000	0.120568 
7217.000000	0.121164 
7216.000000	0.121665 
7215.000000	0.122046 
7214.000000	0.122237 
7213.000000	0.122356 
7212.000000	0.122308 
7211.000000	0.122117 
7210.000000	0.121808 
7209.000000	0.121521 
7208.000000	0.121212 
7207.000000	0.120997 
7206.000000	0.120854 
7205.000000	0.120806 
7204.000000	0.120806 
7203.000000	0.120830 
7202.000000	0.120902 
7201.000000	0.120949 
7200.000000	0.120997 
7199.000000	0.121068 
7198.000000	0.121212 
7197.000000	0.121402 
7196.000000	0.121712 
7195.000000	0.122165 
7194.000000	0.122618 
7193.000000	0.123071 
7192.000000	0.123476 
7191.000000	0.123715 
7190.000000	0.123786 
7189.000000	0.123643 
7188.000000	0.123357 
7187.000000	0.122976 
7186.000000	0.122594 
7185.000000	0.122332 
7184.000000	0.122213 
7183.000000	0.122308 
7182.000000	0.122594 
7181.000000	0.123095 
7180.000000	0.123739 
7179.000000	0.124478 
7178.000000	0.125241 
7177.000000	0.126004 
7176.000000	0.126743 
7175.000000	0.127387 
7174.000000	0.127935 
7173.000000	0.128364 
7172.000000	0.128650 
7171.000000	0.128793 
7170.000000	0.128769 
7169.000000	0.128579 
7168.000000	0.128221 
7167.000000	0.127673 
7166.000000	0.127077 
7165.000000	0.126433 
7164.000000	0.125813 
7163.000000	0.125360 
7162.000000	0.125098 
7161.000000	0.125074 
7160.000000	0.125241 
7159.000000	0.125670 
7158.000000	0.126218 
7157.000000	0.126886 
7156.000000	0.127577 
7155.000000	0.128197 
7154.000000	0.128674 
7153.000000	0.128960 
7152.000000	0.129055 
7151.000000	0.129032 
7150.000000	0.128841 
7149.000000	0.128531 
7148.000000	0.128149 
7147.000000	0.127792 
7146.000000	0.127482 
7145.000000	0.127291 
7144.000000	0.127220 
7143.000000	0.127315 
7142.000000	0.127649 
7141.000000	0.128173 
7140.000000	0.128865 
7139.000000	0.129723 
7138.000000	0.130605 
7137.000000	0.131487 
7136.000000	0.132322 
7135.000000	0.133037 
7134.000000	0.133490 
7133.000000	0.133752 
7132.000000	0.133776 
7131.000000	0.133657 
7130.000000	0.133466 
7129.000000	0.133228 
7128.000000	0.133085 
7127.000000	0.133061 
7126.000000	0.133228 
7125.000000	0.133514 
7124.000000	0.133943 
7123.000000	0.134420 
7122.000000	0.134825 
7121.000000	0.135183 
7120.000000	0.135397 
7119.000000	0.135445 
7118.000000	0.135350 
7117.000000	0.135135 
7116.000000	0.134921 
7115.000000	0.134754 
7114.000000	0.134682 
7113.000000	0.134754 
7112.000000	0.134992 
7111.000000	0.135350 
7110.000000	0.135874 
7109.000000	0.136399 
7108.000000	0.136923 
7107.000000	0.137376 
7106.000000	0.137734 
7105.000000	0.137925 
7104.000000	0.137925 
7103.000000	0.137805 
7102.000000	0.137519 
7101.000000	0.137162 
7100.000000	0.136804 
7099.000000	0.136423 
7098.000000	0.136113 
7097.000000	0.135898 
7096.000000	0.135755 
7095.000000	0.135731 
7094.000000	0.135755 
7093.000000	0.135827 
7092.000000	0.135970 
7091.000000	0.136160 
7090.000000	0.136399 
7089.000000	0.136661 
7088.000000	0.137019 
7087.000000	0.137448 
7086.000000	0.137948 
7085.000000	0.138497 
7084.000000	0.139045 
7083.000000	0.139617 
7082.000000	0.140118 
7081.000000	0.140571 
7080.000000	0.140929 
7079.000000	0.141119 
7078.000000	0.141191 
7077.000000	0.141143 
7076.000000	0.140905 
7075.000000	0.140619 
7074.000000	0.140237 
7073.000000	0.139880 
7072.000000	0.139570 
7071.000000	0.139379 
7070.000000	0.139355 
7069.000000	0.139522 
7068.000000	0.139927 
7067.000000	0.140547 
7066.000000	0.141263 
7065.000000	0.142073 
7064.000000	0.142955 
7063.000000	0.143766 
7062.000000	0.144457 
7061.000000	0.144958 
7060.000000	0.145244 
7059.000000	0.145339 
7058.000000	0.145244 
7057.000000	0.145006 
7056.000000	0.144600 
7055.000000	0.144147 
7054.000000	0.143694 
7053.000000	0.143241 
7052.000000	0.142860 
7051.000000	0.142502 
7050.000000	0.142288 
7049.000000	0.142121 
7048.000000	0.142073 
7047.000000	0.142121 
7046.000000	0.142312 
7045.000000	0.142574 
7044.000000	0.142931 
7043.000000	0.143384 
7042.000000	0.143837 
7041.000000	0.144314 
7040.000000	0.144743 
7039.000000	0.145101 
7038.000000	0.145363 
7037.000000	0.145435 
7036.000000	0.145339 
7035.000000	0.145149 
7034.000000	0.144886 
7033.000000	0.144600 
7032.000000	0.144410 
7031.000000	0.144410 
7030.000000	0.144600 
7029.000000	0.145006 
7028.000000	0.145649 
7027.000000	0.146484 
7026.000000	0.147366 
7025.000000	0.148248 
7024.000000	0.148940 
7023.000000	0.149464 
7022.000000	0.149655 
7021.000000	0.149559 
7020.000000	0.149250 
7019.000000	0.148773 
7018.000000	0.148224 
7017.000000	0.147795 
7016.000000	0.147533 
7015.000000	0.147557 
7014.000000	0.147867 
7013.000000	0.148415 
7012.000000	0.149154 
7011.000000	0.149989 
7010.000000	0.150799 
7009.000000	0.151491 
7008.000000	0.151991 
7007.000000	0.152277 
7006.000000	0.152325 
7005.000000	0.152230 
7004.000000	0.151991 
7003.000000	0.151634 
7002.000000	0.151133 
7001.000000	0.150632 
7000.000000	0.150084 
6999.000000	0.149488 
6998.000000	0.148940 
6997.000000	0.148439 
6996.000000	0.148034 
6995.000000	0.147843 
6994.000000	0.147819 
6993.000000	0.148010 
6992.000000	0.148439 
6991.000000	0.149035 
6990.000000	0.149798 
6989.000000	0.150632 
6988.000000	0.151467 
6987.000000	0.152206 
6986.000000	0.152826 
6985.000000	0.153279 
6984.000000	0.153541 
6983.000000	0.153684 
6982.000000	0.153756 
6981.000000	0.153827 
6980.000000	0.153923 
6979.000000	0.154137 
6978.000000	0.154447 
6977.000000	0.154876 
6976.000000	0.155305 
6975.000000	0.155711 
6974.000000	0.156044 
6973.000000	0.156188 
6972.000000	0.156092 
6971.000000	0.155830 
6970.000000	0.155377 
6969.000000	0.154805 
6968.000000	0.154185 
6967.000000	0.153589 
6966.000000	0.153136 
6965.000000	0.152826 
6964.000000	0.152707 
6963.000000	0.152778 
6962.000000	0.153040 
6961.000000	0.153470 
6960.000000	0.154066 
6959.000000	0.154709 
6958.000000	0.155377 
6957.000000	0.156068 
6956.000000	0.156688 
6955.000000	0.157213 
6954.000000	0.157594 
6953.000000	0.157904 
6952.000000	0.158119 
6951.000000	0.158262 
6950.000000	0.158405 
6949.000000	0.158500 
6948.000000	0.158643 
6947.000000	0.158858 
6946.000000	0.159168 
6945.000000	0.159525 
6944.000000	0.159978 
6943.000000	0.160408 
6942.000000	0.160861 
6941.000000	0.161314 
6940.000000	0.161647 
6939.000000	0.161886 
6938.000000	0.161981 
6937.000000	0.162029 
6936.000000	0.161981 
6935.000000	0.161838 
6934.000000	0.161695 
6933.000000	0.161552 
6932.000000	0.161433 
6931.000000	0.161337 
6930.000000	0.161290 
6929.000000	0.161218 
6928.000000	0.161147 
6927.000000	0.161075 
6926.000000	0.160932 
6925.000000	0.160813 
6924.000000	0.160694 
6923.000000	0.160598 
6922.000000	0.160598 
6921.000000	0.160741 
6920.000000	0.160956 
6919.000000	0.161290 
6918.000000	0.161695 
6917.000000	0.162124 
6916.000000	0.162529 
6915.000000	0.162911 
6914.000000	0.163149 
6913.000000	0.163340 
6912.000000	0.163435 
6911.000000	0.163483 
6910.000000	0.163531 
6909.000000	0.163578 
6908.000000	0.163650 
6907.000000	0.163722 
6906.000000	0.163793 
6905.000000	0.163841 
6904.000000	0.163888 
6903.000000	0.163936 
6902.000000	0.164031 
6901.000000	0.164222 
6900.000000	0.164508 
6899.000000	0.164914 
6898.000000	0.165462 
6897.000000	0.166034 
6896.000000	0.166606 
6895.000000	0.167083 
6894.000000	0.167417 
6893.000000	0.167655 
6892.000000	0.167727 
6891.000000	0.167679 
6890.000000	0.167608 
6889.000000	0.167512 
6888.000000	0.167441 
6887.000000	0.167346 
6886.000000	0.167322 
6885.000000	0.167202 
6884.000000	0.167083 
6883.000000	0.166940 
6882.000000	0.166726 
6881.000000	0.166535 
6880.000000	0.166368 
6879.000000	0.166225 
6878.000000	0.166153 
6877.000000	0.166130 
6876.000000	0.166177 
6875.000000	0.166296 
6874.000000	0.166487 
6873.000000	0.166654 
6872.000000	0.166893 
6871.000000	0.167155 
6870.000000	0.167417 
6869.000000	0.167679 
6868.000000	0.167942 
6867.000000	0.168204 
6866.000000	0.168418 
6865.000000	0.168657 
6864.000000	0.168848 
6863.000000	0.169086 
6862.000000	0.169348 
6861.000000	0.169610 
6860.000000	0.169801 
6859.000000	0.170016 
6858.000000	0.170111 
6857.000000	0.170159 
6856.000000	0.170063 
6855.000000	0.169920 
6854.000000	0.169730 
6853.000000	0.169515 
6852.000000	0.169420 
6851.000000	0.169372 
6850.000000	0.169444 
6849.000000	0.169658 
6848.000000	0.169944 
6847.000000	0.170373 
6846.000000	0.170898 
6845.000000	0.171518 
6844.000000	0.172162 
6843.000000	0.172781 
6842.000000	0.173401 
6841.000000	0.173902 
6840.000000	0.174307 
6839.000000	0.174522 
6838.000000	0.174617 
6837.000000	0.174522 
6836.000000	0.174355 
6835.000000	0.174069 
6834.000000	0.173807 
6833.000000	0.173568 
6832.000000	0.173354 
6831.000000	0.173187 
6830.000000	0.173139 
6829.000000	0.173139 
6828.000000	0.173163 
6827.000000	0.173258 
6826.000000	0.173330 
6825.000000	0.173425 
6824.000000	0.173497 
6823.000000	0.173568 
6822.000000	0.173640 
6821.000000	0.173711 
6820.000000	0.173830 
6819.000000	0.173950 
6818.000000	0.174093 
6817.000000	0.174212 
6816.000000	0.174283 
6815.000000	0.174260 
6814.000000	0.174212 
6813.000000	0.174021 
6812.000000	0.173759 
6811.000000	0.173497 
6810.000000	0.173282 
6809.000000	0.173163 
6808.000000	0.173258 
6807.000000	0.173544 
6806.000000	0.174021 
6805.000000	0.174641 
6804.000000	0.175428 
6803.000000	0.176191 
6802.000000	0.176882 
6801.000000	0.177478 
6800.000000	0.177955 
6799.000000	0.178313 
6798.000000	0.178551 
6797.000000	0.178766 
6796.000000	0.178980 
6795.000000	0.179243 
6794.000000	0.179576 
6793.000000	0.179982 
6792.000000	0.180411 
6791.000000	0.180864 
6790.000000	0.181269 
6789.000000	0.181627 
6788.000000	0.181889 
6787.000000	0.182032 
6786.000000	0.181984 
6785.000000	0.181913 
6784.000000	0.181627 
6783.000000	0.181293 
6782.000000	0.180912 
6781.000000	0.180530 
6780.000000	0.180172 
6779.000000	0.179910 
6778.000000	0.179791 
6777.000000	0.179886 
6776.000000	0.180149 
6775.000000	0.180602 
6774.000000	0.181174 
6773.000000	0.181841 
6772.000000	0.182533 
6771.000000	0.183224 
6770.000000	0.183868 
6769.000000	0.184416 
6768.000000	0.184917 
6767.000000	0.185322 
6766.000000	0.185656 
6765.000000	0.185942 
6764.000000	0.186181 
6763.000000	0.186371 
6762.000000	0.186491 
6761.000000	0.186491 
6760.000000	0.186395 
6759.000000	0.186181 
6758.000000	0.185942 
6757.000000	0.185656 
6756.000000	0.185346 
6755.000000	0.185155 
6754.000000	0.184965 
6753.000000	0.184941 
6752.000000	0.185012 
6751.000000	0.185203 
6750.000000	0.185441 
6749.000000	0.185751 
6748.000000	0.186014 
6747.000000	0.186324 
6746.000000	0.186634 
6745.000000	0.186967 
6744.000000	0.187277 
6743.000000	0.187611 
6742.000000	0.187969 
6741.000000	0.188255 
6740.000000	0.188469 
6739.000000	0.188636 
6738.000000	0.188660 
6737.000000	0.188612 
6736.000000	0.188517 
6735.000000	0.188422 
6734.000000	0.188374 
6733.000000	0.188446 
6732.000000	0.188684 
6731.000000	0.189065 
6730.000000	0.189542 
6729.000000	0.190138 
6728.000000	0.190734 
6727.000000	0.191259 
6726.000000	0.191664 
6725.000000	0.191879 
6724.000000	0.191950 
6723.000000	0.191831 
6722.000000	0.191593 
6721.000000	0.191307 
6720.000000	0.190973 
6719.000000	0.190663 
6718.000000	0.190377 
6717.000000	0.190138 
6716.000000	0.189924 
6715.000000	0.189685 
6714.000000	0.189495 
6713.000000	0.189304 
6712.000000	0.189161 
6711.000000	0.189018 
6710.000000	0.188899 
6709.000000	0.188803 
6708.000000	0.188755 
6707.000000	0.188708 
6706.000000	0.188684 
6705.000000	0.188612 
6704.000000	0.188589 
6703.000000	0.188612 
6702.000000	0.188684 
6701.000000	0.188851 
6700.000000	0.189137 
6699.000000	0.189518 
6698.000000	0.189971 
6697.000000	0.190424 
6696.000000	0.190877 
6695.000000	0.191235 
6694.000000	0.191473 
6693.000000	0.191593 
6692.000000	0.191569 
6691.000000	0.191497 
6690.000000	0.191354 
6689.000000	0.191187 
6688.000000	0.190973 
6687.000000	0.190806 
6686.000000	0.190734 
6685.000000	0.190687 
6684.000000	0.190711 
6683.000000	0.190806 
6682.000000	0.191020 
6681.000000	0.191354 
6680.000000	0.191807 
6679.000000	0.192403 
6678.000000	0.193095 
6677.000000	0.193810 
6676.000000	0.194549 
6675.000000	0.195240 
6674.000000	0.195837 
6673.000000	0.196290 
6672.000000	0.196599 
6671.000000	0.196743 
6670.000000	0.196743 
6669.000000	0.196576 
6668.000000	0.196337 
6667.000000	0.196075 
6666.000000	0.195837 
6665.000000	0.195670 
6664.000000	0.195598 
6663.000000	0.195622 
6662.000000	0.195765 
6661.000000	0.195980 
6660.000000	0.196242 
6659.000000	0.196480 
6658.000000	0.196647 
6657.000000	0.196671 
6656.000000	0.196599 
6655.000000	0.196433 
6654.000000	0.196194 
6653.000000	0.195980 
6652.000000	0.195789 
6651.000000	0.195717 
6650.000000	0.195789 
6649.000000	0.195956 
6648.000000	0.196194 
6647.000000	0.196433 
6646.000000	0.196647 
6645.000000	0.196766 
6644.000000	0.196766 
6643.000000	0.196695 
6642.000000	0.196456 
6641.000000	0.196218 
6640.000000	0.195980 
6639.000000	0.195813 
6638.000000	0.195765 
6637.000000	0.195789 
6636.000000	0.195932 
6635.000000	0.196146 
6634.000000	0.196409 
6633.000000	0.196719 
6632.000000	0.197052 
6631.000000	0.197362 
6630.000000	0.197601 
6629.000000	0.197768 
6628.000000	0.197863 
6627.000000	0.197839 
6626.000000	0.197720 
6625.000000	0.197577 
6624.000000	0.197386 
6623.000000	0.197219 
6622.000000	0.197100 
6621.000000	0.197124 
6620.000000	0.197267 
6619.000000	0.197553 
6618.000000	0.197935 
6617.000000	0.198435 
6616.000000	0.198984 
6615.000000	0.199484 
6614.000000	0.199961 
6613.000000	0.200343 
6612.000000	0.200605 
6611.000000	0.200819 
6610.000000	0.200986 
6609.000000	0.201082 
6608.000000	0.201153 
6607.000000	0.201296 
6606.000000	0.201416 
6605.000000	0.201535 
6604.000000	0.201702 
6603.000000	0.201845 
6602.000000	0.202012 
6601.000000	0.202155 
6600.000000	0.202322 
6599.000000	0.202512 
6598.000000	0.202727 
6597.000000	0.203013 
6596.000000	0.203394 
6595.000000	0.203847 
6594.000000	0.204396 
6593.000000	0.204968 
6592.000000	0.205612 
6591.000000	0.206255 
6590.000000	0.206828 
6589.000000	0.207304 
6588.000000	0.207662 
6587.000000	0.207877 
6586.000000	0.207901 
6585.000000	0.207757 
6584.000000	0.207471 
6583.000000	0.207090 
6582.000000	0.206637 
6581.000000	0.206160 
6580.000000	0.205755 
6579.000000	0.205421 
6578.000000	0.205183 
6577.000000	0.205087 
6576.000000	0.205087 
6575.000000	0.205159 
6574.000000	0.205302 
6573.000000	0.205469 
6572.000000	0.205636 
6571.000000	0.205802 
6570.000000	0.205969 
6569.000000	0.206184 
6568.000000	0.206422 
6567.000000	0.206685 
6566.000000	0.207018 
6565.000000	0.207400 
6564.000000	0.207829 
6563.000000	0.208258 
6562.000000	0.208616 
6561.000000	0.208950 
6560.000000	0.209188 
6559.000000	0.209331 
6558.000000	0.209379 
6557.000000	0.209379 
6556.000000	0.209331 
6555.000000	0.209331 
6554.000000	0.209355 
6553.000000	0.209450 
6552.000000	0.209593 
6551.000000	0.209808 
6550.000000	0.210070 
6549.000000	0.210332 
6548.000000	0.210618 
6547.000000	0.210881 
6546.000000	0.211143 
6545.000000	0.211405 
6544.000000	0.211691 
6543.000000	0.212001 
6542.000000	0.212335 
6541.000000	0.212669 
6540.000000	0.213027 
6539.000000	0.213384 
6538.000000	0.213718 
6537.000000	0.214028 
6536.000000	0.214290 
6535.000000	0.214529 
6534.000000	0.214719 
6533.000000	0.214934 
6532.000000	0.215172 
6531.000000	0.215411 
6530.000000	0.215697 
6529.000000	0.215935 
6528.000000	0.216150 
6527.000000	0.216269 
6526.000000	0.216269 
6525.000000	0.216150 
6524.000000	0.215864 
6523.000000	0.215458 
6522.000000	0.215005 
6521.000000	0.214552 
6520.000000	0.214171 
6519.000000	0.213932 
6518.000000	0.213885 
6517.000000	0.214052 
6516.000000	0.214409 
6515.000000	0.214910 
6514.000000	0.215506 
6513.000000	0.216078 
6512.000000	0.216579 
6511.000000	0.216913 
6510.000000	0.217103 
6509.000000	0.217080 
6508.000000	0.216889 
6507.000000	0.216650 
6506.000000	0.216388 
6505.000000	0.216174 
6504.000000	0.216078 
6503.000000	0.216174 
6502.000000	0.216460 
6501.000000	0.216889 
6500.000000	0.217461 
6499.000000	0.218129 
6498.000000	0.218749 
6497.000000	0.219297 
6496.000000	0.219726 
6495.000000	0.220036 
6494.000000	0.220179 
6493.000000	0.220179 
6492.000000	0.220131 
6491.000000	0.220012 
6490.000000	0.219964 
6489.000000	0.220012 
6488.000000	0.220108 
6487.000000	0.220370 
6486.000000	0.220751 
6485.000000	0.221228 
6484.000000	0.221753 
6483.000000	0.222325 
6482.000000	0.222897 
6481.000000	0.223398 
6480.000000	0.223898 
6479.000000	0.224375 
6478.000000	0.224828 
6477.000000	0.225305 
6476.000000	0.225830 
6475.000000	0.226354 
6474.000000	0.226831 
6473.000000	0.227260 
6472.000000	0.227546 
6471.000000	0.227642 
6470.000000	0.227546 
6469.000000	0.227284 
6468.000000	0.226926 
6467.000000	0.226497 
6466.000000	0.226116 
6465.000000	0.225830 
6464.000000	0.225758 
6463.000000	0.225853 
6462.000000	0.226116 
6461.000000	0.226593 
6460.000000	0.227165 
6459.000000	0.227713 
6458.000000	0.228214 
6457.000000	0.228643 
6456.000000	0.229024 
6455.000000	0.229310 
6454.000000	0.229573 
6453.000000	0.229811 
6452.000000	0.230026 
6451.000000	0.230240 
6450.000000	0.230431 
6449.000000	0.230550 
6448.000000	0.230550 
6447.000000	0.230455 
6446.000000	0.230264 
6445.000000	0.230002 
6444.000000	0.229716 
6443.000000	0.229501 
6442.000000	0.229430 
6441.000000	0.229573 
6440.000000	0.229883 
6439.000000	0.230431 
6438.000000	0.231170 
6437.000000	0.232028 
6436.000000	0.232958 
6435.000000	0.233888 
6434.000000	0.234770 
6433.000000	0.235533 
6432.000000	0.236153 
6431.000000	0.236582 
6430.000000	0.236868 
6429.000000	0.236940 
6428.000000	0.236916 
6427.000000	0.236749 
6426.000000	0.236582 
6425.000000	0.236392 
6424.000000	0.236272 
6423.000000	0.236272 
6422.000000	0.236368 
6421.000000	0.236582 
6420.000000	0.236940 
6419.000000	0.237393 
6418.000000	0.237917 
6417.000000	0.238418 
6416.000000	0.238871 
6415.000000	0.239229 
6414.000000	0.239467 
6413.000000	0.239562 
6412.000000	0.239467 
6411.000000	0.239276 
6410.000000	0.238943 
6409.000000	0.238609 
6408.000000	0.238299 
6407.000000	0.237989 
6406.000000	0.237798 
6405.000000	0.237727 
6404.000000	0.237751 
6403.000000	0.237894 
6402.000000	0.238060 
6401.000000	0.238227 
6400.000000	0.238370 
6399.000000	0.238466 
6398.000000	0.238513 
6397.000000	0.238561 
6396.000000	0.238609 
6395.000000	0.238704 
6394.000000	0.238895 
6393.000000	0.239157 
6392.000000	0.239539 
6391.000000	0.239992 
6390.000000	0.240516 
6389.000000	0.241065 
6388.000000	0.241589 
6387.000000	0.242066 
6386.000000	0.242471 
6385.000000	0.242805 
6384.000000	0.243043 
6383.000000	0.243234 
6382.000000	0.243425 
6381.000000	0.243639 
6380.000000	0.243878 
6379.000000	0.244164 
6378.000000	0.244498 
6377.000000	0.244879 
6376.000000	0.245213 
6375.000000	0.245523 
6374.000000	0.245738 
6373.000000	0.245857 
6372.000000	0.245881 
6371.000000	0.245785 
6370.000000	0.245642 
6369.000000	0.245475 
6368.000000	0.245356 
6367.000000	0.245308 
6366.000000	0.245332 
6365.000000	0.245499 
6364.000000	0.245738 
6363.000000	0.246143 
6362.000000	0.246667 
6361.000000	0.247263 
6360.000000	0.247931 
6359.000000	0.248646 
6358.000000	0.249290 
6357.000000	0.249910 
6356.000000	0.250411 
6355.000000	0.250792 
6354.000000	0.251007 
6353.000000	0.251126 
6352.000000	0.251150 
6351.000000	0.251126 
6350.000000	0.251078 
6349.000000	0.251102 
6348.000000	0.251173 
6347.000000	0.251364 
6346.000000	0.251674 
6345.000000	0.252056 
6344.000000	0.252532 
6343.000000	0.253152 
6342.000000	0.253820 
6341.000000	0.254535 
6340.000000	0.255274 
6339.000000	0.255990 
6338.000000	0.256657 
6337.000000	0.257205 
6336.000000	0.257682 
6335.000000	0.258040 
6334.000000	0.258302 
6333.000000	0.258493 
6332.000000	0.258612 
6331.000000	0.258684 
6330.000000	0.258708 
6329.000000	0.258684 
6328.000000	0.258636 
6327.000000	0.258541 
6326.000000	0.258469 
6325.000000	0.258445 
6324.000000	0.258445 
6323.000000	0.258517 
6322.000000	0.258684 
6321.000000	0.258922 
6320.000000	0.259208 
6319.000000	0.259590 
6318.000000	0.259947 
6317.000000	0.260305 
6316.000000	0.260615 
6315.000000	0.260925 
6314.000000	0.261235 
6313.000000	0.261569 
6312.000000	0.261926 
6311.000000	0.262260 
6310.000000	0.262641 
6309.000000	0.263023 
6308.000000	0.263404 
6307.000000	0.263786 
6306.000000	0.264143 
6305.000000	0.264501 
6304.000000	0.264859 
6303.000000	0.265192 
6302.000000	0.265550 
6301.000000	0.265884 
6300.000000	0.266218 
6299.000000	0.266551 
6298.000000	0.266814 
6297.000000	0.267076 
6296.000000	0.267291 
6295.000000	0.267481 
6294.000000	0.267624 
6293.000000	0.267720 
6292.000000	0.267815 
6291.000000	0.267887 
6290.000000	0.268006 
6289.000000	0.268101 
6288.000000	0.268220 
6287.000000	0.268435 
6286.000000	0.268697 
6285.000000	0.269007 
6284.000000	0.269341 
6283.000000	0.269746 
6282.000000	0.270152 
6281.000000	0.270557 
6280.000000	0.270915 
6279.000000	0.271224 
6278.000000	0.271511 
6277.000000	0.271821 
6276.000000	0.272083 
6275.000000	0.272321 
6274.000000	0.272583 
6273.000000	0.272893 
6272.000000	0.273227 
6271.000000	0.273633 
6270.000000	0.274062 
6269.000000	0.274538 
6268.000000	0.275063 
6267.000000	0.275611 
6266.000000	0.276136 
6265.000000	0.276589 
6264.000000	0.277066 
6263.000000	0.277471 
6262.000000	0.277876 
6261.000000	0.278306 
6260.000000	0.278759 
6259.000000	0.279259 
6258.000000	0.279855 
6257.000000	0.280427 
6256.000000	0.281000 
6255.000000	0.281500 
6254.000000	0.281929 
6253.000000	0.282216 
6252.000000	0.282406 
6251.000000	0.282526 
6250.000000	0.282621 
6249.000000	0.282716 
6248.000000	0.282812 
6247.000000	0.282931 
6246.000000	0.283122 
6245.000000	0.283360 
6244.000000	0.283622 
6243.000000	0.283932 
6242.000000	0.284218 
6241.000000	0.284600 
6240.000000	0.285029 
6239.000000	0.285506 
6238.000000	0.286054 
6237.000000	0.286579 
6236.000000	0.287175 
6235.000000	0.287747 
6234.000000	0.288295 
6233.000000	0.288748 
6232.000000	0.289106 
6231.000000	0.289297 
6230.000000	0.289344 
6229.000000	0.289249 
6228.000000	0.289034 
6227.000000	0.288796 
6226.000000	0.288605 
6225.000000	0.288534 
6224.000000	0.288605 
6223.000000	0.288867 
6222.000000	0.289320 
6221.000000	0.289916 
6220.000000	0.290584 
6219.000000	0.291204 
6218.000000	0.291776 
6217.000000	0.292205 
6216.000000	0.292468 
6215.000000	0.292611 
6214.000000	0.292634 
6213.000000	0.292634 
6212.000000	0.292658 
6211.000000	0.292730 
6210.000000	0.292921 
6209.000000	0.293159 
6208.000000	0.293445 
6207.000000	0.293779 
6206.000000	0.294089 
6205.000000	0.294375 
6204.000000	0.294589 
6203.000000	0.294733 
6202.000000	0.294804 
6201.000000	0.294852 
6200.000000	0.294923 
6199.000000	0.295066 
6198.000000	0.295281 
6197.000000	0.295639 
6196.000000	0.296163 
6195.000000	0.296783 
6194.000000	0.297522 
6193.000000	0.298285 
6192.000000	0.299024 
6191.000000	0.299715 
6190.000000	0.300288 
6189.000000	0.300788 
6188.000000	0.301146 
6187.000000	0.301456 
6186.000000	0.301766 
6185.000000	0.302028 
6184.000000	0.302362 
6183.000000	0.302672 
6182.000000	0.303053 
6181.000000	0.303435 
6180.000000	0.303745 
6179.000000	0.303983 
6178.000000	0.304126 
6177.000000	0.304198 
6176.000000	0.304198 
6175.000000	0.304126 
6174.000000	0.304055 
6173.000000	0.303983 
6172.000000	0.303983 
6171.000000	0.303983 
6170.000000	0.303959 
6169.000000	0.303912 
6168.000000	0.303792 
6167.000000	0.303602 
6166.000000	0.303363 
6165.000000	0.303101 
6164.000000	0.302886 
6163.000000	0.302815 
6162.000000	0.302982 
6161.000000	0.303411 
6160.000000	0.304031 
6159.000000	0.304889 
6158.000000	0.305819 
6157.000000	0.306797 
6156.000000	0.307703 
6155.000000	0.308442 
6154.000000	0.308990 
6153.000000	0.309348 
6152.000000	0.309562 
6151.000000	0.309658 
6150.000000	0.309729 
6149.000000	0.309777 
6148.000000	0.309848 
6147.000000	0.309944 
6146.000000	0.310111 
6145.000000	0.310230 
6144.000000	0.310325 
6143.000000	0.310373 
6142.000000	0.310420 
6141.000000	0.310444 
6140.000000	0.310540 
6139.000000	0.310635 
6138.000000	0.310778 
6137.000000	0.310969 
6136.000000	0.311207 
6135.000000	0.311446 
6134.000000	0.311708 
6133.000000	0.311994 
6132.000000	0.312328 
6131.000000	0.312757 
6130.000000	0.313282 
6129.000000	0.313925 
6128.000000	0.314640 
6127.000000	0.315451 
6126.000000	0.316190 
6125.000000	0.316858 
6124.000000	0.317382 
6123.000000	0.317716 
6122.000000	0.317907 
6121.000000	0.317978 
6120.000000	0.317978 
6119.000000	0.317978 
6118.000000	0.318074 
6117.000000	0.318241 
6116.000000	0.318479 
6115.000000	0.318813 
6114.000000	0.319194 
6113.000000	0.319576 
6112.000000	0.319981 
6111.000000	0.320386 
6110.000000	0.320744 
6109.000000	0.321102 
6108.000000	0.321388 
6107.000000	0.321674 
6106.000000	0.321960 
6105.000000	0.322222 
6104.000000	0.322461 
6103.000000	0.322771 
6102.000000	0.323128 
6101.000000	0.323557 
6100.000000	0.324034 
6099.000000	0.324583 
6098.000000	0.325179 
6097.000000	0.325846 
6096.000000	0.326466 
6095.000000	0.327086 
6094.000000	0.327706 
6093.000000	0.328207 
6092.000000	0.328660 
6091.000000	0.329017 
6090.000000	0.329327 
6089.000000	0.329637 
6088.000000	0.329947 
6087.000000	0.330305 
6086.000000	0.330758 
6085.000000	0.331282 
6084.000000	0.331854 
6083.000000	0.332498 
6082.000000	0.333142 
6081.000000	0.333762 
6080.000000	0.334310 
6079.000000	0.334763 
6078.000000	0.335121 
6077.000000	0.335359 
6076.000000	0.335502 
6075.000000	0.335526 
6074.000000	0.335431 
6073.000000	0.335240 
6072.000000	0.334954 
6071.000000	0.334644 
6070.000000	0.334310 
6069.000000	0.334000 
6068.000000	0.333809 
6067.000000	0.333762 
6066.000000	0.333857 
6065.000000	0.334119 
6064.000000	0.334477 
6063.000000	0.334906 
6062.000000	0.335311 
6061.000000	0.335645 
6060.000000	0.335860 
6059.000000	0.335955 
6058.000000	0.335931 
6057.000000	0.335860 
6056.000000	0.335741 
6055.000000	0.335645 
6054.000000	0.335717 
6053.000000	0.335955 
6052.000000	0.336408 
6051.000000	0.337123 
6050.000000	0.338125 
6049.000000	0.339341 
6048.000000	0.340700 
6047.000000	0.342082 
6046.000000	0.343370 
6045.000000	0.344491 
6044.000000	0.345396 
6043.000000	0.346064 
6042.000000	0.346446 
6041.000000	0.346660 
6040.000000	0.346803 
6039.000000	0.346899 
6038.000000	0.347089 
6037.000000	0.347352 
6036.000000	0.347685 
6035.000000	0.348067 
6034.000000	0.348496 
6033.000000	0.348901 
6032.000000	0.349259 
6031.000000	0.349569 
6030.000000	0.349831 
6029.000000	0.350069 
6028.000000	0.350308 
6027.000000	0.350475 
6026.000000	0.350642 
6025.000000	0.350666 
6024.000000	0.350618 
6023.000000	0.350451 
6022.000000	0.350189 
6021.000000	0.349903 
6020.000000	0.349569 
6019.000000	0.349378 
6018.000000	0.349259 
6017.000000	0.349307 
6016.000000	0.349521 
6015.000000	0.349926 
6014.000000	0.350427 
6013.000000	0.350999 
6012.000000	0.351572 
6011.000000	0.352072 
6010.000000	0.352454 
6009.000000	0.352716 
6008.000000	0.352954 
6007.000000	0.353121 
6006.000000	0.353312 
6005.000000	0.353598 
6004.000000	0.354003 
6003.000000	0.354576 
6002.000000	0.355243 
6001.000000	0.356054 
6000.000000	0.356912 
5999.000000	0.357770 
5998.000000	0.358581 
5997.000000	0.359320 
5996.000000	0.359940 
5995.000000	0.360441 
5994.000000	0.360822 
5993.000000	0.361132 
5992.000000	0.361347 
5991.000000	0.361561 
5990.000000	0.361776 
5989.000000	0.361919 
5988.000000	0.362014 
5987.000000	0.362014 
5986.000000	0.361943 
5985.000000	0.361800 
5984.000000	0.361609 
5983.000000	0.361347 
5982.000000	0.361108 
5981.000000	0.360965 
5980.000000	0.360965 
5979.000000	0.361132 
5978.000000	0.361418 
5977.000000	0.361847 
5976.000000	0.362300 
5975.000000	0.362706 
5974.000000	0.362992 
5973.000000	0.363135 
5972.000000	0.363087 
5971.000000	0.362896 
5970.000000	0.362682 
5969.000000	0.362515 
5968.000000	0.362491 
5967.000000	0.362682 
5966.000000	0.363135 
5965.000000	0.363802 
5964.000000	0.364661 
5963.000000	0.365591 
5962.000000	0.366544 
5961.000000	0.367403 
5960.000000	0.368142 
5959.000000	0.368714 
5958.000000	0.369143 
5957.000000	0.369429 
5956.000000	0.369644 
5955.000000	0.369787 
5954.000000	0.369930 
5953.000000	0.370073 
5952.000000	0.370216 
5951.000000	0.370383 
5950.000000	0.370573 
5949.000000	0.370788 
5948.000000	0.371026 
5947.000000	0.371265 
5946.000000	0.371575 
5945.000000	0.371837 
5944.000000	0.372099 
5943.000000	0.372290 
5942.000000	0.372433 
5941.000000	0.372552 
5940.000000	0.372600 
5939.000000	0.372624 
5938.000000	0.372624 
5937.000000	0.372624 
5936.000000	0.372672 
5935.000000	0.372743 
5934.000000	0.372862 
5933.000000	0.373005 
5932.000000	0.373196 
5931.000000	0.373435 
5930.000000	0.373697 
5929.000000	0.373935 
5928.000000	0.374150 
5927.000000	0.374341 
5926.000000	0.374484 
5925.000000	0.374579 
5924.000000	0.374627 
5923.000000	0.374698 
5922.000000	0.374817 
5921.000000	0.374984 
5920.000000	0.375270 
5919.000000	0.375652 
5918.000000	0.376129 
5917.000000	0.376701 
5916.000000	0.377273 
5915.000000	0.377845 
5914.000000	0.378298 
5913.000000	0.378608 
5912.000000	0.378823 
5911.000000	0.378870 
5910.000000	0.378847 
5909.000000	0.378727 
5908.000000	0.378537 
5907.000000	0.378322 
5906.000000	0.378155 
5905.000000	0.378036 
5904.000000	0.378012 
5903.000000	0.378036 
5902.000000	0.378179 
5901.000000	0.378465 
5900.000000	0.378847 
5899.000000	0.379347 
5898.000000	0.379943 
5897.000000	0.380539 
5896.000000	0.381088 
5895.000000	0.381588 
5894.000000	0.381994 
5893.000000	0.382280 
5892.000000	0.382518 
5891.000000	0.382661 
5890.000000	0.382733 
5889.000000	0.382757 
5888.000000	0.382781 
5887.000000	0.382804 
5886.000000	0.382828 
5885.000000	0.382852 
5884.000000	0.382924 
5883.000000	0.383043 
5882.000000	0.383186 
5881.000000	0.383472 
5880.000000	0.383830 
5879.000000	0.384259 
5878.000000	0.384759 
5877.000000	0.385212 
5876.000000	0.385665 
5875.000000	0.385999 
5874.000000	0.386214 
5873.000000	0.386381 
5872.000000	0.386452 
5871.000000	0.386524 
5870.000000	0.386571 
5869.000000	0.386714 
5868.000000	0.386953 
5867.000000	0.387191 
5866.000000	0.387501 
5865.000000	0.387883 
5864.000000	0.388288 
5863.000000	0.388646 
5862.000000	0.389027 
5861.000000	0.389337 
5860.000000	0.389575 
5859.000000	0.389742 
5858.000000	0.389814 
5857.000000	0.389885 
5856.000000	0.389909 
5855.000000	0.389933 
5854.000000	0.390028 
5853.000000	0.390172 
5852.000000	0.390386 
5851.000000	0.390648 
5850.000000	0.390982 
5849.000000	0.391316 
5848.000000	0.391602 
5847.000000	0.391864 
5846.000000	0.392103 
5845.000000	0.392270 
5844.000000	0.392460 
5843.000000	0.392651 
5842.000000	0.392866 
5841.000000	0.393128 
5840.000000	0.393438 
5839.000000	0.393795 
5838.000000	0.394105 
5837.000000	0.394415 
5836.000000	0.394678 
5835.000000	0.394916 
5834.000000	0.395059 
5833.000000	0.395178 
5832.000000	0.395226 
5831.000000	0.395274 
5830.000000	0.395298 
5829.000000	0.395321 
5828.000000	0.395441 
5827.000000	0.395584 
5826.000000	0.395822 
5825.000000	0.396132 
5824.000000	0.396537 
5823.000000	0.397038 
5822.000000	0.397610 
5821.000000	0.398278 
5820.000000	0.398993 
5819.000000	0.399708 
5818.000000	0.400400 
5817.000000	0.401067 
5816.000000	0.401687 
5815.000000	0.402212 
5814.000000	0.402665 
5813.000000	0.403046 
5812.000000	0.403356 
5811.000000	0.403642 
5810.000000	0.403904 
5809.000000	0.404167 
5808.000000	0.404453 
5807.000000	0.404763 
5806.000000	0.405168 
5805.000000	0.405550 
5804.000000	0.405955 
5803.000000	0.406384 
5802.000000	0.406789 
5801.000000	0.407075 
5800.000000	0.407290 
5799.000000	0.407409 
5798.000000	0.407409 
5797.000000	0.407314 
5796.000000	0.407195 
5795.000000	0.407099 
5794.000000	0.407052 
5793.000000	0.407123 
5792.000000	0.407338 
5791.000000	0.407791 
5790.000000	0.408363 
5789.000000	0.409030 
5788.000000	0.409793 
5787.000000	0.410485 
5786.000000	0.411105 
5785.000000	0.411605 
5784.000000	0.411939 
5783.000000	0.412082 
5782.000000	0.412130 
5781.000000	0.412082 
5780.000000	0.411987 
5779.000000	0.411844 
5778.000000	0.411725 
5777.000000	0.411605 
5776.000000	0.411558 
5775.000000	0.411534 
5774.000000	0.411510 
5773.000000	0.411558 
5772.000000	0.411677 
5771.000000	0.411820 
5770.000000	0.412011 
5769.000000	0.412201 
5768.000000	0.412368 
5767.000000	0.412487 
5766.000000	0.412535 
5765.000000	0.412511 
5764.000000	0.412487 
5763.000000	0.412416 
5762.000000	0.412368 
5761.000000	0.412392 
5760.000000	0.412583 
5759.000000	0.412869 
5758.000000	0.413227 
5757.000000	0.413727 
5756.000000	0.414252 
5755.000000	0.414752 
5754.000000	0.415205 
5753.000000	0.415515 
5752.000000	0.415706 
5751.000000	0.415778 
5750.000000	0.415706 
5749.000000	0.415587 
5748.000000	0.415444 
5747.000000	0.415301 
5746.000000	0.415301 
5745.000000	0.415444 
5744.000000	0.415778 
5743.000000	0.416302 
5742.000000	0.416994 
5741.000000	0.417828 
5740.000000	0.418710 
5739.000000	0.419569 
5738.000000	0.420403 
5737.000000	0.421094 
5736.000000	0.421619 
5735.000000	0.422000 
5734.000000	0.422215 
5733.000000	0.422286 
5732.000000	0.422286 
5731.000000	0.422239 
5730.000000	0.422286 
5729.000000	0.422382 
5728.000000	0.422596 
5727.000000	0.422906 
5726.000000	0.423383 
5725.000000	0.423955 
5724.000000	0.424623 
5723.000000	0.425267 
5722.000000	0.425863 
5721.000000	0.426316 
5720.000000	0.426602 
5719.000000	0.426697 
5718.000000	0.426626 
5717.000000	0.426411 
5716.000000	0.426101 
5715.000000	0.425767 
5714.000000	0.425529 
5713.000000	0.425457 
5712.000000	0.425553 
5711.000000	0.425887 
5710.000000	0.426411 
5709.000000	0.427055 
5708.000000	0.427770 
5707.000000	0.428462 
5706.000000	0.428986 
5705.000000	0.429368 
5704.000000	0.429511 
5703.000000	0.429415 
5702.000000	0.429129 
5701.000000	0.428700 
5700.000000	0.428175 
5699.000000	0.427699 
5698.000000	0.427222 
5697.000000	0.426864 
5696.000000	0.426650 
5695.000000	0.426626 
5694.000000	0.426721 
5693.000000	0.427007 
5692.000000	0.427412 
5691.000000	0.427865 
5690.000000	0.428366 
5689.000000	0.428891 
5688.000000	0.429344 
5687.000000	0.429701 
5686.000000	0.429987 
5685.000000	0.430178 
5684.000000	0.430297 
5683.000000	0.430369 
5682.000000	0.430440 
5681.000000	0.430512 
5680.000000	0.430631 
5679.000000	0.430798 
5678.000000	0.431013 
5677.000000	0.431251 
5676.000000	0.431513 
5675.000000	0.431752 
5674.000000	0.432038 
5673.000000	0.432372 
5672.000000	0.432729 
5671.000000	0.433158 
5670.000000	0.433659 
5669.000000	0.434231 
5668.000000	0.434827 
5667.000000	0.435376 
5666.000000	0.435829 
5665.000000	0.436139 
5664.000000	0.436258 
5663.000000	0.436186 
5662.000000	0.435996 
5661.000000	0.435709 
5660.000000	0.435328 
5659.000000	0.434994 
5658.000000	0.434732 
5657.000000	0.434541 
5656.000000	0.434398 
5655.000000	0.434303 
5654.000000	0.434255 
5653.000000	0.434207 
5652.000000	0.434136 
5651.000000	0.434184 
5650.000000	0.434255 
5649.000000	0.434446 
5648.000000	0.434708 
5647.000000	0.435066 
5646.000000	0.435471 
5645.000000	0.435876 
5644.000000	0.436234 
5643.000000	0.436520 
5642.000000	0.436711 
5641.000000	0.436782 
5640.000000	0.436806 
5639.000000	0.436782 
5638.000000	0.436711 
5637.000000	0.436687 
5636.000000	0.436687 
5635.000000	0.436735 
5634.000000	0.436782 
5633.000000	0.436830 
5632.000000	0.436925 
5631.000000	0.437045 
5630.000000	0.437283 
5629.000000	0.437617 
5628.000000	0.438094 
5627.000000	0.438737 
5626.000000	0.439524 
5625.000000	0.440454 
5624.000000	0.441455 
5623.000000	0.442433 
5622.000000	0.443363 
5621.000000	0.444173 
5620.000000	0.444817 
5619.000000	0.445294 
5618.000000	0.445532 
5617.000000	0.445652 
5616.000000	0.445675 
5615.000000	0.445652 
5614.000000	0.445556 
5613.000000	0.445532 
5612.000000	0.445532 
5611.000000	0.445556 
5610.000000	0.445628 
5609.000000	0.445652 
5608.000000	0.445652 
5607.000000	0.445604 
5606.000000	0.445485 
5605.000000	0.445342 
5604.000000	0.445199 
5603.000000	0.445079 
5602.000000	0.445032 
5601.000000	0.445079 
5600.000000	0.445246 
5599.000000	0.445532 
5598.000000	0.445961 
5597.000000	0.446462 
5596.000000	0.446987 
5595.000000	0.447487 
5594.000000	0.447964 
5593.000000	0.448369 
5592.000000	0.448727 
5591.000000	0.449013 
5590.000000	0.449371 
5589.000000	0.449752 
5588.000000	0.450229 
5587.000000	0.450801 
5586.000000	0.451421 
5585.000000	0.452089 
5584.000000	0.452733 
5583.000000	0.453257 
5582.000000	0.453686 
5581.000000	0.453901 
5580.000000	0.454020 
5579.000000	0.454044 
5578.000000	0.454020 
5577.000000	0.454020 
5576.000000	0.454092 
5575.000000	0.454282 
5574.000000	0.454616 
5573.000000	0.455117 
5572.000000	0.455713 
5571.000000	0.456452 
5570.000000	0.457239 
5569.000000	0.458097 
5568.000000	0.458955 
5567.000000	0.459766 
5566.000000	0.460505 
5565.000000	0.461149 
5564.000000	0.461649 
5563.000000	0.462055 
5562.000000	0.462317 
5561.000000	0.462508 
5560.000000	0.462746 
5559.000000	0.462961 
5558.000000	0.463247 
5557.000000	0.463604 
5556.000000	0.464010 
5555.000000	0.464463 
5554.000000	0.464892 
5553.000000	0.465369 
5552.000000	0.465822 
5551.000000	0.466346 
5550.000000	0.466871 
5549.000000	0.467419 
5548.000000	0.467991 
5547.000000	0.468540 
5546.000000	0.469064 
5545.000000	0.469493 
5544.000000	0.469779 
5543.000000	0.469994 
5542.000000	0.470089 
5541.000000	0.470161 
5540.000000	0.470304 
5539.000000	0.470519 
5538.000000	0.470876 
5537.000000	0.471401 
5536.000000	0.472116 
5535.000000	0.472927 
5534.000000	0.473833 
5533.000000	0.474762 
5532.000000	0.475645 
5531.000000	0.476408 
5530.000000	0.477075 
5529.000000	0.477576 
5528.000000	0.477957 
5527.000000	0.478243 
5526.000000	0.478458 
5525.000000	0.478672 
5524.000000	0.478959 
5523.000000	0.479292 
5522.000000	0.479674 
5521.000000	0.480151 
5520.000000	0.480675 
5519.000000	0.481176 
5518.000000	0.481653 
5517.000000	0.482058 
5516.000000	0.482392 
5515.000000	0.482654 
5514.000000	0.482916 
5513.000000	0.483179 
5512.000000	0.483417 
5511.000000	0.483751 
5510.000000	0.484132 
5509.000000	0.484609 
5508.000000	0.485134 
5507.000000	0.485682 
5506.000000	0.486159 
5505.000000	0.486660 
5504.000000	0.487065 
5503.000000	0.487446 
5502.000000	0.487828 
5501.000000	0.488185 
5500.000000	0.488567 
5499.000000	0.489020 
5498.000000	0.489497 
5497.000000	0.490093 
5496.000000	0.490713 
5495.000000	0.491380 
5494.000000	0.492024 
5493.000000	0.492644 
5492.000000	0.493168 
5491.000000	0.493574 
5490.000000	0.493764 
5489.000000	0.493884 
5488.000000	0.493812 
5487.000000	0.493645 
5486.000000	0.493407 
5485.000000	0.493168 
5484.000000	0.493025 
5483.000000	0.493025 
5482.000000	0.493240 
5481.000000	0.493669 
5480.000000	0.494289 
5479.000000	0.495028 
5478.000000	0.495886 
5477.000000	0.496792 
5476.000000	0.497651 
5475.000000	0.498461 
5474.000000	0.499224 
5473.000000	0.499963 
5472.000000	0.500750 
5471.000000	0.501537 
5470.000000	0.502443 
5469.000000	0.503349 
5468.000000	0.504302 
5467.000000	0.505185 
5466.000000	0.505924 
5465.000000	0.506472 
5464.000000	0.506758 
5463.000000	0.506758 
5462.000000	0.506520 
5461.000000	0.506043 
5460.000000	0.505495 
5459.000000	0.504875 
5458.000000	0.504255 
5457.000000	0.503730 
5456.000000	0.503396 
5455.000000	0.503230 
5454.000000	0.503253 
5453.000000	0.503492 
5452.000000	0.503921 
5451.000000	0.504517 
5450.000000	0.505256 
5449.000000	0.506114 
5448.000000	0.507068 
5447.000000	0.508093 
5446.000000	0.509190 
5445.000000	0.510287 
5444.000000	0.511384 
5443.000000	0.512433 
5442.000000	0.513458 
5441.000000	0.514435 
5440.000000	0.515294 
5439.000000	0.516033 
5438.000000	0.516653 
5437.000000	0.517082 
5436.000000	0.517320 
5435.000000	0.517320 
5434.000000	0.517106 
5433.000000	0.516629 
5432.000000	0.516033 
5431.000000	0.515317 
5430.000000	0.514554 
5429.000000	0.513863 
5428.000000	0.513315 
5427.000000	0.512981 
5426.000000	0.512909 
5425.000000	0.513124 
5424.000000	0.513553 
5423.000000	0.514221 
5422.000000	0.515031 
5421.000000	0.515890 
5420.000000	0.516772 
5419.000000	0.517654 
5418.000000	0.518441 
5417.000000	0.519108 
5416.000000	0.519704 
5415.000000	0.520205 
5414.000000	0.520586 
5413.000000	0.520825 
5412.000000	0.520992 
5411.000000	0.521063 
5410.000000	0.521087 
5409.000000	0.521087 
5408.000000	0.521111 
5407.000000	0.521159 
5406.000000	0.521326 
5405.000000	0.521540 
5404.000000	0.521898 
5403.000000	0.522303 
5402.000000	0.522685 
5401.000000	0.523090 
5400.000000	0.523424 
5399.000000	0.523686 
5398.000000	0.523877 
5397.000000	0.524091 
5396.000000	0.524306 
5395.000000	0.524640 
5394.000000	0.525140 
5393.000000	0.525808 
5392.000000	0.526666 
5391.000000	0.527667 
5390.000000	0.528740 
5389.000000	0.529789 
5388.000000	0.530743 
5387.000000	0.531458 
5386.000000	0.531911 
5385.000000	0.532078 
5384.000000	0.531959 
5383.000000	0.531673 
5382.000000	0.531315 
5381.000000	0.530958 
5380.000000	0.530695 
5379.000000	0.530648 
5378.000000	0.530862 
5377.000000	0.531387 
5376.000000	0.532150 
5375.000000	0.533175 
5374.000000	0.534391 
5373.000000	0.535750 
5372.000000	0.537180 
5371.000000	0.538611 
5370.000000	0.539994 
5369.000000	0.541234 
5368.000000	0.542306 
5367.000000	0.543189 
5366.000000	0.543832 
5365.000000	0.544238 
5364.000000	0.544476 
5363.000000	0.544548 
5362.000000	0.544548 
5361.000000	0.544548 
5360.000000	0.544524 
5359.000000	0.544548 
5358.000000	0.544667 
5357.000000	0.544905 
5356.000000	0.545144 
5355.000000	0.545454 
5354.000000	0.545763 
5353.000000	0.546121 
5352.000000	0.546598 
5351.000000	0.547218 
5350.000000	0.547933 
5349.000000	0.548863 
5348.000000	0.550055 
5347.000000	0.551438 
5346.000000	0.552988 
5345.000000	0.554633 
5344.000000	0.556302 
5343.000000	0.557851 
5342.000000	0.559234 
5341.000000	0.560331 
5340.000000	0.561094 
5339.000000	0.561594 
5338.000000	0.561833 
5337.000000	0.561857 
5336.000000	0.561785 
5335.000000	0.561642 
5334.000000	0.561547 
5333.000000	0.561571 
5332.000000	0.561738 
5331.000000	0.562071 
5330.000000	0.562548 
5329.000000	0.563216 
5328.000000	0.564050 
5327.000000	0.565004 
5326.000000	0.566005 
5325.000000	0.567007 
5324.000000	0.567936 
5323.000000	0.568699 
5322.000000	0.569272 
5321.000000	0.569534 
5320.000000	0.569534 
5319.000000	0.569295 
5318.000000	0.568914 
5317.000000	0.568461 
5316.000000	0.568151 
5315.000000	0.568032 
5314.000000	0.568270 
5313.000000	0.568842 
5312.000000	0.569772 
5311.000000	0.571036 
5310.000000	0.572538 
5309.000000	0.574231 
5308.000000	0.576043 
5307.000000	0.578022 
5306.000000	0.580143 
5305.000000	0.582432 
5304.000000	0.584888 
5303.000000	0.587487 
5302.000000	0.590157 
5301.000000	0.592827 
5300.000000	0.595307 
5299.000000	0.597548 
5298.000000	0.599455 
5297.000000	0.601029 
5296.000000	0.602149 
5295.000000	0.602912 
5294.000000	0.603199 
5293.000000	0.603032 
5292.000000	0.602459 
5291.000000	0.601577 
5290.000000	0.600600 
5289.000000	0.599741 
5288.000000	0.599312 
5287.000000	0.599527 
5286.000000	0.600504 
5285.000000	0.602245 
5284.000000	0.604557 
5283.000000	0.607109 
5282.000000	0.609564 
5281.000000	0.611448 
5280.000000	0.612545 
5279.000000	0.612735 
5278.000000	0.612044 
5277.000000	0.610804 
5276.000000	0.609254 
5275.000000	0.607800 
5274.000000	0.606679 
5273.000000	0.605964 
5272.000000	0.605773 
5271.000000	0.606083 
5270.000000	0.606727 
5269.000000	0.607705 
5268.000000	0.608825 
5267.000000	0.610113 
5266.000000	0.611472 
5265.000000	0.612878 
5264.000000	0.614285 
5263.000000	0.615620 
5262.000000	0.616741 
5261.000000	0.617599 
5260.000000	0.618004 
5259.000000	0.617957 
5258.000000	0.617456 
5257.000000	0.616621 
5256.000000	0.615668 
5255.000000	0.614762 
5254.000000	0.614142 
5253.000000	0.613975 
5252.000000	0.614309 
5251.000000	0.615119 
5250.000000	0.616359 
5249.000000	0.617837 
5248.000000	0.619387 
5247.000000	0.620865 
5246.000000	0.622177 
5245.000000	0.623369 
5244.000000	0.624418 
5243.000000	0.625467 
5242.000000	0.626564 
5241.000000	0.627756 
5240.000000	0.629067 
5239.000000	0.630426 
5238.000000	0.631809 
5237.000000	0.633072 
5236.000000	0.634241 
5235.000000	0.635218 
5234.000000	0.636005 
5233.000000	0.636601 
5232.000000	0.637054 
5231.000000	0.637364 
5230.000000	0.637602 
5229.000000	0.637793 
5228.000000	0.637984 
5227.000000	0.638151 
5226.000000	0.638294 
5225.000000	0.638413 
5224.000000	0.638532 
5223.000000	0.638651 
5222.000000	0.638747 
5221.000000	0.638866 
5220.000000	0.639009 
5219.000000	0.639200 
5218.000000	0.639438 
5217.000000	0.639748 
5216.000000	0.640106 
5215.000000	0.640416 
5214.000000	0.640726 
5213.000000	0.640916 
5212.000000	0.641036 
5211.000000	0.641107 
5210.000000	0.641155 
5209.000000	0.641250 
5208.000000	0.641441 
5207.000000	0.641798 
5206.000000	0.642371 
5205.000000	0.643062 
5204.000000	0.643873 
5203.000000	0.644731 
5202.000000	0.645637 
5201.000000	0.646519 
5200.000000	0.647377 
5199.000000	0.648260 
5198.000000	0.649094 
5197.000000	0.649952 
5196.000000	0.650811 
5195.000000	0.651669 
5194.000000	0.652503 
5193.000000	0.653338 
5192.000000	0.654125 
5191.000000	0.654816 
5190.000000	0.655484 
5189.000000	0.656056 
5188.000000	0.656533 
5187.000000	0.656938 
5186.000000	0.657272 
5185.000000	0.657582 
5184.000000	0.657820 
5183.000000	0.658082 
5182.000000	0.658392 
5181.000000	0.658798 
5180.000000	0.659298 
5179.000000	0.659894 
5178.000000	0.660562 
5177.000000	0.661301 
5176.000000	0.662088 
5175.000000	0.662922 
5174.000000	0.663781 
5173.000000	0.664591 
5172.000000	0.665402 
5171.000000	0.666189 
5170.000000	0.666880 
5169.000000	0.667428 
5168.000000	0.667834 
5167.000000	0.668096 
5166.000000	0.668215 
5165.000000	0.668168 
5164.000000	0.668025 
5163.000000	0.667858 
5162.000000	0.667715 
5161.000000	0.667595 
5160.000000	0.667595 
5159.000000	0.667691 
5158.000000	0.667977 
5157.000000	0.668406 
5156.000000	0.669050 
5155.000000	0.669884 
5154.000000	0.670862 
5153.000000	0.671935 
5152.000000	0.673103 
5151.000000	0.674295 
5150.000000	0.675392 
5149.000000	0.676393 
5148.000000	0.677251 
5147.000000	0.677943 
5146.000000	0.678491 
5145.000000	0.678849 
5144.000000	0.679135 
5143.000000	0.679326 
5142.000000	0.679516 
5141.000000	0.679755 
5140.000000	0.680017 
5139.000000	0.680398 
5138.000000	0.680875 
5137.000000	0.681424 
5136.000000	0.682067 
5135.000000	0.682783 
5134.000000	0.683498 
5133.000000	0.684213 
5132.000000	0.684905 
5131.000000	0.685620 
5130.000000	0.686287 
5129.000000	0.686955 
5128.000000	0.687599 
5127.000000	0.688242 
5126.000000	0.688862 
5125.000000	0.689506 
5124.000000	0.690150 
5123.000000	0.690841 
5122.000000	0.691556 
5121.000000	0.692343 
5120.000000	0.693202 
5119.000000	0.694012 
5118.000000	0.694799 
5117.000000	0.695538 
5116.000000	0.696182 
5115.000000	0.696682 
5114.000000	0.697088 
5113.000000	0.697350 
5112.000000	0.697565 
5111.000000	0.697803 
5110.000000	0.698065 
5109.000000	0.698399 
5108.000000	0.698804 
5107.000000	0.699353 
5106.000000	0.699949 
5105.000000	0.700616 
5104.000000	0.701332 
5103.000000	0.702071 
5102.000000	0.702762 
5101.000000	0.703382 
5100.000000	0.703883 
5099.000000	0.704264 
5098.000000	0.704574 
5097.000000	0.704860 
5096.000000	0.705122 
5095.000000	0.705456 
5094.000000	0.705933 
5093.000000	0.706577 
5092.000000	0.707387 
5091.000000	0.708389 
5090.000000	0.709486 
5089.000000	0.710701 
5088.000000	0.711894 
5087.000000	0.713062 
5086.000000	0.714206 
5085.000000	0.715208 
5084.000000	0.716114 
5083.000000	0.716924 
5082.000000	0.717616 
5081.000000	0.718235 
5080.000000	0.718832 
5079.000000	0.719332 
5078.000000	0.719881 
5077.000000	0.720429 
5076.000000	0.721049 
5075.000000	0.721716 
5074.000000	0.722384 
5073.000000	0.723099 
5072.000000	0.723767 
5071.000000	0.724411 
5070.000000	0.724959 
5069.000000	0.725460 
5068.000000	0.725889 
5067.000000	0.726318 
5066.000000	0.726771 
5065.000000	0.727272 
5064.000000	0.727891 
5063.000000	0.728631 
5062.000000	0.729489 
5061.000000	0.730538 
5060.000000	0.731706 
5059.000000	0.732874 
5058.000000	0.734066 
5057.000000	0.735187 
5056.000000	0.736188 
5055.000000	0.737094 
5054.000000	0.737905 
5053.000000	0.738620 
5052.000000	0.739312 
5051.000000	0.739932 
5050.000000	0.740551 
5049.000000	0.741195 
5048.000000	0.741815 
5047.000000	0.742387 
5046.000000	0.742888 
5045.000000	0.743317 
5044.000000	0.743722 
5043.000000	0.744152 
5042.000000	0.744628 
5041.000000	0.745201 
5040.000000	0.745916 
5039.000000	0.746774 
5038.000000	0.747728 
5037.000000	0.748753 
5036.000000	0.749778 
5035.000000	0.750780 
5034.000000	0.751638 
5033.000000	0.752329 
5032.000000	0.752854 
5031.000000	0.753211 
5030.000000	0.753450 
5029.000000	0.753617 
5028.000000	0.753736 
5027.000000	0.753879 
5026.000000	0.754022 
5025.000000	0.754189 
5024.000000	0.754404 
5023.000000	0.754642 
5022.000000	0.754880 
5021.000000	0.755119 
5020.000000	0.755405 
5019.000000	0.755715 
5018.000000	0.756120 
5017.000000	0.756621 
5016.000000	0.757217 
5015.000000	0.757980 
5014.000000	0.758838 
5013.000000	0.759768 
5012.000000	0.760793 
5011.000000	0.761795 
5010.000000	0.762748 
5009.000000	0.763654 
5008.000000	0.764513 
5007.000000	0.765299 
5006.000000	0.766038 
5005.000000	0.766706 
5004.000000	0.767350 
5003.000000	0.767946 
5002.000000	0.768518 
5001.000000	0.769042 
5000.000000	0.769472 
4999.000000	0.769853 
4998.000000	0.770139 
4997.000000	0.770330 
4996.000000	0.770449 
4995.000000	0.770616 
4994.000000	0.770759 
4993.000000	0.770974 
4992.000000	0.771284 
4991.000000	0.771784 
4990.000000	0.772452 
4989.000000	0.773286 
4988.000000	0.774264 
4987.000000	0.775337 
4986.000000	0.776481 
4985.000000	0.777530 
4984.000000	0.778484 
4983.000000	0.779271 
4982.000000	0.779843 
4981.000000	0.780224 
4980.000000	0.780463 
4979.000000	0.780558 
4978.000000	0.780630 
4977.000000	0.780701 
4976.000000	0.780749 
4975.000000	0.780844 
4974.000000	0.780916 
4973.000000	0.780963 
4972.000000	0.780963 
4971.000000	0.780940 
4970.000000	0.780916 
4969.000000	0.780916 
4968.000000	0.780987 
4967.000000	0.781178 
4966.000000	0.781536 
4965.000000	0.782084 
4964.000000	0.782752 
4963.000000	0.783562 
4962.000000	0.784540 
4961.000000	0.785565 
4960.000000	0.786614 
4959.000000	0.787711 
4958.000000	0.788784 
4957.000000	0.789809 
4956.000000	0.790786 
4955.000000	0.791645 
4954.000000	0.792431 
4953.000000	0.793123 
4952.000000	0.793719 
4951.000000	0.794219 
4950.000000	0.794649 
4949.000000	0.795030 
4948.000000	0.795340 
4947.000000	0.795602 
4946.000000	0.795841 
4945.000000	0.796031 
4944.000000	0.796175 
4943.000000	0.796270 
4942.000000	0.796365 
4941.000000	0.796508 
4940.000000	0.796675 
4939.000000	0.796961 
4938.000000	0.797319 
4937.000000	0.797677 
4936.000000	0.798082 
4935.000000	0.798463 
4934.000000	0.798749 
4933.000000	0.798964 
4932.000000	0.799107 
4931.000000	0.799179 
4930.000000	0.799226 
4929.000000	0.799322 
4928.000000	0.799512 
4927.000000	0.799775 
4926.000000	0.800132 
4925.000000	0.800609 
4924.000000	0.801086 
4923.000000	0.801539 
4922.000000	0.801968 
4921.000000	0.802350 
4920.000000	0.802683 
4919.000000	0.802993 
4918.000000	0.803303 
4917.000000	0.803637 
4916.000000	0.804042 
4915.000000	0.804543 
4914.000000	0.805139 
4913.000000	0.805830 
4912.000000	0.806593 
4911.000000	0.807380 
4910.000000	0.808215 
4909.000000	0.808978 
4908.000000	0.809645 
4907.000000	0.810265 
4906.000000	0.810742 
4905.000000	0.811147 
4904.000000	0.811481 
4903.000000	0.811791 
4902.000000	0.812125 
4901.000000	0.812506 
4900.000000	0.812983 
4899.000000	0.813555 
4898.000000	0.814199 
4897.000000	0.814843 
4896.000000	0.815463 
4895.000000	0.816059 
4894.000000	0.816559 
4893.000000	0.816965 
4892.000000	0.817275 
4891.000000	0.817489 
4890.000000	0.817751 
4889.000000	0.818014 
4888.000000	0.818395 
4887.000000	0.818920 
4886.000000	0.819587 
4885.000000	0.820398 
4884.000000	0.821304 
4883.000000	0.822257 
4882.000000	0.823187 
4881.000000	0.824046 
4880.000000	0.824832 
4879.000000	0.825452 
4878.000000	0.825929 
4877.000000	0.826239 
4876.000000	0.826382 
4875.000000	0.826406 
4874.000000	0.826358 
4873.000000	0.826287 
4872.000000	0.826215 
4871.000000	0.826263 
4870.000000	0.826501 
4869.000000	0.826930 
4868.000000	0.827598 
4867.000000	0.828480 
4866.000000	0.829529 
4865.000000	0.830650 
4864.000000	0.831699 
4863.000000	0.832653 
4862.000000	0.833439 
4861.000000	0.834035 
4860.000000	0.834441 
4859.000000	0.834679 
4858.000000	0.834798 
4857.000000	0.834894 
4856.000000	0.835013 
4855.000000	0.835251 
4854.000000	0.835585 
4853.000000	0.836038 
4852.000000	0.836610 
4851.000000	0.837278 
4850.000000	0.837993 
4849.000000	0.838661 
4848.000000	0.839257 
4847.000000	0.839781 
4846.000000	0.840258 
4845.000000	0.840592 
4844.000000	0.840878 
4843.000000	0.841140 
4842.000000	0.841379 
4841.000000	0.841593 
4840.000000	0.841832 
4839.000000	0.842094 
4838.000000	0.842404 
4837.000000	0.842714 
4836.000000	0.843095 
4835.000000	0.843477 
4834.000000	0.843977 
4833.000000	0.844573 
4832.000000	0.845241 
4831.000000	0.846004 
4830.000000	0.846767 
4829.000000	0.847530 
4828.000000	0.848221 
4827.000000	0.848865 
4826.000000	0.849366 
4825.000000	0.849795 
4824.000000	0.850176 
4823.000000	0.850534 
4822.000000	0.850987 
4821.000000	0.851583 
4820.000000	0.852322 
4819.000000	0.853228 
4818.000000	0.854253 
4817.000000	0.855374 
4816.000000	0.856518 
4815.000000	0.857615 
4814.000000	0.858616 
4813.000000	0.859546 
4812.000000	0.860381 
4811.000000	0.861144 
4810.000000	0.861835 
4809.000000	0.862503 
4808.000000	0.863146 
4807.000000	0.863790 
4806.000000	0.864458 
4805.000000	0.865101 
4804.000000	0.865745 
4803.000000	0.866317 
4802.000000	0.866889 
4801.000000	0.867390 
4800.000000	0.867819 
4799.000000	0.868177 
4798.000000	0.868463 
4797.000000	0.868701 
4796.000000	0.868916 
4795.000000	0.869107 
4794.000000	0.869393 
4793.000000	0.869727 
4792.000000	0.870156 
4791.000000	0.870728 
4790.000000	0.871419 
4789.000000	0.872182 
4788.000000	0.872921 
4787.000000	0.873661 
4786.000000	0.874304 
4785.000000	0.874781 
4784.000000	0.875139 
4783.000000	0.875377 
4782.000000	0.875568 
4781.000000	0.875687 
4780.000000	0.875830 
4779.000000	0.876045 
4778.000000	0.876379 
4777.000000	0.876808 
4776.000000	0.877380 
4775.000000	0.878024 
4774.000000	0.878810 
4773.000000	0.879621 
4772.000000	0.880503 
4771.000000	0.881409 
4770.000000	0.882339 
4769.000000	0.883221 
4768.000000	0.884079 
4767.000000	0.884819 
4766.000000	0.885510 
4765.000000	0.886082 
4764.000000	0.886511 
4763.000000	0.886845 
4762.000000	0.887107 
4761.000000	0.887370 
4760.000000	0.887632 
4759.000000	0.887918 
4758.000000	0.888347 
4757.000000	0.888872 
4756.000000	0.889444 
4755.000000	0.890088 
4754.000000	0.890731 
4753.000000	0.891327 
4752.000000	0.891876 
4751.000000	0.892281 
4750.000000	0.892615 
4749.000000	0.892853 
4748.000000	0.893044 
4747.000000	0.893163 
4746.000000	0.893259 
4745.000000	0.893378 
4744.000000	0.893545 
4743.000000	0.893759 
4742.000000	0.894069 
4741.000000	0.894427 
4740.000000	0.894856 
4739.000000	0.895380 
4738.000000	0.895953 
4737.000000	0.896525 
4736.000000	0.897073 
4735.000000	0.897598 
4734.000000	0.898075 
4733.000000	0.898504 
4732.000000	0.898861 
4731.000000	0.899171 
4730.000000	0.899481 
4729.000000	0.899720 
4728.000000	0.899982 
4727.000000	0.900220 
4726.000000	0.900435 
4725.000000	0.900578 
4724.000000	0.900673 
4723.000000	0.900745 
4722.000000	0.900769 
4721.000000	0.900793 
4720.000000	0.900864 
4719.000000	0.900983 
4718.000000	0.901174 
4717.000000	0.901460 
4716.000000	0.901818 
4715.000000	0.902247 
4714.000000	0.902748 
4713.000000	0.903296 
4712.000000	0.903844 
4711.000000	0.904417 
4710.000000	0.904989 
4709.000000	0.905561 
4708.000000	0.906133 
4707.000000	0.906634 
4706.000000	0.907063 
4705.000000	0.907397 
4704.000000	0.907635 
4703.000000	0.907731 
4702.000000	0.907683 
4701.000000	0.907516 
4700.000000	0.907230 
4699.000000	0.906848 
4698.000000	0.906491 
4697.000000	0.906085 
4696.000000	0.905752 
4695.000000	0.905513 
4694.000000	0.905418 
4693.000000	0.905466 
4692.000000	0.905728 
4691.000000	0.906109 
4690.000000	0.906658 
4689.000000	0.907278 
4688.000000	0.907897 
4687.000000	0.908446 
4686.000000	0.908827 
4685.000000	0.909066 
4684.000000	0.909137 
4683.000000	0.909018 
4682.000000	0.908851 
4681.000000	0.908637 
4680.000000	0.908398 
4679.000000	0.908327 
4678.000000	0.908303 
4677.000000	0.908374 
4676.000000	0.908517 
4675.000000	0.908708 
4674.000000	0.908899 
4673.000000	0.909066 
4672.000000	0.909185 
4671.000000	0.909256 
4670.000000	0.909304 
4669.000000	0.909328 
4668.000000	0.909352 
4667.000000	0.909328 
4666.000000	0.909328 
4665.000000	0.909352 
4664.000000	0.909399 
4663.000000	0.909519 
4662.000000	0.909638 
4661.000000	0.909852 
4660.000000	0.910139 
4659.000000	0.910520 
4658.000000	0.911021 
4657.000000	0.911545 
4656.000000	0.912141 
4655.000000	0.912785 
4654.000000	0.913357 
4653.000000	0.913882 
4652.000000	0.914216 
4651.000000	0.914478 
4650.000000	0.914573 
4649.000000	0.914573 
4648.000000	0.914549 
4647.000000	0.914549 
4646.000000	0.914716 
4645.000000	0.915050 
4644.000000	0.915551 
4643.000000	0.916242 
4642.000000	0.917029 
4641.000000	0.917863 
4640.000000	0.918698 
4639.000000	0.919413 
4638.000000	0.919961 
4637.000000	0.920438 
4636.000000	0.920796 
4635.000000	0.921082 
4634.000000	0.921392 
4633.000000	0.921750 
4632.000000	0.922131 
4631.000000	0.922584 
4630.000000	0.923061 
4629.000000	0.923514 
4628.000000	0.923967 
4627.000000	0.924372 
4626.000000	0.924706 
4625.000000	0.925016 
4624.000000	0.925254 
4623.000000	0.925493 
4622.000000	0.925683 
4621.000000	0.925850 
4620.000000	0.925946 
4619.000000	0.926041 
4618.000000	0.926089 
4617.000000	0.926113 
4616.000000	0.926208 
4615.000000	0.926399 
4614.000000	0.926780 
4613.000000	0.927376 
4612.000000	0.928211 
4611.000000	0.929307 
4610.000000	0.930571 
4609.000000	0.931930 
4608.000000	0.933241 
4607.000000	0.934433 
4606.000000	0.935411 
4605.000000	0.936126 
4604.000000	0.936627 
4603.000000	0.936913 
4602.000000	0.937056 
4601.000000	0.937151 
4600.000000	0.937271 
4599.000000	0.937485 
4598.000000	0.937867 
4597.000000	0.938296 
4596.000000	0.938892 
4595.000000	0.939512 
4594.000000	0.940179 
4593.000000	0.940847 
4592.000000	0.941467 
4591.000000	0.942087 
4590.000000	0.942659 
4589.000000	0.943160 
4588.000000	0.943684 
4587.000000	0.944137 
4586.000000	0.944590 
4585.000000	0.944972 
4584.000000	0.945281 
4583.000000	0.945639 
4582.000000	0.946044 
4581.000000	0.946521 
4580.000000	0.947165 
4579.000000	0.947952 
4578.000000	0.948905 
4577.000000	0.950002 
4576.000000	0.951170 
4575.000000	0.952363 
4574.000000	0.953531 
4573.000000	0.954604 
4572.000000	0.955629 
4571.000000	0.956559 
4570.000000	0.957417 
4569.000000	0.958228 
4568.000000	0.958991 
4567.000000	0.959634 
4566.000000	0.960230 
4565.000000	0.960779 
4564.000000	0.961279 
4563.000000	0.961685 
4562.000000	0.962162 
4561.000000	0.962662 
4560.000000	0.963306 
4559.000000	0.964093 
4558.000000	0.965046 
4557.000000	0.966143 
4556.000000	0.967359 
4555.000000	0.968647 
4554.000000	0.969982 
4553.000000	0.971293 
4552.000000	0.972557 
4551.000000	0.973701 
4550.000000	0.974822 
4549.000000	0.975847 
4548.000000	0.976777 
4547.000000	0.977563 
4546.000000	0.978231 
4545.000000	0.978732 
4544.000000	0.979065 
4543.000000	0.979328 
4542.000000	0.979471 
4541.000000	0.979590 
4540.000000	0.979733 
4539.000000	0.979971 
4538.000000	0.980353 
4537.000000	0.980901 
4536.000000	0.981593 
4535.000000	0.982379 
4534.000000	0.983214 
4533.000000	0.983977 
4532.000000	0.984621 
4531.000000	0.985145 
4530.000000	0.985503 
4529.000000	0.985741 
4528.000000	0.985932 
4527.000000	0.986123 
4526.000000	0.986385 
4525.000000	0.986766 
4524.000000	0.987267 
4523.000000	0.987815 
4522.000000	0.988388 
4521.000000	0.988936 
4520.000000	0.989437 
4519.000000	0.989842 
4518.000000	0.990080 
4517.000000	0.990247 
4516.000000	0.990414 
4515.000000	0.990557 
4514.000000	0.990772 
4513.000000	0.991129 
4512.000000	0.991630 
4511.000000	0.992345 
4510.000000	0.993251 
4509.000000	0.994253 
4508.000000	0.995397 
4507.000000	0.996613 
4506.000000	0.997829 
4505.000000	0.998878 
4504.000000	0.999808 
4503.000000	1.000547 
4502.000000	1.001071 
4501.000000	1.001405 
4500.000000	1.001572 
4499.000000	1.001596 
4498.000000	1.001620 
4497.000000	1.001715 
4496.000000	1.001858 
4495.000000	1.002144 
4494.000000	1.002550 
4493.000000	1.003026 
4492.000000	1.003646 
4491.000000	1.004242 
4490.000000	1.004767 
4489.000000	1.005268 
4488.000000	1.005530 
4487.000000	1.005649 
4486.000000	1.005554 
4485.000000	1.005339 
4484.000000	1.004981 
4483.000000	1.004576 
4482.000000	1.004266 
4481.000000	1.004052 
4480.000000	1.004004 
4479.000000	1.004195 
4478.000000	1.004552 
4477.000000	1.005077 
4476.000000	1.005768 
4475.000000	1.006507 
4474.000000	1.007318 
4473.000000	1.008129 
4472.000000	1.008915 
4471.000000	1.009631 
4470.000000	1.010322 
4469.000000	1.010847 
4468.000000	1.011228 
4467.000000	1.011395 
4466.000000	1.011347 
4465.000000	1.011085 
4464.000000	1.010608 
4463.000000	1.010012 
4462.000000	1.009416 
4461.000000	1.008868 
4460.000000	1.008534 
4459.000000	1.008439 
4458.000000	1.008605 
4457.000000	1.008963 
4456.000000	1.009488 
4455.000000	1.010084 
4454.000000	1.010608 
4453.000000	1.011013 
4452.000000	1.011228 
4451.000000	1.011300 
4450.000000	1.011228 
4449.000000	1.011133 
4448.000000	1.011037 
4447.000000	1.011013 
4446.000000	1.011109 
4445.000000	1.011300 
4444.000000	1.011562 
4443.000000	1.011824 
4442.000000	1.011991 
4441.000000	1.011991 
4440.000000	1.011800 
4439.000000	1.011443 
4438.000000	1.010990 
4437.000000	1.010489 
4436.000000	1.010107 
4435.000000	1.009845 
4434.000000	1.009798 
4433.000000	1.009964 
4432.000000	1.010251 
4431.000000	1.010632 
4430.000000	1.011037 
4429.000000	1.011371 
4428.000000	1.011705 
4427.000000	1.011943 
4426.000000	1.012182 
4425.000000	1.012468 
4424.000000	1.012825 
4423.000000	1.013398 
4422.000000	1.014113 
4421.000000	1.014876 
4420.000000	1.015710 
4419.000000	1.016521 
4418.000000	1.017260 
4417.000000	1.017904 
4416.000000	1.018214 
4415.000000	1.018166 
4414.000000	1.017642 
4413.000000	1.016640 
4412.000000	1.015329 
4411.000000	1.013898 
4410.000000	1.012635 
4409.000000	1.011586 
4408.000000	1.010942 
4407.000000	1.010513 
4406.000000	1.010251 
4405.000000	1.010084 
4404.000000	1.010155 
4403.000000	1.010727 
4402.000000	1.012063 
4401.000000	1.014328 
4400.000000	1.017189 
4399.000000	1.019859 
4398.000000	1.021027 
4397.000000	1.018929 
4396.000000	1.012110 
4395.000000	0.999617 
4394.000000	0.981950 
4393.000000	0.961065 
4392.000000	0.940442 
4391.000000	0.924348 
4390.000000	0.916790 
4389.000000	0.920605 
4388.000000	0.936603 
4387.000000	0.962972 
4386.000000	0.996017 
4385.000000	1.030683 
4384.000000	1.061868 
4383.000000	1.085472 
4382.000000	1.099228 
4381.000000	1.103162 
4380.000000	1.098966 
4379.000000	1.089811 
4378.000000	1.078844 
4377.000000	1.068806 
4376.000000	1.061367 
4375.000000	1.056885 
4374.000000	1.054930 
4373.000000	1.054334 
4372.000000	1.054263 
4371.000000	1.054120 
4370.000000	1.053667 
4369.000000	1.053261 
4368.000000	1.053166 
4367.000000	1.053690 
4366.000000	1.054835 
4365.000000	1.056480 
4364.000000	1.058316 
4363.000000	1.059985 
4362.000000	1.061201 
4361.000000	1.061868 
4360.000000	1.062059 
4359.000000	1.061868 
4358.000000	1.061534 
4357.000000	1.061272 
4356.000000	1.061201 
4355.000000	1.061463 
4354.000000	1.062130 
4353.000000	1.063036 
4352.000000	1.064157 
4351.000000	1.065349 
4350.000000	1.066589 
4349.000000	1.067829 
4348.000000	1.068949 
4347.000000	1.069831 
4346.000000	1.070523 
4345.000000	1.071000 
4344.000000	1.071405 
4343.000000	1.071906 
4342.000000	1.072502 
4341.000000	1.073265 
4340.000000	1.074218 
4339.000000	1.075410 
4338.000000	1.076769 
4337.000000	1.078295 
4336.000000	1.079893 
4335.000000	1.081562 
4334.000000	1.083207 
4333.000000	1.084780 
4332.000000	1.086091 
4331.000000	1.087212 
4330.000000	1.088047 
4329.000000	1.088643 
4328.000000	1.089072 
4327.000000	1.089429 
4326.000000	1.089787 
4325.000000	1.090192 
4324.000000	1.090717 
4323.000000	1.091384 
4322.000000	1.092219 
4321.000000	1.093220 
4320.000000	1.094341 
4319.000000	1.095604 
4318.000000	1.096963 
4317.000000	1.098442 
4316.000000	1.099920 
4315.000000	1.101446 
4314.000000	1.102900 
4313.000000	1.104211 
4312.000000	1.105427 
4311.000000	1.106452 
4310.000000	1.107335 
4309.000000	1.108098 
4308.000000	1.108741 
4307.000000	1.109361 
4306.000000	1.110005 
4305.000000	1.110696 
4304.000000	1.111459 
4303.000000	1.112389 
4302.000000	1.113533 
4301.000000	1.114869 
4300.000000	1.116514 
4299.000000	1.118397 
4298.000000	1.120591 
4297.000000	1.122951 
4296.000000	1.125407 
4295.000000	1.127862 
4294.000000	1.130104 
4293.000000	1.132059 
4292.000000	1.133584 
4291.000000	1.134657 
4290.000000	1.135253 
4289.000000	1.135420 
4288.000000	1.135301 
4287.000000	1.135015 
4286.000000	1.134729 
4285.000000	1.134586 
4284.000000	1.134634 
4283.000000	1.134991 
4282.000000	1.135611 
4281.000000	1.136517 
4280.000000	1.137614 
4279.000000	1.138854 
4278.000000	1.140117 
4277.000000	1.141357 
4276.000000	1.142573 
4275.000000	1.143693 
4274.000000	1.144790 
4273.000000	1.145839 
4272.000000	1.146864 
4271.000000	1.147842 
4270.000000	1.148796 
4269.000000	1.149749 
4268.000000	1.150655 
4267.000000	1.151537 
4266.000000	1.152372 
4265.000000	1.153206 
4264.000000	1.154041 
4263.000000	1.154851 
4262.000000	1.155710 
4261.000000	1.156616 
4260.000000	1.157546 
4259.000000	1.158523 
4258.000000	1.159477 
4257.000000	1.160478 
4256.000000	1.161503 
4255.000000	1.162528 
4254.000000	1.163530 
4253.000000	1.164555 
4252.000000	1.165556 
4251.000000	1.166510 
4250.000000	1.167464 
4249.000000	1.168370 
4248.000000	1.169252 
4247.000000	1.170063 
4246.000000	1.170849 
4245.000000	1.171612 
4244.000000	1.172375 
4243.000000	1.173067 
4242.000000	1.173710 
4241.000000	1.174306 
4240.000000	1.174807 
4239.000000	1.175236 
4238.000000	1.175570 
4237.000000	1.175785 
4236.000000	1.175975 
4235.000000	1.176190 
4234.000000	1.176404 
4233.000000	1.176691 
4232.000000	1.177120 
4231.000000	1.177716 
4230.000000	1.178503 
4229.000000	1.179456 
4228.000000	1.180577 
4227.000000	1.181817 
4226.000000	1.183152 
4225.000000	1.184487 
4224.000000	1.185798 
4223.000000	1.187038 
4222.000000	1.188158 
4221.000000	1.189088 
4220.000000	1.189827 
4219.000000	1.190352 
4218.000000	1.190686 
4217.000000	1.190805 
4216.000000	1.190781 
4215.000000	1.190662 
4214.000000	1.190543 
4213.000000	1.190447 
4212.000000	1.190471 
4211.000000	1.190638 
4210.000000	1.190996 
4209.000000	1.191520 
4208.000000	1.192164 
4207.000000	1.192855 
4206.000000	1.193547 
4205.000000	1.194238 
4204.000000	1.194930 
4203.000000	1.195526 
4202.000000	1.196146 
4201.000000	1.196694 
4200.000000	1.197171 
4199.000000	1.197624 
4198.000000	1.198005 
4197.000000	1.198339 
4196.000000	1.198530 
4195.000000	1.198625 
4194.000000	1.198673 
4193.000000	1.198673 
4192.000000	1.198720 
4191.000000	1.198863 
4190.000000	1.199150 
4189.000000	1.199603 
4188.000000	1.200246 
4187.000000	1.200985 
4186.000000	1.201844 
4185.000000	1.202774 
4184.000000	1.203656 
4183.000000	1.204514 
4182.000000	1.205277 
4181.000000	1.205992 
4180.000000	1.206660 
4179.000000	1.207351 
4178.000000	1.208114 
4177.000000	1.208949 
4176.000000	1.209902 
4175.000000	1.210951 
4174.000000	1.212072 
4173.000000	1.213192 
4172.000000	1.214241 
4171.000000	1.215147 
4170.000000	1.215815 
4169.000000	1.216268 
4168.000000	1.216530 
4167.000000	1.216578 
4166.000000	1.216435 
4165.000000	1.216220 
4164.000000	1.216006 
4163.000000	1.215839 
4162.000000	1.215696 
4161.000000	1.215672 
4160.000000	1.215744 
4159.000000	1.215934 
4158.000000	1.216292 
4157.000000	1.216721 
4156.000000	1.217341 
4155.000000	1.218032 
4154.000000	1.218819 
4153.000000	1.219677 
4152.000000	1.220607 
4151.000000	1.221513 
4150.000000	1.222443 
4149.000000	1.223301 
4148.000000	1.224112 
4147.000000	1.224851 
4146.000000	1.225519 
4145.000000	1.226162 
4144.000000	1.226806 
4143.000000	1.227498 
4142.000000	1.228189 
4141.000000	1.228976 
4140.000000	1.229882 
4139.000000	1.230931 
4138.000000	1.232004 
4137.000000	1.233172 
4136.000000	1.234316 
4135.000000	1.235437 
4134.000000	1.236438 
4133.000000	1.237297 
4132.000000	1.237940 
4131.000000	1.238369 
4130.000000	1.238679 
4129.000000	1.238822 
4128.000000	1.238942 
4127.000000	1.239109 
4126.000000	1.239418 
4125.000000	1.239848 
4124.000000	1.240491 
4123.000000	1.241350 
4122.000000	1.242399 
4121.000000	1.243591 
4120.000000	1.244854 
4119.000000	1.246166 
4118.000000	1.247406 
4117.000000	1.248502 
4116.000000	1.249432 
4115.000000	1.250147 
4114.000000	1.250696 
4113.000000	1.251077 
4112.000000	1.251411 
4111.000000	1.251769 
4110.000000	1.252198 
4109.000000	1.252841 
4108.000000	1.253724 
4107.000000	1.254844 
4106.000000	1.256108 
4105.000000	1.257514 
4104.000000	1.258897 
4103.000000	1.260256 
4102.000000	1.261520 
4101.000000	1.262640 
4100.000000	1.263642 
4099.000000	1.264595 
4098.000000	1.265525 
4097.000000	1.266455 
4096.000000	1.267457 
4095.000000	1.268577 
4094.000000	1.269817 
4093.000000	1.271200 
4092.000000	1.272726 
4091.000000	1.274347 
4090.000000	1.276063 
4089.000000	1.277875 
4088.000000	1.279735 
4087.000000	1.281642 
4086.000000	1.283574 
4085.000000	1.285552 
4084.000000	1.287508 
4083.000000	1.289439 
4082.000000	1.291275 
4081.000000	1.293015 
4080.000000	1.294541 
4079.000000	1.295900 
4078.000000	1.296997 
4077.000000	1.297879 
4076.000000	1.298594 
4075.000000	1.299166 
4074.000000	1.299715 
4073.000000	1.300311 
4072.000000	1.301026 
4071.000000	1.301908 
4070.000000	1.302981 
4069.000000	1.304197 
4068.000000	1.305556 
4067.000000	1.307034 
4066.000000	1.308560 
4065.000000	1.310062 
4064.000000	1.311492 
4063.000000	1.312875 
4062.000000	1.314187 
4061.000000	1.315402 
4060.000000	1.316571 
4059.000000	1.317715 
4058.000000	1.318812 
4057.000000	1.319909 
4056.000000	1.321053 
4055.000000	1.322221 
4054.000000	1.323437 
4053.000000	1.324725 
4052.000000	1.325988 
4051.000000	1.327300 
4050.000000	1.328611 
4049.000000	1.329922 
4048.000000	1.331162 
4047.000000	1.332449 
4046.000000	1.333713 
4045.000000	1.335048 
4044.000000	1.336455 
4043.000000	1.337933 
4042.000000	1.339578 
4041.000000	1.341319 
4040.000000	1.343131 
4039.000000	1.345038 
4038.000000	1.346969 
4037.000000	1.348853 
4036.000000	1.350665 
4035.000000	1.352357 
4034.000000	1.353859 
4033.000000	1.355218 
4032.000000	1.356410 
4031.000000	1.357460 
4030.000000	1.358461 
4029.000000	1.359486 
4028.000000	1.360511 
4027.000000	1.361608 
4026.000000	1.362824 
4025.000000	1.364064 
4024.000000	1.365375 
4023.000000	1.366734 
4022.000000	1.368069 
4021.000000	1.369357 
4020.000000	1.370596 
4019.000000	1.371765 
4018.000000	1.372885 
4017.000000	1.373958 
4016.000000	1.375031 
4015.000000	1.376080 
4014.000000	1.377129 
4013.000000	1.378154 
4012.000000	1.379203 
4011.000000	1.380228 
4010.000000	1.381230 
4009.000000	1.382184 
4008.000000	1.383066 
4007.000000	1.383900 
4006.000000	1.384639 
4005.000000	1.385283 
4004.000000	1.385903 
4003.000000	1.386475 
4002.000000	1.387071 
4001.000000	1.387715 
4000.000000	1.388406 
3999.000000	1.389145 
3998.000000	1.389908 
3997.000000	1.390695 
3996.000000	1.391482 
3995.000000	1.392245 
3994.000000	1.393008 
3993.000000	1.393723 
3992.000000	1.394343 
3991.000000	1.394939 
3990.000000	1.395559 
3989.000000	1.396179 
3988.000000	1.396846 
3987.000000	1.397585 
3986.000000	1.398420 
3985.000000	1.399374 
3984.000000	1.400494 
3983.000000	1.401638 
3982.000000	1.402831 
3981.000000	1.404070 
3980.000000	1.405262 
3979.000000	1.406383 
3978.000000	1.407384 
3977.000000	1.408195 
3976.000000	1.408791 
3975.000000	1.409220 
3974.000000	1.409387 
3973.000000	1.409459 
3972.000000	1.409411 
3971.000000	1.409268 
3970.000000	1.409125 
3969.000000	1.409029 
3968.000000	1.409006 
3967.000000	1.409077 
3966.000000	1.409268 
3965.000000	1.409554 
3964.000000	1.409983 
3963.000000	1.410484 
3962.000000	1.411032 
3961.000000	1.411628 
3960.000000	1.412224 
3959.000000	1.412844 
3958.000000	1.413440 
3957.000000	1.414036 
3956.000000	1.414632 
3955.000000	1.415252 
3954.000000	1.415872 
3953.000000	1.416540 
3952.000000	1.417183 
3951.000000	1.417827 
3950.000000	1.418495 
3949.000000	1.419138 
3948.000000	1.419758 
3947.000000	1.420331 
3946.000000	1.420879 
3945.000000	1.421356 
3944.000000	1.421809 
3943.000000	1.422142 
3942.000000	1.422476 
3941.000000	1.422715 
3940.000000	1.422929 
3939.000000	1.423096 
3938.000000	1.423287 
3937.000000	1.423454 
3936.000000	1.423621 
3935.000000	1.423859 
3934.000000	1.424145 
3933.000000	1.424479 
3932.000000	1.424860 
3931.000000	1.425242 
3930.000000	1.425695 
3929.000000	1.426172 
3928.000000	1.426672 
3927.000000	1.427197 
3926.000000	1.427721 
3925.000000	1.428270 
3924.000000	1.428818 
3923.000000	1.429367 
3922.000000	1.429915 
3921.000000	1.430463 
3920.000000	1.431083 
3919.000000	1.431751 
3918.000000	1.432514 
3917.000000	1.433324 
3916.000000	1.434254 
3915.000000	1.435232 
3914.000000	1.436161 
3913.000000	1.437044 
3912.000000	1.437735 
3911.000000	1.438188 
3910.000000	1.438379 
3909.000000	1.438236 
3908.000000	1.437807 
3907.000000	1.437187 
3906.000000	1.436424 
3905.000000	1.435637 
3904.000000	1.434946 
3903.000000	1.434445 
3902.000000	1.434183 
3901.000000	1.434206 
3900.000000	1.434493 
3899.000000	1.434993 
3898.000000	1.435613 
3897.000000	1.436257 
3896.000000	1.436853 
3895.000000	1.437282 
3894.000000	1.437497 
3893.000000	1.437568 
3892.000000	1.437473 
3891.000000	1.437330 
3890.000000	1.437234 
3889.000000	1.437258 
3888.000000	1.437568 
3887.000000	1.438140 
3886.000000	1.439046 
3885.000000	1.440238 
3884.000000	1.441669 
3883.000000	1.443243 
3882.000000	1.444840 
3881.000000	1.446390 
3880.000000	1.447749 
3879.000000	1.448893 
3878.000000	1.449728 
3877.000000	1.450276 
3876.000000	1.450514 
3875.000000	1.450538 
3874.000000	1.450395 
3873.000000	1.450228 
3872.000000	1.450061 
3871.000000	1.450037 
3870.000000	1.450181 
3869.000000	1.450586 
3868.000000	1.451230 
3867.000000	1.452112 
3866.000000	1.453208 
3865.000000	1.454377 
3864.000000	1.455521 
3863.000000	1.456499 
3862.000000	1.457095 
3861.000000	1.457285 
3860.000000	1.456952 
3859.000000	1.456165 
3858.000000	1.455068 
3857.000000	1.453948 
3856.000000	1.453065 
3855.000000	1.452732 
3854.000000	1.453161 
3853.000000	1.454496 
3852.000000	1.456689 
3851.000000	1.459598 
3850.000000	1.462960 
3849.000000	1.466441 
3848.000000	1.469755 
3847.000000	1.472592 
3846.000000	1.474761 
3845.000000	1.476216 
3844.000000	1.476979 
3843.000000	1.477193 
3842.000000	1.477003 
3841.000000	1.476716 
3840.000000	1.476502 
3839.000000	1.476597 
3838.000000	1.477098 
3837.000000	1.478147 
3836.000000	1.479625 
3835.000000	1.481509 
3834.000000	1.483678 
3833.000000	1.485872 
3832.000000	1.487946 
3831.000000	1.489734 
3830.000000	1.491093 
3829.000000	1.491999 
3828.000000	1.492428 
3827.000000	1.492476 
3826.000000	1.492190 
3825.000000	1.491713 
3824.000000	1.491236 
3823.000000	1.490831 
3822.000000	1.490616 
3821.000000	1.490712 
3820.000000	1.491260 
3819.000000	1.492238 
3818.000000	1.493692 
3817.000000	1.495599 
3816.000000	1.497817 
3815.000000	1.500225 
3814.000000	1.502656 
3813.000000	1.504969 
3812.000000	1.506948 
3811.000000	1.508593 
3810.000000	1.509761 
3809.000000	1.510548 
3808.000000	1.511025 
3807.000000	1.511359 
3806.000000	1.511645 
3805.000000	1.512002 
3804.000000	1.512575 
3803.000000	1.513409 
3802.000000	1.514506 
3801.000000	1.515913 
3800.000000	1.517534 
3799.000000	1.519274 
3798.000000	1.521110 
3797.000000	1.523041 
3796.000000	1.524901 
3795.000000	1.526665 
3794.000000	1.528358 
3793.000000	1.529908 
3792.000000	1.531338 
3791.000000	1.532673 
3790.000000	1.533889 
3789.000000	1.534986 
3788.000000	1.535964 
3787.000000	1.536870 
3786.000000	1.537704 
3785.000000	1.538515 
3784.000000	1.539349 
3783.000000	1.540255 
3782.000000	1.541304 
3781.000000	1.542448 
3780.000000	1.543736 
3779.000000	1.545143 
3778.000000	1.546478 
3777.000000	1.547741 
3776.000000	1.548790 
3775.000000	1.549625 
3774.000000	1.550245 
3773.000000	1.550698 
3772.000000	1.551055 
3771.000000	1.551413 
3770.000000	1.551842 
3769.000000	1.552414 
3768.000000	1.553130 
3767.000000	1.553940 
3766.000000	1.554751 
3765.000000	1.555490 
3764.000000	1.556086 
3763.000000	1.556491 
3762.000000	1.556682 
3761.000000	1.556634 
3760.000000	1.556348 
3759.000000	1.555824 
3758.000000	1.555156 
3757.000000	1.554250 
3756.000000	1.553225 
3755.000000	1.552128 
3754.000000	1.550984 
3753.000000	1.549816 
3752.000000	1.548767 
3751.000000	1.547837 
3750.000000	1.547145 
3749.000000	1.546692 
3748.000000	1.546573 
3747.000000	1.546788 
3746.000000	1.547431 
3745.000000	1.548409 
3744.000000	1.549696 
3743.000000	1.551198 
3742.000000	1.552820 
3741.000000	1.554346 
3740.000000	1.555728 
3739.000000	1.556873 
3738.000000	1.557731 
3737.000000	1.558351 
3736.000000	1.558852 
3735.000000	1.559352 
3734.000000	1.560020 
3733.000000	1.560926 
3732.000000	1.562047 
3731.000000	1.563382 
3730.000000	1.564836 
3729.000000	1.566290 
3728.000000	1.567625 
3727.000000	1.568818 
3726.000000	1.569843 
3725.000000	1.570701 
3724.000000	1.571345 
3723.000000	1.571941 
3722.000000	1.572394 
3721.000000	1.572775 
3720.000000	1.573038 
3719.000000	1.573181 
3718.000000	1.573157 
3717.000000	1.572918 
3716.000000	1.572537 
3715.000000	1.572084 
3714.000000	1.571679 
3713.000000	1.571369 
3712.000000	1.571249 
3711.000000	1.571464 
3710.000000	1.571941 
3709.000000	1.572656 
3708.000000	1.573586 
3707.000000	1.574587 
3706.000000	1.575636 
3705.000000	1.576638 
3704.000000	1.577520 
3703.000000	1.578259 
3702.000000	1.578855 
3701.000000	1.579236 
3700.000000	1.579403 
3699.000000	1.579308 
3698.000000	1.578974 
3697.000000	1.578307 
3696.000000	1.577377 
3695.000000	1.576209 
3694.000000	1.574921 
3693.000000	1.573681 
3692.000000	1.572585 
3691.000000	1.571798 
3690.000000	1.571416 
3689.000000	1.571488 
3688.000000	1.572012 
3687.000000	1.572918 
3686.000000	1.574039 
3685.000000	1.575160 
3684.000000	1.576113 
3683.000000	1.576709 
3682.000000	1.576852 
3681.000000	1.576495 
3680.000000	1.575660 
3679.000000	1.574397 
3678.000000	1.572895 
3677.000000	1.571345 
3676.000000	1.569890 
3675.000000	1.568698 
3674.000000	1.567959 
3673.000000	1.567792 
3672.000000	1.568245 
3671.000000	1.569247 
3670.000000	1.570773 
3669.000000	1.572680 
3668.000000	1.574754 
3667.000000	1.576757 
3666.000000	1.578545 
3665.000000	1.579952 
3664.000000	1.580858 
3663.000000	1.581263 
3662.000000	1.581263 
3661.000000	1.580905 
3660.000000	1.580262 
3659.000000	1.579499 
3658.000000	1.578617 
3657.000000	1.577687 
3656.000000	1.576709 
3655.000000	1.575684 
3654.000000	1.574659 
3653.000000	1.573753 
3652.000000	1.573061 
3651.000000	1.572680 
3650.000000	1.572728 
3649.000000	1.573204 
3648.000000	1.574206 
3647.000000	1.575565 
3646.000000	1.577234 
3645.000000	1.578998 
3644.000000	1.580739 
3643.000000	1.582336 
3642.000000	1.583647 
3641.000000	1.584649 
3640.000000	1.585340 
3639.000000	1.585698 
3638.000000	1.585793 
3637.000000	1.585650 
3636.000000	1.585268 
3635.000000	1.584744 
3634.000000	1.584124 
3633.000000	1.583480 
3632.000000	1.582956 
3631.000000	1.582622 
3630.000000	1.582527 
3629.000000	1.582717 
3628.000000	1.583194 
3627.000000	1.583838 
3626.000000	1.584601 
3625.000000	1.585316 
3624.000000	1.585865 
3623.000000	1.586198 
3622.000000	1.586365 
3621.000000	1.586365 
3620.000000	1.586246 
3619.000000	1.586151 
3618.000000	1.586151 
3617.000000	1.586270 
3616.000000	1.586532 
3615.000000	1.586914 
3614.000000	1.587319 
3613.000000	1.587772 
3612.000000	1.588273 
3611.000000	1.588797 
3610.000000	1.589369 
3609.000000	1.590037 
3608.000000	1.590871 
3607.000000	1.591849 
3606.000000	1.592922 
3605.000000	1.594042 
3604.000000	1.595163 
3603.000000	1.596260 
3602.000000	1.597189 
3601.000000	1.598000 
3600.000000	1.598668 
3599.000000	1.599144 
3598.000000	1.599478 
3597.000000	1.599740 
3596.000000	1.599860 
3595.000000	1.599955 
3594.000000	1.599979 
3593.000000	1.599979 
3592.000000	1.600027 
3591.000000	1.600170 
3590.000000	1.600456 
3589.000000	1.600933 
3588.000000	1.601576 
3587.000000	1.602315 
3586.000000	1.603174 
3585.000000	1.604056 
3584.000000	1.604890 
3583.000000	1.605629 
3582.000000	1.606249 
3581.000000	1.606798 
3580.000000	1.607275 
3579.000000	1.607728 
3578.000000	1.608157 
3577.000000	1.608538 
3576.000000	1.608920 
3575.000000	1.609277 
3574.000000	1.609492 
3573.000000	1.609635 
3572.000000	1.609706 
3571.000000	1.609778 
3570.000000	1.609945 
3569.000000	1.610231 
3568.000000	1.610660 
3567.000000	1.611328 
3566.000000	1.612162 
3565.000000	1.613092 
3564.000000	1.614093 
3563.000000	1.615071 
3562.000000	1.615905 
3561.000000	1.616573 
3560.000000	1.617050 
3559.000000	1.617360 
3558.000000	1.617550 
3557.000000	1.617646 
3556.000000	1.617717 
3555.000000	1.617789 
3554.000000	1.617932 
3553.000000	1.618123 
3552.000000	1.618385 
3551.000000	1.618671 
3550.000000	1.619005 
3549.000000	1.619338 
3548.000000	1.619720 
3547.000000	1.620078 
3546.000000	1.620483 
3545.000000	1.620912 
3544.000000	1.621365 
3543.000000	1.621866 
3542.000000	1.622343 
3541.000000	1.622796 
3540.000000	1.623177 
3539.000000	1.623439 
3538.000000	1.623535 
3537.000000	1.623487 
3536.000000	1.623320 
3535.000000	1.623129 
3534.000000	1.622939 
3533.000000	1.622796 
3532.000000	1.622796 
3531.000000	1.622939 
3530.000000	1.623177 
3529.000000	1.623511 
3528.000000	1.623916 
3527.000000	1.624369 
3526.000000	1.624822 
3525.000000	1.625275 
3524.000000	1.625680 
3523.000000	1.626038 
3522.000000	1.626324 
3521.000000	1.626491 
3520.000000	1.626515 
3519.000000	1.626396 
3518.000000	1.626157 
3517.000000	1.625847 
3516.000000	1.625466 
3515.000000	1.625084 
3514.000000	1.624751 
3513.000000	1.624512 
3512.000000	1.624369 
3511.000000	1.624298 
3510.000000	1.624274 
3509.000000	1.624250 
3508.000000	1.624202 
3507.000000	1.624083 
3506.000000	1.623916 
3505.000000	1.623702 
3504.000000	1.623439 
3503.000000	1.623153 
3502.000000	1.622891 
3501.000000	1.622653 
3500.000000	1.622486 
3499.000000	1.622295 
3498.000000	1.622080 
3497.000000	1.621842 
3496.000000	1.621437 
3495.000000	1.620793 
3494.000000	1.619911 
3493.000000	1.618814 
3492.000000	1.617479 
3491.000000	1.615977 
3490.000000	1.614499 
3489.000000	1.613163 
3488.000000	1.612114 
3487.000000	1.611495 
3486.000000	1.611399 
3485.000000	1.611828 
3484.000000	1.612687 
3483.000000	1.613831 
3482.000000	1.615071 
3481.000000	1.616215 
3480.000000	1.617074 
3479.000000	1.617503 
3478.000000	1.617431 
3477.000000	1.616859 
3476.000000	1.615858 
3475.000000	1.614570 
3474.000000	1.613140 
3473.000000	1.611638 
3472.000000	1.610183 
3471.000000	1.608872 
3470.000000	1.607656 
3469.000000	1.606583 
3468.000000	1.605629 
3467.000000	1.604771 
3466.000000	1.604008 
3465.000000	1.603364 
3464.000000	1.602840 
3463.000000	1.602387 
3462.000000	1.602053 
3461.000000	1.601767 
3460.000000	1.601552 
3459.000000	1.601314 
3458.000000	1.601052 
3457.000000	1.600742 
3456.000000	1.600289 
3455.000000	1.599669 
3454.000000	1.598954 
3453.000000	1.598095 
3452.000000	1.597142 
3451.000000	1.596117 
3450.000000	1.595044 
3449.000000	1.593995 
3448.000000	1.592969 
3447.000000	1.592040 
3446.000000	1.591157 
3445.000000	1.590371 
3444.000000	1.589632 
3443.000000	1.589012 
3442.000000	1.588439 
3441.000000	1.588010 
3440.000000	1.587653 
3439.000000	1.587390 
3438.000000	1.587224 
3437.000000	1.587057 
3436.000000	1.586890 
3435.000000	1.586699 
3434.000000	1.586437 
3433.000000	1.586127 
3432.000000	1.585769 
3431.000000	1.585364 
3430.000000	1.585006 
3429.000000	1.584672 
3428.000000	1.584410 
3427.000000	1.584267 
3426.000000	1.584219 
3425.000000	1.584267 
3424.000000	1.584386 
3423.000000	1.584625 
3422.000000	1.584911 
3421.000000	1.585292 
3420.000000	1.585721 
3419.000000	1.586246 
3418.000000	1.586842 
3417.000000	1.587486 
3416.000000	1.588106 
3415.000000	1.588702 
3414.000000	1.589298 
3413.000000	1.589894 
3412.000000	1.590418 
3411.000000	1.590967 
3410.000000	1.591539 
3409.000000	1.592111 
3408.000000	1.592707 
3407.000000	1.593303 
3406.000000	1.593875 
3405.000000	1.594400 
3404.000000	1.594829 
3403.000000	1.595163 
3402.000000	1.595425 
3401.000000	1.595640 
3400.000000	1.595926 
3399.000000	1.596331 
3398.000000	1.596903 
3397.000000	1.597714 
3396.000000	1.598811 
3395.000000	1.600170 
3394.000000	1.601719 
3393.000000	1.603341 
3392.000000	1.604938 
3391.000000	1.606416 
3390.000000	1.607680 
3389.000000	1.608610 
3388.000000	1.609230 
3387.000000	1.609563 
3386.000000	1.609635 
3385.000000	1.609611 
3384.000000	1.609539 
3383.000000	1.609587 
3382.000000	1.609683 
3381.000000	1.609969 
3380.000000	1.610445 
3379.000000	1.611065 
3378.000000	1.611757 
3377.000000	1.612520 
3376.000000	1.613354 
3375.000000	1.614165 
3374.000000	1.614999 
3373.000000	1.615858 
3372.000000	1.616764 
3371.000000	1.617717 
3370.000000	1.618790 
3369.000000	1.619935 
3368.000000	1.621222 
3367.000000	1.622605 
3366.000000	1.624059 
3365.000000	1.625585 
3364.000000	1.627111 
3363.000000	1.628684 
3362.000000	1.630210 
3361.000000	1.631689 
3360.000000	1.633119 
3359.000000	1.634478 
3358.000000	1.635766 
3357.000000	1.636981 
3356.000000	1.638174 
3355.000000	1.639342 
3354.000000	1.640534 
3353.000000	1.641774 
3352.000000	1.643109 
3351.000000	1.644539 
3350.000000	1.646137 
3349.000000	1.647853 
3348.000000	1.649737 
3347.000000	1.651763 
3346.000000	1.653790 
3345.000000	1.655840 
3344.000000	1.657772 
3343.000000	1.659607 
3342.000000	1.661276 
3341.000000	1.662755 
3340.000000	1.664042 
3339.000000	1.665186 
3338.000000	1.666235 
3337.000000	1.667237 
3336.000000	1.668286 
3335.000000	1.669335 
3334.000000	1.670503 
3333.000000	1.671767 
3332.000000	1.673126 
3331.000000	1.674604 
3330.000000	1.676130 
3329.000000	1.677632 
3328.000000	1.679134 
3327.000000	1.680564 
3326.000000	1.681923 
3325.000000	1.683235 
3324.000000	1.684474 
3323.000000	1.685643 
3322.000000	1.686763 
3321.000000	1.687884 
3320.000000	1.688981 
3319.000000	1.690125 
3318.000000	1.691317 
3317.000000	1.692557 
3316.000000	1.693892 
3315.000000	1.695275 
3314.000000	1.696705 
3313.000000	1.698207 
3312.000000	1.699757 
3311.000000	1.701354 
3310.000000	1.703000 
3309.000000	1.704692 
3308.000000	1.706433 
3307.000000	1.708149 
3306.000000	1.709890 
3305.000000	1.711559 
3304.000000	1.713228 
3303.000000	1.714777 
3302.000000	1.716208 
3301.000000	1.717567 
3300.000000	1.718831 
3299.000000	1.720023 
3298.000000	1.721167 
3297.000000	1.722311 
3296.000000	1.723480 
3295.000000	1.724696 
3294.000000	1.725912 
3293.000000	1.727175 
3292.000000	1.728415 
3291.000000	1.729655 
3290.000000	1.730871 
3289.000000	1.732087 
3288.000000	1.733231 
3287.000000	1.734352 
3286.000000	1.735472 
3285.000000	1.736593 
3284.000000	1.737689 
3283.000000	1.738810 
3282.000000	1.739954 
3281.000000	1.741099 
3280.000000	1.742219 
3279.000000	1.743364 
3278.000000	1.744461 
3277.000000	1.745605 
3276.000000	1.746773 
3275.000000	1.747941 
3274.000000	1.749181 
3273.000000	1.750421 
3272.000000	1.751661 
3271.000000	1.752877 
3270.000000	1.754021 
3269.000000	1.755094 
3268.000000	1.756048 
3267.000000	1.756858 
3266.000000	1.757526 
3265.000000	1.758122 
3264.000000	1.758670 
3263.000000	1.759290 
3262.000000	1.759958 
3261.000000	1.760721 
3260.000000	1.761603 
3259.000000	1.762580 
3258.000000	1.763653 
3257.000000	1.764750 
3256.000000	1.765823 
3255.000000	1.766848 
3254.000000	1.767778 
3253.000000	1.768612 
3252.000000	1.769304 
3251.000000	1.769876 
3250.000000	1.770401 
3249.000000	1.770853 
3248.000000	1.771306 
3247.000000	1.771783 
3246.000000	1.772308 
3245.000000	1.772904 
3244.000000	1.773548 
3243.000000	1.774263 
3242.000000	1.775002 
3241.000000	1.775789 
3240.000000	1.776552 
3239.000000	1.777267 
3238.000000	1.777935 
3237.000000	1.778554 
3236.000000	1.779055 
3235.000000	1.779508 
3234.000000	1.779866 
3233.000000	1.780128 
3232.000000	1.780414 
3231.000000	1.780605 
3230.000000	1.780772 
3229.000000	1.780891 
3228.000000	1.781034 
3227.000000	1.781177 
3226.000000	1.781296 
3225.000000	1.781487 
3224.000000	1.781749 
3223.000000	1.782035 
3222.000000	1.782345 
3221.000000	1.782703 
3220.000000	1.783037 
3219.000000	1.783394 
3218.000000	1.783728 
3217.000000	1.784086 
3216.000000	1.784396 
3215.000000	1.784753 
3214.000000	1.785111 
3213.000000	1.785516 
3212.000000	1.785945 
3211.000000	1.786398 
3210.000000	1.786851 
3209.000000	1.787328 
3208.000000	1.787757 
3207.000000	1.788187 
3206.000000	1.788592 
3205.000000	1.788973 
3204.000000	1.789307 
3203.000000	1.789593 
3202.000000	1.789808 
3201.000000	1.789975 
3200.000000	1.790046 
3199.000000	1.790046 
3198.000000	1.790022 
3197.000000	1.789975 
3196.000000	1.789927 
3195.000000	1.789903 
3194.000000	1.789951 
3193.000000	1.790070 
3192.000000	1.790261 
3191.000000	1.790499 
3190.000000	1.790785 
3189.000000	1.791095 
3188.000000	1.791405 
3187.000000	1.791667 
3186.000000	1.791906 
3185.000000	1.792097 
3184.000000	1.792144 
3183.000000	1.792120 
3182.000000	1.792001 
3181.000000	1.791810 
3180.000000	1.791644 
3179.000000	1.791501 
3178.000000	1.791453 
3177.000000	1.791524 
3176.000000	1.791810 
3175.000000	1.792287 
3174.000000	1.793003 
3173.000000	1.793885 
3172.000000	1.794862 
3171.000000	1.795935 
3170.000000	1.796984 
3169.000000	1.797986 
3168.000000	1.798939 
3167.000000	1.799750 
3166.000000	1.800417 
3165.000000	1.801013 
3164.000000	1.801538 
3163.000000	1.802062 
3162.000000	1.802563 
3161.000000	1.803112 
3160.000000	1.803684 
3159.000000	1.804280 
3158.000000	1.804947 
3157.000000	1.805591 
3156.000000	1.806259 
3155.000000	1.806879 
3154.000000	1.807427 
3153.000000	1.807975 
3152.000000	1.808476 
3151.000000	1.808977 
3150.000000	1.809525 
3149.000000	1.810097 
3148.000000	1.810741 
3147.000000	1.811480 
3146.000000	1.812338 
3145.000000	1.813268 
3144.000000	1.814246 
3143.000000	1.815319 
3142.000000	1.816463 
3141.000000	1.817655 
3140.000000	1.818919 
3139.000000	1.820206 
3138.000000	1.821541 
3137.000000	1.822900 
3136.000000	1.824235 
3135.000000	1.825571 
3134.000000	1.826906 
3133.000000	1.828193 
3132.000000	1.829504 
3131.000000	1.830744 
3130.000000	1.831960 
3129.000000	1.833105 
3128.000000	1.834177 
3127.000000	1.835179 
3126.000000	1.836085 
3125.000000	1.836895 
3124.000000	1.837682 
3123.000000	1.838493 
3122.000000	1.839375 
3121.000000	1.840376 
3120.000000	1.841545 
3119.000000	1.842880 
3118.000000	1.844310 
3117.000000	1.845812 
3116.000000	1.847290 
3115.000000	1.848697 
3114.000000	1.850056 
3113.000000	1.851248 
3112.000000	1.852393 
3111.000000	1.853466 
3110.000000	1.854586 
3109.000000	1.855826 
3108.000000	1.857209 
3107.000000	1.858782 
3106.000000	1.860475 
3105.000000	1.862335 
3104.000000	1.864266 
3103.000000	1.866197 
3102.000000	1.868057 
3101.000000	1.869869 
3100.000000	1.871633 
3099.000000	1.873302 
3098.000000	1.874971 
3097.000000	1.876711 
3096.000000	1.878499 
3095.000000	1.880383 
3094.000000	1.882386 
3093.000000	1.884555 
3092.000000	1.886820 
3091.000000	1.889181 
3090.000000	1.891541 
3089.000000	1.893901 
3088.000000	1.896214 
3087.000000	1.898431 
3086.000000	1.900577 
3085.000000	1.902627 
3084.000000	1.904606 
3083.000000	1.906538 
3082.000000	1.908397 
3081.000000	1.910233 
3080.000000	1.911973 
3079.000000	1.913690 
3078.000000	1.915311 
3077.000000	1.916909 
3076.000000	1.918363 
3075.000000	1.919770 
3074.000000	1.921129 
3073.000000	1.922416 
3072.000000	1.923608 
3071.000000	1.924753 
3070.000000	1.925826 
3069.000000	1.926803 
3068.000000	1.927685 
3067.000000	1.928544 
3066.000000	1.929378 
3065.000000	1.930284 
3064.000000	1.931333 
3063.000000	1.932573 
3062.000000	1.934051 
3061.000000	1.935815 
3060.000000	1.937818 
3059.000000	1.940035 
3058.000000	1.942324 
3057.000000	1.944613 
3056.000000	1.946783 
3055.000000	1.948809 
3054.000000	1.950621 
3053.000000	1.952171 
3052.000000	1.953530 
3051.000000	1.954698 
3050.000000	1.955819 
3049.000000	1.956892 
3048.000000	1.957988 
3047.000000	1.959180 
3046.000000	1.960420 
3045.000000	1.961755 
3044.000000	1.963090 
3043.000000	1.964449 
3042.000000	1.965808 
3041.000000	1.967144 
3040.000000	1.968479 
3039.000000	1.969742 
3038.000000	1.970958 
3037.000000	1.972103 
3036.000000	1.973104 
3035.000000	1.973915 
3034.000000	1.974463 
3033.000000	1.974678 
3032.000000	1.974558 
3031.000000	1.974081 
3030.000000	1.973152 
3029.000000	1.971840 
3028.000000	1.970195 
3027.000000	1.968216 
3026.000000	1.965975 
3025.000000	1.963591 
3024.000000	1.961112 
3023.000000	1.958751 
3022.000000	1.956653 
3021.000000	1.955008 
3020.000000	1.953983 
3019.000000	1.953840 
3018.000000	1.954603 
3017.000000	1.956415 
3016.000000	1.959180 
3015.000000	1.962900 
3014.000000	1.967334 
3013.000000	1.972317 
3012.000000	1.977562 
3011.000000	1.982831 
3010.000000	1.987934 
3009.000000	1.992678 
3008.000000	1.996970 
3007.000000	2.000808 
3006.000000	2.004170 
3005.000000	2.007126 
3004.000000	2.009725 
3003.000000	2.012109 
3002.000000	2.014231 
3001.000000	2.016258 
3000.000000	2.018165 
2999.000000	2.019906 
2998.000000	2.021527 
2997.000000	2.022957 
2996.000000	2.024197 
2995.000000	2.025294 
2994.000000	2.026152 
2993.000000	2.026844 
2992.000000	2.027320 
2991.000000	2.027654 
2990.000000	2.027750 
2989.000000	2.027606 
2988.000000	2.027249 
2987.000000	2.026677 
2986.000000	2.025818 
2985.000000	2.024745 
2984.000000	2.023434 
2983.000000	2.021861 
2982.000000	2.020072 
2981.000000	2.018022 
2980.000000	2.015781 
2979.000000	2.013230 
2978.000000	2.010345 
2977.000000	2.007079 
2976.000000	2.003407 
2975.000000	1.999235 
2974.000000	1.994585 
2973.000000	1.989507 
2972.000000	1.984000 
2971.000000	1.978158 
2970.000000	1.972103 
2969.000000	1.965951 
2968.000000	1.959919 
2967.000000	1.954054 
2966.000000	1.948547 
2965.000000	1.943540 
2964.000000	1.939082 
2963.000000	1.935267 
2962.000000	1.932072 
2961.000000	1.929545 
2960.000000	1.927614 
2959.000000	1.926183 
2958.000000	1.925206 
2957.000000	1.924514 
2956.000000	1.924014 
2955.000000	1.923537 
2954.000000	1.922917 
2953.000000	1.922035 
2952.000000	1.920771 
2951.000000	1.919007 
2950.000000	1.916599 
2949.000000	1.913452 
2948.000000	1.909518 
2947.000000	1.904726 
2946.000000	1.898980 
2945.000000	1.892352 
2944.000000	1.884841 
2943.000000	1.876592 
2942.000000	1.867651 
2941.000000	1.858329 
2940.000000	1.848840 
2939.000000	1.839399 
2938.000000	1.830196 
2937.000000	1.821398 
2936.000000	1.813125 
2935.000000	1.805400 
2934.000000	1.798152 
2933.000000	1.791429 
2932.000000	1.785206 
2931.000000	1.779532 
2930.000000	1.774525 
2929.000000	1.770424 
2928.000000	1.767444 
2927.000000	1.765894 
2926.000000	1.765966 
2925.000000	1.767873 
2924.000000	1.771759 
2923.000000	1.777577 
2922.000000	1.785159 
2921.000000	1.794409 
2920.000000	1.804971 
2919.000000	1.816511 
2918.000000	1.828718 
2917.000000	1.841187 
2916.000000	1.853561 
2915.000000	1.865577 
2914.000000	1.876997 
2913.000000	1.887702 
2912.000000	1.897549 
2911.000000	1.906466 
2910.000000	1.914525 
2909.000000	1.921701 
2908.000000	1.928138 
2907.000000	1.933860 
2906.000000	1.939010 
2905.000000	1.943683 
2904.000000	1.948070 
2903.000000	1.952171 
2902.000000	1.956081 
2901.000000	1.959896 
2900.000000	1.963591 
2899.000000	1.967167 
2898.000000	1.970624 
2897.000000	1.973891 
2896.000000	1.977038 
2895.000000	1.979994 
2894.000000	1.982808 
2893.000000	1.985526 
2892.000000	1.988220 
2891.000000	1.990866 
2890.000000	1.993513 
2889.000000	1.996135 
2888.000000	1.998734 
2887.000000	2.001214 
2886.000000	2.003479 
2885.000000	2.005457 
2884.000000	2.007079 
2883.000000	2.008318 
2882.000000	2.009057 
2881.000000	2.009367 
2880.000000	2.009129 
2879.000000	2.008366 
2878.000000	2.007079 
2877.000000	2.005147 
2876.000000	2.002549 
2875.000000	1.999187 
2874.000000	1.995062 
2873.000000	1.990056 
2872.000000	1.984119 
2871.000000	1.977276 
2870.000000	1.969528 
2869.000000	1.961112 
2868.000000	1.952171 
2867.000000	1.943039 
2866.000000	1.934075 
2865.000000	1.925778 
2864.000000	1.918482 
2863.000000	1.912713 
2862.000000	1.908683 
2861.000000	1.906681 
2860.000000	1.906752 
2859.000000	1.908898 
2858.000000	1.912975 
2857.000000	1.918792 
2856.000000	1.926016 
2855.000000	1.934409 
2854.000000	1.943659 
2853.000000	1.953530 
2852.000000	1.963782 
2851.000000	1.974177 
2850.000000	1.984548 
2849.000000	1.994800 
2848.000000	2.004814 
2847.000000	2.014493 
2846.000000	2.023768 
2845.000000	2.032542 
2844.000000	2.040815 
2843.000000	2.048563 
2842.000000	2.055716 
2841.000000	2.062344 
2840.000000	2.068424 
2839.000000	2.074027 
2838.000000	2.079105 
2837.000000	2.083730 
2836.000000	2.088022 
2835.000000	2.091979 
2834.000000	2.095651 
2833.000000	2.099108 
2832.000000	2.102375 
2831.000000	2.105474 
2830.000000	2.108454 
2829.000000	2.111315 
2828.000000	2.114081 
2827.000000	2.116823 
2826.000000	2.119565 
2825.000000	2.122282 
2824.000000	2.125048 
2823.000000	2.127838 
2822.000000	2.130699 
2821.000000	2.133560 
2820.000000	2.136421 
2819.000000	2.139258 
2818.000000	2.142024 
2817.000000	2.144622 
2816.000000	2.147054 
2815.000000	2.149248 
2814.000000	2.151298 
2813.000000	2.153086 
2812.000000	2.154731 
2811.000000	2.156305 
2810.000000	2.157807 
2809.000000	2.159357 
2808.000000	2.161002 
2807.000000	2.162790 
2806.000000	2.164697 
2805.000000	2.166724 
2804.000000	2.168869 
2803.000000	2.171087 
2802.000000	2.173280 
2801.000000	2.175426 
2800.000000	2.177500 
2799.000000	2.179455 
2798.000000	2.181267 
2797.000000	2.182936 
2796.000000	2.184534 
2795.000000	2.186036 
2794.000000	2.187490 
2793.000000	2.188944 
2792.000000	2.190423 
2791.000000	2.192020 
2790.000000	2.193713 
2789.000000	2.195549 
2788.000000	2.197551 
2787.000000	2.199625 
2786.000000	2.201771 
2785.000000	2.203941 
2784.000000	2.206110 
2783.000000	2.208209 
2782.000000	2.210211 
2781.000000	2.212119 
2780.000000	2.213931 
2779.000000	2.215671 
2778.000000	2.217364 
2777.000000	2.219009 
2776.000000	2.220654 
2775.000000	2.222299 
2774.000000	2.223944 
2773.000000	2.225613 
2772.000000	2.227258 
2771.000000	2.228927 
2770.000000	2.230501 
2769.000000	2.232003 
2768.000000	2.233433 
2767.000000	2.234745 
2766.000000	2.235889 
2765.000000	2.236843 
2764.000000	2.237701 
2763.000000	2.238440 
2762.000000	2.239060 
2761.000000	2.239656 
2760.000000	2.240276 
2759.000000	2.240967 
2758.000000	2.241730 
2757.000000	2.242636 
2756.000000	2.243614 
2755.000000	2.244687 
2754.000000	2.245807 
2753.000000	2.246928 
2752.000000	2.247929 
2751.000000	2.248787 
2750.000000	2.249526 
2749.000000	2.250099 
2748.000000	2.250528 
2747.000000	2.250862 
2746.000000	2.251172 
2745.000000	2.251505 
2744.000000	2.251911 
2743.000000	2.252388 
2742.000000	2.252912 
2741.000000	2.253460 
2740.000000	2.253985 
2739.000000	2.254462 
2738.000000	2.254891 
2737.000000	2.255249 
2736.000000	2.255582 
2735.000000	2.255749 
2734.000000	2.255892 
2733.000000	2.256011 
2732.000000	2.256083 
2731.000000	2.256083 
2730.000000	2.256035 
2729.000000	2.255892 
2728.000000	2.255749 
2727.000000	2.255511 
2726.000000	2.255272 
2725.000000	2.255058 
2724.000000	2.254891 
2723.000000	2.254796 
2722.000000	2.254748 
2721.000000	2.254676 
2720.000000	2.254581 
2719.000000	2.254414 
2718.000000	2.254152 
2717.000000	2.253794 
2716.000000	2.253341 
2715.000000	2.252840 
2714.000000	2.252316 
2713.000000	2.251791 
2712.000000	2.251291 
2711.000000	2.250814 
2710.000000	2.250313 
2709.000000	2.249789 
2708.000000	2.249193 
2707.000000	2.248525 
2706.000000	2.247762 
2705.000000	2.246975 
2704.000000	2.246117 
2703.000000	2.245354 
2702.000000	2.244687 
2701.000000	2.244162 
2700.000000	2.243852 
2699.000000	2.243685 
2698.000000	2.243685 
2697.000000	2.243804 
2696.000000	2.243971 
2695.000000	2.244114 
2694.000000	2.244186 
2693.000000	2.244114 
2692.000000	2.243947 
2691.000000	2.243638 
2690.000000	2.243232 
2689.000000	2.242732 
2688.000000	2.242279 
2687.000000	2.241873 
2686.000000	2.241563 
2685.000000	2.241349 
2684.000000	2.241230 
2683.000000	2.241182 
2682.000000	2.241110 
2681.000000	2.240967 
2680.000000	2.240777 
2679.000000	2.240395 
2678.000000	2.239894 
2677.000000	2.239251 
2676.000000	2.238512 
2675.000000	2.237725 
2674.000000	2.236890 
2673.000000	2.236008 
2672.000000	2.235174 
2671.000000	2.234339 
2670.000000	2.233481 
2669.000000	2.232646 
2668.000000	2.231812 
2667.000000	2.230978 
2666.000000	2.230143 
2665.000000	2.229332 
2664.000000	2.228569 
2663.000000	2.227878 
2662.000000	2.227282 
2661.000000	2.226758 
2660.000000	2.226352 
2659.000000	2.226018 
2658.000000	2.225804 
2657.000000	2.225613 
2656.000000	2.225446 
2655.000000	2.225303 
2654.000000	2.225184 
2653.000000	2.224993 
2652.000000	2.224826 
2651.000000	2.224636 
2650.000000	2.224421 
2649.000000	2.224206 
2648.000000	2.224016 
2647.000000	2.223849 
2646.000000	2.223706 
2645.000000	2.223563 
2644.000000	2.223396 
2643.000000	2.223229 
2642.000000	2.223038 
2641.000000	2.222824 
2640.000000	2.222537 
2639.000000	2.222156 
2638.000000	2.221775 
2637.000000	2.221369 
2636.000000	2.220940 
2635.000000	2.220487 
2634.000000	2.220129 
2633.000000	2.219820 
2632.000000	2.219581 
2631.000000	2.219486 
2630.000000	2.219462 
2629.000000	2.219581 
2628.000000	2.219796 
2627.000000	2.220106 
2626.000000	2.220439 
2625.000000	2.220797 
2624.000000	2.221226 
2623.000000	2.221632 
2622.000000	2.222084 
2621.000000	2.222585 
2620.000000	2.223157 
2619.000000	2.223730 
2618.000000	2.224326 
2617.000000	2.224874 
2616.000000	2.225375 
2615.000000	2.225804 
2614.000000	2.226114 
2613.000000	2.226305 
2612.000000	2.226400 
2611.000000	2.226424 
2610.000000	2.226400 
2609.000000	2.226376 
2608.000000	2.226352 
2607.000000	2.226352 
2606.000000	2.226376 
2605.000000	2.226400 
2604.000000	2.226448 
2603.000000	2.226495 
2602.000000	2.226519 
2601.000000	2.226543 
2600.000000	2.226591 
2599.000000	2.226638 
2598.000000	2.226686 
2597.000000	2.226853 
2596.000000	2.227091 
2595.000000	2.227497 
2594.000000	2.227997 
2593.000000	2.228760 
2592.000000	2.229738 
2591.000000	2.230954 
2590.000000	2.232384 
2589.000000	2.233958 
2588.000000	2.235579 
2587.000000	2.237224 
2586.000000	2.238750 
2585.000000	2.240228 
2584.000000	2.241563 
2583.000000	2.242827 
2582.000000	2.244043 
2581.000000	2.245283 
2580.000000	2.246570 
2579.000000	2.247929 
2578.000000	2.249407 
2577.000000	2.250909 
2576.000000	2.252411 
2575.000000	2.253937 
2574.000000	2.255439 
2573.000000	2.256917 
2572.000000	2.258324 
2571.000000	2.259707 
2570.000000	2.261066 
2569.000000	2.262377 
2568.000000	2.263665 
2567.000000	2.264881 
2566.000000	2.266001 
2565.000000	2.267122 
2564.000000	2.268123 
2563.000000	2.269077 
2562.000000	2.270007 
2561.000000	2.270889 
2560.000000	2.271747 
2559.000000	2.272629 
2558.000000	2.273535 
2557.000000	2.274465 
2556.000000	2.275419 
2555.000000	2.276444 
2554.000000	2.277541 
2553.000000	2.278685 
2552.000000	2.279949 
2551.000000	2.281308 
2550.000000	2.282762 
2549.000000	2.284288 
2548.000000	2.285838 
2547.000000	2.287364 
2546.000000	2.288866 
2545.000000	2.290296 
2544.000000	2.291631 
2543.000000	2.292895 
2542.000000	2.294039 
2541.000000	2.295136 
2540.000000	2.296233 
2539.000000	2.297234 
2538.000000	2.298307 
2537.000000	2.299356 
2536.000000	2.300453 
2535.000000	2.301549 
2534.000000	2.302670 
2533.000000	2.303791 
2532.000000	2.304911 
2531.000000	2.306008 
2530.000000	2.307105 
2529.000000	2.308130 
2528.000000	2.309107 
2527.000000	2.310037 
2526.000000	2.310895 
2525.000000	2.311706 
2524.000000	2.312469 
2523.000000	2.313280 
2522.000000	2.314066 
2521.000000	2.314925 
2520.000000	2.315807 
2519.000000	2.316689 
2518.000000	2.317571 
2517.000000	2.318453 
2516.000000	2.319240 
2515.000000	2.319931 
2514.000000	2.320504 
2513.000000	2.320957 
2512.000000	2.321267 
2511.000000	2.321481 
2510.000000	2.321600 
2509.000000	2.321648 
2508.000000	2.321696 
2507.000000	2.321672 
2506.000000	2.321672 
2505.000000	2.321624 
2504.000000	2.321577 
2503.000000	2.321577 
2502.000000	2.321577 
2501.000000	2.321553 
2500.000000	2.321600 
2499.000000	2.321720 
2498.000000	2.321910 
2497.000000	2.322149 
2496.000000	2.322411 
2495.000000	2.322673 
2494.000000	2.322959 
2493.000000	2.323269 
2492.000000	2.323555 
2491.000000	2.323842 
2490.000000	2.324151 
2489.000000	2.324438 
2488.000000	2.324748 
2487.000000	2.325010 
2486.000000	2.325272 
2485.000000	2.325415 
2484.000000	2.325439 
2483.000000	2.325320 
2482.000000	2.325081 
2481.000000	2.324652 
2480.000000	2.324080 
2479.000000	2.323365 
2478.000000	2.322578 
2477.000000	2.321696 
2476.000000	2.320790 
2475.000000	2.319884 
2474.000000	2.319049 
2473.000000	2.318215 
2472.000000	2.317404 
2471.000000	2.316689 
2470.000000	2.315974 
2469.000000	2.315282 
2468.000000	2.314591 
2467.000000	2.313947 
2466.000000	2.313327 
2465.000000	2.312707 
2464.000000	2.312088 
2463.000000	2.311444 
2462.000000	2.310729 
2461.000000	2.309989 
2460.000000	2.309203 
2459.000000	2.308344 
2458.000000	2.307486 
2457.000000	2.306604 
2456.000000	2.305746 
2455.000000	2.304935 
2454.000000	2.304148 
2453.000000	2.303409 
2452.000000	2.302670 
2451.000000	2.301836 
2450.000000	2.300953 
2449.000000	2.299976 
2448.000000	2.298951 
2447.000000	2.297830 
2446.000000	2.296686 
2445.000000	2.295517 
2444.000000	2.294373 
2443.000000	2.293229 
2442.000000	2.292108 
2441.000000	2.290964 
2440.000000	2.289843 
2439.000000	2.288722 
2438.000000	2.287626 
2437.000000	2.286577 
2436.000000	2.285575 
2435.000000	2.284669 
2434.000000	2.283835 
2433.000000	2.283024 
2432.000000	2.282261 
2431.000000	2.281522 
2430.000000	2.280712 
2429.000000	2.279829 
2428.000000	2.278852 
2427.000000	2.277851 
2426.000000	2.276778 
2425.000000	2.275657 
2424.000000	2.274537 
2423.000000	2.273464 
2422.000000	2.272391 
2421.000000	2.271389 
2420.000000	2.270412 
2419.000000	2.269458 
2418.000000	2.268576 
2417.000000	2.267670 
2416.000000	2.266764 
2415.000000	2.265906 
2414.000000	2.265048 
2413.000000	2.264237 
2412.000000	2.263498 
2411.000000	2.262806 
2410.000000	2.262210 
2409.000000	2.261662 
2408.000000	2.261185 
2407.000000	2.260732 
2406.000000	2.260327 
2405.000000	2.259945 
2404.000000	2.259588 
2403.000000	2.259254 
2402.000000	2.258968 
2401.000000	2.258706 
2400.000000	2.258443 
2399.000000	2.258205 
2398.000000	2.257943 
2397.000000	2.257680 
2396.000000	2.257394 
2395.000000	2.257108 
2394.000000	2.256774 
2393.000000	2.256369 
2392.000000	2.255988 
2391.000000	2.255558 
2390.000000	2.255129 
2389.000000	2.254700 
2388.000000	2.254271 
2387.000000	2.253842 
2386.000000	2.253437 
2385.000000	2.253055 
2384.000000	2.252626 
2383.000000	2.252197 
2382.000000	2.251625 
2381.000000	2.250957 
2380.000000	2.250170 
2379.000000	2.249240 
2378.000000	2.248144 
2377.000000	2.246952 
2376.000000	2.245640 
2375.000000	2.244257 
2374.000000	2.242875 
2373.000000	2.241539 
2372.000000	2.240228 
2371.000000	2.239060 
2370.000000	2.238059 
2369.000000	2.237248 
2368.000000	2.236652 
2367.000000	2.236270 
2366.000000	2.236127 
2365.000000	2.236247 
2364.000000	2.236580 
2363.000000	2.237153 
2362.000000	2.237939 
2361.000000	2.238965 
2360.000000	2.240252 
2359.000000	2.241802 
2358.000000	2.243638 
2357.000000	2.245712 
2356.000000	2.248001 
2355.000000	2.250504 
2354.000000	2.253055 
2353.000000	2.255511 
2352.000000	2.257823 
2351.000000	2.259874 
2350.000000	2.261567 
2349.000000	2.262878 
2348.000000	2.263784 
2347.000000	2.264428 
2346.000000	2.264833 
2345.000000	2.265119 
2344.000000	2.265357 
2343.000000	2.265596 
2342.000000	2.265906 
2341.000000	2.266311 
2340.000000	2.266788 
2339.000000	2.267408 
2338.000000	2.268099 
2337.000000	2.268958 
2336.000000	2.270007 
2335.000000	2.271294 
2334.000000	2.272796 
2333.000000	2.274560 
2332.000000	2.276515 
2331.000000	2.278614 
2330.000000	2.280879 
2329.000000	2.283191 
2328.000000	2.285456 
2327.000000	2.287673 
2326.000000	2.289795 
2325.000000	2.291822 
2324.000000	2.293682 
2323.000000	2.295446 
2322.000000	2.297139 
2321.000000	2.298736 
2320.000000	2.300333 
2319.000000	2.301955 
2318.000000	2.303576 
2317.000000	2.305245 
2316.000000	2.306938 
2315.000000	2.308678 
2314.000000	2.310466 
2313.000000	2.312302 
2312.000000	2.314114 
2311.000000	2.315950 
2310.000000	2.317810 
2309.000000	2.319598 
2308.000000	2.321386 
2307.000000	2.323102 
2306.000000	2.324700 
2305.000000	2.326250 
2304.000000	2.327752 
2303.000000	2.329158 
2302.000000	2.330541 
2301.000000	2.331900 
2300.000000	2.333259 
2299.000000	2.334666 
2298.000000	2.336120 
2297.000000	2.337574 
2296.000000	2.339029 
2295.000000	2.340483 
2294.000000	2.341890 
2293.000000	2.343201 
2292.000000	2.344441 
2291.000000	2.345561 
2290.000000	2.346658 
2289.000000	2.347707 
2288.000000	2.348780 
2287.000000	2.349877 
2286.000000	2.351021 
2285.000000	2.352237 
2284.000000	2.353525 
2283.000000	2.354836 
2282.000000	2.356171 
2281.000000	2.357459 
2280.000000	2.358722 
2279.000000	2.359962 
2278.000000	2.361130 
2277.000000	2.362132 
2276.000000	2.363109 
2275.000000	2.363944 
2274.000000	2.364659 
2273.000000	2.365279 
2272.000000	2.365827 
2271.000000	2.366304 
2270.000000	2.366685 
2269.000000	2.367091 
2268.000000	2.367520 
2267.000000	2.367949 
2266.000000	2.368402 
2265.000000	2.368903 
2264.000000	2.369427 
2263.000000	2.369999 
2262.000000	2.370572 
2261.000000	2.371144 
2260.000000	2.371740 
2259.000000	2.372288 
2258.000000	2.372789 
2257.000000	2.373194 
2256.000000	2.373480 
2255.000000	2.373695 
2254.000000	2.373814 
2253.000000	2.373838 
2252.000000	2.373814 
2251.000000	2.373766 
2250.000000	2.373743 
2249.000000	2.373790 
2248.000000	2.373886 
2247.000000	2.374053 
2246.000000	2.374267 
2245.000000	2.374505 
2244.000000	2.374744 
2243.000000	2.374982 
2242.000000	2.375173 
2241.000000	2.375364 
2240.000000	2.375531 
2239.000000	2.375674 
2238.000000	2.375793 
2237.000000	2.375888 
2236.000000	2.375960 
2235.000000	2.375984 
2234.000000	2.375960 
2233.000000	2.375864 
2232.000000	2.375721 
2231.000000	2.375507 
2230.000000	2.375221 
2229.000000	2.374863 
2228.000000	2.374482 
2227.000000	2.374100 
2226.000000	2.373671 
2225.000000	2.373218 
2224.000000	2.372741 
2223.000000	2.372217 
2222.000000	2.371621 
2221.000000	2.370905 
2220.000000	2.370166 
2219.000000	2.369332 
2218.000000	2.368426 
2217.000000	2.367520 
2216.000000	2.366662 
2215.000000	2.365875 
2214.000000	2.365183 
2213.000000	2.364611 
2212.000000	2.364110 
2211.000000	2.363681 
2210.000000	2.363252 
2209.000000	2.362799 
2208.000000	2.362227 
2207.000000	2.361559 
2206.000000	2.360796 
2205.000000	2.359914 
2204.000000	2.358961 
2203.000000	2.357935 
2202.000000	2.356863 
2201.000000	2.355813 
2200.000000	2.354764 
2199.000000	2.353763 
2198.000000	2.352809 
2197.000000	2.351903 
2196.000000	2.351093 
2195.000000	2.350401 
2194.000000	2.349781 
2193.000000	2.349233 
2192.000000	2.348709 
2191.000000	2.348184 
2190.000000	2.347683 
2189.000000	2.347064 
2188.000000	2.346396 
2187.000000	2.345633 
2186.000000	2.344846 
2185.000000	2.344012 
2184.000000	2.343201 
2183.000000	2.342414 
2182.000000	2.341628 
2181.000000	2.340888 
2180.000000	2.340149 
2179.000000	2.339410 
2178.000000	2.338671 
2177.000000	2.337884 
2176.000000	2.337074 
2175.000000	2.336311 
2174.000000	2.335596 
2173.000000	2.334952 
2172.000000	2.334427 
2171.000000	2.333998 
2170.000000	2.333688 
2169.000000	2.333474 
2168.000000	2.333354 
2167.000000	2.333259 
2166.000000	2.333164 
2165.000000	2.333068 
2164.000000	2.332949 
2163.000000	2.332830 
2162.000000	2.332711 
2161.000000	2.332592 
2160.000000	2.332448 
2159.000000	2.332282 
2158.000000	2.332115 
2157.000000	2.331924 
2156.000000	2.331686 
2155.000000	2.331447 
2154.000000	2.331161 
2153.000000	2.330875 
2152.000000	2.330636 
2151.000000	2.330470 
2150.000000	2.330374 
2149.000000	2.330398 
2148.000000	2.330493 
2147.000000	2.330708 
2146.000000	2.330923 
2145.000000	2.331113 
2144.000000	2.331209 
2143.000000	2.331161 
2142.000000	2.330970 
2141.000000	2.330636 
2140.000000	2.330183 
2139.000000	2.329754 
2138.000000	2.329373 
2137.000000	2.329087 
2136.000000	2.328944 
2135.000000	2.328991 
2134.000000	2.329182 
2133.000000	2.329421 
2132.000000	2.329754 
2131.000000	2.330040 
2130.000000	2.330303 
2129.000000	2.330517 
2128.000000	2.330684 
2127.000000	2.330827 
2126.000000	2.330923 
2125.000000	2.331018 
2124.000000	2.331161 
2123.000000	2.331304 
2122.000000	2.331495 
2121.000000	2.331709 
2120.000000	2.331972 
2119.000000	2.332234 
2118.000000	2.332520 
2117.000000	2.332830 
2116.000000	2.333164 
2115.000000	2.333450 
2114.000000	2.333736 
2113.000000	2.333998 
2112.000000	2.334189 
2111.000000	2.334308 
2110.000000	2.334403 
2109.000000	2.334403 
2108.000000	2.334380 
2107.000000	2.334308 
2106.000000	2.334189 
2105.000000	2.334046 
2104.000000	2.333879 
2103.000000	2.333784 
2102.000000	2.333688 
2101.000000	2.333664 
2100.000000	2.333664 
2099.000000	2.333712 
2098.000000	2.333784 
2097.000000	2.333807 
2096.000000	2.333831 
2095.000000	2.333760 
2094.000000	2.333617 
2093.000000	2.333450 
2092.000000	2.333259 
2091.000000	2.333092 
2090.000000	2.333021 
2089.000000	2.333068 
2088.000000	2.333283 
2087.000000	2.333664 
2086.000000	2.334213 
2085.000000	2.334928 
2084.000000	2.335810 
2083.000000	2.336764 
2082.000000	2.337884 
2081.000000	2.339029 
2080.000000	2.340340 
2079.000000	2.341699 
2078.000000	2.343177 
2077.000000	2.344775 
2076.000000	2.346491 
2075.000000	2.348256 
2074.000000	2.350068 
2073.000000	2.351927 
2072.000000	2.353787 
2071.000000	2.355599 
2070.000000	2.357411 
2069.000000	2.359175 
2068.000000	2.360963 
2067.000000	2.362751 
2066.000000	2.364587 
2065.000000	2.366495 
2064.000000	2.368497 
2063.000000	2.370619 
2062.000000	2.372837 
2061.000000	2.375125 
2060.000000	2.377438 
2059.000000	2.379775 
2058.000000	2.382111 
2057.000000	2.384400 
2056.000000	2.386665 
2055.000000	2.388834 
2054.000000	2.390980 
2053.000000	2.393031 
2052.000000	2.395009 
2051.000000	2.396869 
2050.000000	2.398705 
2049.000000	2.400422 
2048.000000	2.402019 
2047.000000	2.403521 
2046.000000	2.404999 
2045.000000	2.406454 
2044.000000	2.407932 
2043.000000	2.409434 
2042.000000	2.410960 
2041.000000	2.412533 
2040.000000	2.414178 
2039.000000	2.415847 
2038.000000	2.417492 
2037.000000	2.419137 
2036.000000	2.420759 
2035.000000	2.422380 
2034.000000	2.423930 
2033.000000	2.425432 
2032.000000	2.426886 
2031.000000	2.428221 
2030.000000	2.429437 
2029.000000	2.430534 
2028.000000	2.431511 
2027.000000	2.432370 
2026.000000	2.433180 
2025.000000	2.433943 
2024.000000	2.434778 
2023.000000	2.435708 
2022.000000	2.436709 
2021.000000	2.437782 
2020.000000	2.438926 
2019.000000	2.440023 
2018.000000	2.441024 
2017.000000	2.441906 
2016.000000	2.442622 
2015.000000	2.443170 
2014.000000	2.443552 
2013.000000	2.443838 
2012.000000	2.444052 
2011.000000	2.444267 
2010.000000	2.444505 
2009.000000	2.444744 
2008.000000	2.445054 
2007.000000	2.445435 
2006.000000	2.445793 
2005.000000	2.446174 
2004.000000	2.446556 
2003.000000	2.446961 
2002.000000	2.447319 
2001.000000	2.447748 
2000.000000	2.448129 
1999.000000	2.448511 
1998.000000	2.448868 
1997.000000	2.449154 
1996.000000	2.449345 
1995.000000	2.449369 
1994.000000	2.449297 
1993.000000	2.449059 
1992.000000	2.448701 
1991.000000	2.448225 
1990.000000	2.447605 
1989.000000	2.446913 
1988.000000	2.446150 
1987.000000	2.445316 
1986.000000	2.444458 
1985.000000	2.443528 
1984.000000	2.442574 
1983.000000	2.441644 
1982.000000	2.440714 
1981.000000	2.439808 
1980.000000	2.438974 
1979.000000	2.438187 
1978.000000	2.437448 
1977.000000	2.436709 
1976.000000	2.435994 
1975.000000	2.435231 
1974.000000	2.434444 
1973.000000	2.433538 
1972.000000	2.432632 
1971.000000	2.431702 
1970.000000	2.430772 
1969.000000	2.429914 
1968.000000	2.429103 
1967.000000	2.428364 
1966.000000	2.427649 
1965.000000	2.426958 
1964.000000	2.426242 
1963.000000	2.425503 
1962.000000	2.424716 
1961.000000	2.423882 
1960.000000	2.423000 
1959.000000	2.421998 
1958.000000	2.420997 
1957.000000	2.419996 
1956.000000	2.419042 
1955.000000	2.418112 
1954.000000	2.417254 
1953.000000	2.416491 
1952.000000	2.415800 
1951.000000	2.415227 
1950.000000	2.414703 
1949.000000	2.414202 
1948.000000	2.413678 
1947.000000	2.413105 
1946.000000	2.412438 
1945.000000	2.411699 
1944.000000	2.410840 
1943.000000	2.409911 
1942.000000	2.408957 
1941.000000	2.407979 
1940.000000	2.407050 
1939.000000	2.406167 
1938.000000	2.405309 
1937.000000	2.404427 
1936.000000	2.403521 
1935.000000	2.402591 
1934.000000	2.401614 
1933.000000	2.400588 
1932.000000	2.399539 
1931.000000	2.398490 
1930.000000	2.397537 
1929.000000	2.396655 
1928.000000	2.395844 
1927.000000	2.395081 
1926.000000	2.394318 
1925.000000	2.393531 
1924.000000	2.392601 
1923.000000	2.391529 
1922.000000	2.390336 
1921.000000	2.389025 
1920.000000	2.387690 
1919.000000	2.386331 
1918.000000	2.385044 
1917.000000	2.383899 
1916.000000	2.382826 
1915.000000	2.381849 
1914.000000	2.380847 
1913.000000	2.379846 
1912.000000	2.378749 
1911.000000	2.377605 
1910.000000	2.376341 
1909.000000	2.375054 
1908.000000	2.373766 
1907.000000	2.372574 
1906.000000	2.371454 
1905.000000	2.370405 
1904.000000	2.369451 
1903.000000	2.368521 
1902.000000	2.367591 
1901.000000	2.366614 
1900.000000	2.365612 
1899.000000	2.364587 
1898.000000	2.363610 
1897.000000	2.362680 
1896.000000	2.361917 
1895.000000	2.361321 
1894.000000	2.360963 
1893.000000	2.360844 
1892.000000	2.360939 
1891.000000	2.361202 
1890.000000	2.361655 
1889.000000	2.362203 
1888.000000	2.362799 
1887.000000	2.363419 
1886.000000	2.364063 
1885.000000	2.364659 
1884.000000	2.365255 
1883.000000	2.365851 
1882.000000	2.366399 
1881.000000	2.366948 
1880.000000	2.367424 
1879.000000	2.367806 
1878.000000	2.368068 
1877.000000	2.368235 
1876.000000	2.368307 
1875.000000	2.368235 
1874.000000	2.368140 
1873.000000	2.368021 
1872.000000	2.367973 
1871.000000	2.368092 
1870.000000	2.368378 
1869.000000	2.368903 
1868.000000	2.369642 
1867.000000	2.370595 
1866.000000	2.371692 
1865.000000	2.372813 
1864.000000	2.373957 
1863.000000	2.375006 
1862.000000	2.375984 
1861.000000	2.376818 
1860.000000	2.377605 
1859.000000	2.378368 
1858.000000	2.379107 
1857.000000	2.379870 
1856.000000	2.380609 
1855.000000	2.381372 
1854.000000	2.382063 
1853.000000	2.382659 
1852.000000	2.383112 
1851.000000	2.383422 
1850.000000	2.383542 
1849.000000	2.383565 
1848.000000	2.383565 
1847.000000	2.383661 
1846.000000	2.383899 
1845.000000	2.384400 
1844.000000	2.385163 
1843.000000	2.386140 
1842.000000	2.387332 
1841.000000	2.388596 
1840.000000	2.389860 
1839.000000	2.391028 
1838.000000	2.392125 
1837.000000	2.393054 
1836.000000	2.393841 
1835.000000	2.394509 
1834.000000	2.395129 
1833.000000	2.395749 
1832.000000	2.396368 
1831.000000	2.397060 
1830.000000	2.397823 
1829.000000	2.398729 
1828.000000	2.399730 
1827.000000	2.400851 
1826.000000	2.402138 
1825.000000	2.403569 
1824.000000	2.405071 
1823.000000	2.406620 
1822.000000	2.408170 
1821.000000	2.409696 
1820.000000	2.411150 
1819.000000	2.412438 
1818.000000	2.413630 
1817.000000	2.414655 
1816.000000	2.415561 
1815.000000	2.416348 
1814.000000	2.417087 
1813.000000	2.417755 
1812.000000	2.418375 
1811.000000	2.418971 
1810.000000	2.419471 
1809.000000	2.419877 
1808.000000	2.420186 
1807.000000	2.420330 
1806.000000	2.420330 
1805.000000	2.420258 
1804.000000	2.420067 
1803.000000	2.419877 
1802.000000	2.419638 
1801.000000	2.419352 
1800.000000	2.419137 
1799.000000	2.418899 
1798.000000	2.418565 
1797.000000	2.418255 
1796.000000	2.417922 
1795.000000	2.417659 
1794.000000	2.417469 
1793.000000	2.417421 
1792.000000	2.417588 
1791.000000	2.417874 
1790.000000	2.418279 
1789.000000	2.418708 
1788.000000	2.419114 
1787.000000	2.419400 
1786.000000	2.419543 
1785.000000	2.419519 
1784.000000	2.419328 
1783.000000	2.418971 
1782.000000	2.418446 
1781.000000	2.417755 
1780.000000	2.416729 
1779.000000	2.415466 
1778.000000	2.413868 
1777.000000	2.411985 
1776.000000	2.409958 
1775.000000	2.407860 
1774.000000	2.405977 
1773.000000	2.404379 
1772.000000	2.403235 
1771.000000	2.402591 
1770.000000	2.402424 
1769.000000	2.402639 
1768.000000	2.403068 
1767.000000	2.403521 
1766.000000	2.403831 
1765.000000	2.403879 
1764.000000	2.403616 
1763.000000	2.403020 
1762.000000	2.402067 
1761.000000	2.400827 
1760.000000	2.399301 
1759.000000	2.397465 
1758.000000	2.395319 
1757.000000	2.392888 
1756.000000	2.390193 
1755.000000	2.387261 
1754.000000	2.384209 
1753.000000	2.381134 
1752.000000	2.378106 
1751.000000	2.375245 
1750.000000	2.372479 
1749.000000	2.369832 
1748.000000	2.367258 
1747.000000	2.364587 
1746.000000	2.361702 
1745.000000	2.358531 
1744.000000	2.354979 
1743.000000	2.351045 
1742.000000	2.346754 
1741.000000	2.342176 
1740.000000	2.337431 
1739.000000	2.332687 
1738.000000	2.328228 
1737.000000	2.324199 
1736.000000	2.320861 
1735.000000	2.318334 
1734.000000	2.316761 
1733.000000	2.316117 
1732.000000	2.316236 
1731.000000	2.316951 
1730.000000	2.318048 
1729.000000	2.319169 
1728.000000	2.320003 
1727.000000	2.320265 
1726.000000	2.319788 
1725.000000	2.318525 
1724.000000	2.316403 
1723.000000	2.313542 
1722.000000	2.310204 
1721.000000	2.306604 
1720.000000	2.303051 
1719.000000	2.299833 
1718.000000	2.297115 
1717.000000	2.295041 
1716.000000	2.293634 
1715.000000	2.292776 
1714.000000	2.292251 
1713.000000	2.291893 
1712.000000	2.291440 
1711.000000	2.290654 
1710.000000	2.289390 
1709.000000	2.287483 
1708.000000	2.284932 
1707.000000	2.281713 
1706.000000	2.277898 
1705.000000	2.273702 
1704.000000	2.269124 
1703.000000	2.264523 
1702.000000	2.260088 
1701.000000	2.256155 
1700.000000	2.252912 
1699.000000	2.250623 
1698.000000	2.249431 
1697.000000	2.249312 
1696.000000	2.250099 
1695.000000	2.251434 
1694.000000	2.252960 
1693.000000	2.254223 
1692.000000	2.254796 
1691.000000	2.254366 
1690.000000	2.252888 
1689.000000	2.250456 
1688.000000	2.247357 
1687.000000	2.243924 
1686.000000	2.240633 
1685.000000	2.237820 
1684.000000	2.235746 
1683.000000	2.234387 
1682.000000	2.233672 
1681.000000	2.233362 
1680.000000	2.233052 
1679.000000	2.232551 
1678.000000	2.231669 
1677.000000	2.230358 
1676.000000	2.228569 
1675.000000	2.226519 
1674.000000	2.224373 
1673.000000	2.222204 
1672.000000	2.220201 
1671.000000	2.218341 
1670.000000	2.216625 
1669.000000	2.215051 
1668.000000	2.213501 
1667.000000	2.211976 
1666.000000	2.210450 
1665.000000	2.208805 
1664.000000	2.206993 
1663.000000	2.204871 
1662.000000	2.202296 
1661.000000	2.199125 
1660.000000	2.195239 
1659.000000	2.190613 
1658.000000	2.185344 
1657.000000	2.179670 
1656.000000	2.173972 
1655.000000	2.168583 
1654.000000	2.163958 
1653.000000	2.160215 
1652.000000	2.157568 
1651.000000	2.156019 
1650.000000	2.155399 
1649.000000	2.155494 
1648.000000	2.155947 
1647.000000	2.156519 
1646.000000	2.156972 
1645.000000	2.156996 
1644.000000	2.156543 
1643.000000	2.155375 
1642.000000	2.153587 
1641.000000	2.151155 
1640.000000	2.148222 
1639.000000	2.144980 
1638.000000	2.141618 
1637.000000	2.138400 
1636.000000	2.135467 
1635.000000	2.132892 
1634.000000	2.130675 
1633.000000	2.128696 
1632.000000	2.126717 
1631.000000	2.124595 
1630.000000	2.122068 
1629.000000	2.119088 
1628.000000	2.115535 
1627.000000	2.111411 
1626.000000	2.106785 
1625.000000	2.101659 
1624.000000	2.096104 
1623.000000	2.090072 
1622.000000	2.083468 
1621.000000	2.076315 
1620.000000	2.068543 
1619.000000	2.060103 
1618.000000	2.051019 
1617.000000	2.041363 
1616.000000	2.031183 
1615.000000	2.020740 
1614.000000	2.010202 
1613.000000	1.999902 
1612.000000	1.990127 
1611.000000	1.981282 
1610.000000	1.973772 
1609.000000	1.967883 
1608.000000	1.963877 
1607.000000	1.961898 
1606.000000	1.961851 
1605.000000	1.963543 
1604.000000	1.966691 
1603.000000	1.970839 
1602.000000	1.975584 
1601.000000	1.980590 
1600.000000	1.985502 
1599.000000	1.990127 
1598.000000	1.994299 
1597.000000	1.997923 
1596.000000	2.001023 
1595.000000	2.003526 
1594.000000	2.005410 
1593.000000	2.006769 
1592.000000	2.007532 
1591.000000	2.007818 
1590.000000	2.007675 
1589.000000	2.007102 
1588.000000	2.006173 
1587.000000	2.004909 
1586.000000	2.003312 
1585.000000	2.001380 
1584.000000	1.999068 
1583.000000	1.996397 
1582.000000	1.993441 
1581.000000	1.990270 
1580.000000	1.987051 
1579.000000	1.984000 
1578.000000	1.981258 
1577.000000	1.978969 
1576.000000	1.977252 
1575.000000	1.976060 
1574.000000	1.975274 
1573.000000	1.974749 
1572.000000	1.974272 
1571.000000	1.973605 
1570.000000	1.972532 
1569.000000	1.970720 
1568.000000	1.968073 
1567.000000	1.964449 
1566.000000	1.959776 
1565.000000	1.954197 
1564.000000	1.947879 
1563.000000	1.941251 
1562.000000	1.934766 
1561.000000	1.928997 
1560.000000	1.924443 
1559.000000	1.921606 
1558.000000	1.920676 
1557.000000	1.921653 
1556.000000	1.924324 
1555.000000	1.928305 
1554.000000	1.933002 
1553.000000	1.937890 
1552.000000	1.942348 
1551.000000	1.946091 
1550.000000	1.948833 
1549.000000	1.950430 
1548.000000	1.951050 
1547.000000	1.951003 
1546.000000	1.950764 
1545.000000	1.950860 
1544.000000	1.951885 
1543.000000	1.954412 
1542.000000	1.958870 
1541.000000	1.965522 
1540.000000	1.974368 
1539.000000	1.985216 
1538.000000	1.997661 
1537.000000	2.011132 
1536.000000	2.025008 
1535.000000	2.038645 
1534.000000	2.051544 
1533.000000	2.063250 
1532.000000	2.073431 
1531.000000	2.082085 
1530.000000	2.089190 
1529.000000	2.094745 
1528.000000	2.098870 
1527.000000	2.101802 
1526.000000	2.103710 
1525.000000	2.104735 
1524.000000	2.105069 
1523.000000	2.104878 
1522.000000	2.104306 
1521.000000	2.103447 
1520.000000	2.102375 
1519.000000	2.101063 
1518.000000	2.099514 
1517.000000	2.097749 
1516.000000	2.095675 
1515.000000	2.093219 
1514.000000	2.090358 
1513.000000	2.086997 
1512.000000	2.083110 
1511.000000	2.078413 
1510.000000	2.072858 
1509.000000	2.066040 
1508.000000	2.057480 
1507.000000	2.046394 
1506.000000	2.031970 
1505.000000	2.013373 
1504.000000	1.989793 
1503.000000	1.960825 
1502.000000	1.926541 
1501.000000	1.887655 
1500.000000	1.845741 
1499.000000	1.802945 
1498.000000	1.761889 
1497.000000	1.725387 
1496.000000	1.696038 
1495.000000	1.675891 
1494.000000	1.666092 
1493.000000	1.666879 
1492.000000	1.677632 
1491.000000	1.696729 
1490.000000	1.722121 
1489.000000	1.751565 
1488.000000	1.782989 
1487.000000	1.814246 
1486.000000	1.843881 
1485.000000	1.870751 
1484.000000	1.894259 
1483.000000	1.914143 
1482.000000	1.930379 
1481.000000	1.943135 
1480.000000	1.952672 
1479.000000	1.959609 
1478.000000	1.964306 
1477.000000	1.967239 
1476.000000	1.968765 
1475.000000	1.969408 
1474.000000	1.969432 
1473.000000	1.968955 
1472.000000	1.968026 
1471.000000	1.966691 
1470.000000	1.964855 
1469.000000	1.962256 
1468.000000	1.958703 
1467.000000	1.954078 
1466.000000	1.948142 
1465.000000	1.940655 
1464.000000	1.931405 
1463.000000	1.920294 
1462.000000	1.907277 
1461.000000	1.892280 
1460.000000	1.875448 
1459.000000	1.857161 
1458.000000	1.838040 
1457.000000	1.818943 
1456.000000	1.800775 
1455.000000	1.784491 
1454.000000	1.771235 
1453.000000	1.761913 
1452.000000	1.757001 
1451.000000	1.756715 
1450.000000	1.760864 
1449.000000	1.768803 
1448.000000	1.779580 
1447.000000	1.792025 
1446.000000	1.804995 
1445.000000	1.817417 
1444.000000	1.828408 
1443.000000	1.837515 
1442.000000	1.844525 
1441.000000	1.849603 
1440.000000	1.853013 
1439.000000	1.855278 
1438.000000	1.856780 
1437.000000	1.857876 
1436.000000	1.858830 
1435.000000	1.859784 
1434.000000	1.860737 
1433.000000	1.861643 
1432.000000	1.862454 
1431.000000	1.863002 
1430.000000	1.863288 
1429.000000	1.863241 
1428.000000	1.862907 
1427.000000	1.862192 
1426.000000	1.861119 
1425.000000	1.859712 
1424.000000	1.858115 
1423.000000	1.856279 
1422.000000	1.854276 
1421.000000	1.852130 
1420.000000	1.849865 
1419.000000	1.847505 
1418.000000	1.844882 
1417.000000	1.841878 
1416.000000	1.838183 
1415.000000	1.833581 
1414.000000	1.827669 
1413.000000	1.820230 
1412.000000	1.811122 
1411.000000	1.800417 
1410.000000	1.788330 
1409.000000	1.775383 
1408.000000	1.762199 
1407.000000	1.749634 
1406.000000	1.738452 
1405.000000	1.729393 
1404.000000	1.723051 
1403.000000	1.719760 
1402.000000	1.719546 
1401.000000	1.722192 
1400.000000	1.727271 
1399.000000	1.734209 
1398.000000	1.742386 
1397.000000	1.751112 
1396.000000	1.759719 
1395.000000	1.767706 
1394.000000	1.774573 
1393.000000	1.779985 
1392.000000	1.783704 
1391.000000	1.785755 
1390.000000	1.786279 
1389.000000	1.785659 
1388.000000	1.784253 
1387.000000	1.782727 
1386.000000	1.781511 
1385.000000	1.781105 
1384.000000	1.781702 
1383.000000	1.783370 
1382.000000	1.785993 
1381.000000	1.789283 
1380.000000	1.792883 
1379.000000	1.796388 
1378.000000	1.799583 
1377.000000	1.802253 
1376.000000	1.804375 
1375.000000	1.805925 
1374.000000	1.807045 
1373.000000	1.807856 
1372.000000	1.808404 
1371.000000	1.808786 
1370.000000	1.809072 
1369.000000	1.809239 
1368.000000	1.809334 
1367.000000	1.809406 
1366.000000	1.809453 
1365.000000	1.809525 
1364.000000	1.809692 
1363.000000	1.809954 
1362.000000	1.810216 
1361.000000	1.810479 
1360.000000	1.810741 
1359.000000	1.810860 
1358.000000	1.810884 
1357.000000	1.810741 
1356.000000	1.810455 
1355.000000	1.810073 
1354.000000	1.809597 
1353.000000	1.809120 
1352.000000	1.808667 
1351.000000	1.808238 
1350.000000	1.807904 
1349.000000	1.807570 
1348.000000	1.807379 
1347.000000	1.807260 
1346.000000	1.807212 
1345.000000	1.807284 
1344.000000	1.807546 
1343.000000	1.808023 
1342.000000	1.808762 
1341.000000	1.809763 
1340.000000	1.811099 
1339.000000	1.812767 
1338.000000	1.814746 
1337.000000	1.817059 
1336.000000	1.819610 
1335.000000	1.822304 
1334.000000	1.825118 
1333.000000	1.827883 
1332.000000	1.830530 
1331.000000	1.832962 
1330.000000	1.835155 
1329.000000	1.837015 
1328.000000	1.838612 
1327.000000	1.839900 
1326.000000	1.840925 
1325.000000	1.841855 
1324.000000	1.842689 
1323.000000	1.843452 
1322.000000	1.844191 
1321.000000	1.844954 
1320.000000	1.845693 
1319.000000	1.846408 
1318.000000	1.847052 
1317.000000	1.847624 
1316.000000	1.848125 
1315.000000	1.848483 
1314.000000	1.848721 
1313.000000	1.848840 
1312.000000	1.848816 
1311.000000	1.848721 
1310.000000	1.848506 
1309.000000	1.848244 
1308.000000	1.847910 
1307.000000	1.847577 
1306.000000	1.847267 
1305.000000	1.847004 
1304.000000	1.846837 
1303.000000	1.846790 
1302.000000	1.846837 
1301.000000	1.846909 
1300.000000	1.847028 
1299.000000	1.847195 
1298.000000	1.847362 
1297.000000	1.847457 
1296.000000	1.847457 
1295.000000	1.847481 
1294.000000	1.847410 
1293.000000	1.847267 
1292.000000	1.847124 
1291.000000	1.846933 
1290.000000	1.846718 
1289.000000	1.846432 
1288.000000	1.846027 
1287.000000	1.845526 
1286.000000	1.844930 
1285.000000	1.844191 
1284.000000	1.843261 
1283.000000	1.842141 
1282.000000	1.840829 
1281.000000	1.839280 
1280.000000	1.837396 
1279.000000	1.835131 
1278.000000	1.832389 
1277.000000	1.829004 
1276.000000	1.824808 
1275.000000	1.819729 
1274.000000	1.813626 
1273.000000	1.806330 
1272.000000	1.797819 
1271.000000	1.788115 
1270.000000	1.777362 
1269.000000	1.765871 
1268.000000	1.753973 
1267.000000	1.742148 
1266.000000	1.731109 
1265.000000	1.721453 
1264.000000	1.713800 
1263.000000	1.708698 
1262.000000	1.706504 
1261.000000	1.707363 
1260.000000	1.711249 
1259.000000	1.717805 
1258.000000	1.726555 
1257.000000	1.736879 
1256.000000	1.748132 
1255.000000	1.759672 
1254.000000	1.770877 
1253.000000	1.781344 
1252.000000	1.790738 
1251.000000	1.798868 
1250.000000	1.805782 
1249.000000	1.811408 
1248.000000	1.815962 
1247.000000	1.819515 
1246.000000	1.822209 
1245.000000	1.824164 
1244.000000	1.825547 
1243.000000	1.826477 
1242.000000	1.827049 
1241.000000	1.827263 
1240.000000	1.827263 
1239.000000	1.827049 
1238.000000	1.826667 
1237.000000	1.826119 
1236.000000	1.825475 
1235.000000	1.824712 
1234.000000	1.823902 
1233.000000	1.822948 
1232.000000	1.821875 
1231.000000	1.820707 
1230.000000	1.819372 
1229.000000	1.817893 
1228.000000	1.816201 
1227.000000	1.814293 
1226.000000	1.812195 
1225.000000	1.809835 
1224.000000	1.807188 
1223.000000	1.804232 
1222.000000	1.800918 
1221.000000	1.797342 
1220.000000	1.793384 
1219.000000	1.789093 
1218.000000	1.784515 
1217.000000	1.779770 
1216.000000	1.774907 
1215.000000	1.770043 
1214.000000	1.765298 
1213.000000	1.760792 
1212.000000	1.756644 
1211.000000	1.752901 
1210.000000	1.749634 
1209.000000	1.746821 
1208.000000	1.744508 
1207.000000	1.742625 
1206.000000	1.741170 
1205.000000	1.740121 
1204.000000	1.739406 
1203.000000	1.738953 
1202.000000	1.738786 
1201.000000	1.738762 
1200.000000	1.738858 
1199.000000	1.739048 
1198.000000	1.739192 
1197.000000	1.739239 
1196.000000	1.739120 
1195.000000	1.738834 
1194.000000	1.738309 
1193.000000	1.737523 
1192.000000	1.736450 
1191.000000	1.735043 
1190.000000	1.733303 
1189.000000	1.731276 
1188.000000	1.728963 
1187.000000	1.726365 
1186.000000	1.723575 
1185.000000	1.720643 
1184.000000	1.717638 
1183.000000	1.714634 
1182.000000	1.711678 
1181.000000	1.708817 
1180.000000	1.706051 
1179.000000	1.703333 
1178.000000	1.700639 
1177.000000	1.697945 
1176.000000	1.695156 
1175.000000	1.692128 
1174.000000	1.688838 
1173.000000	1.685214 
1172.000000	1.681280 
1171.000000	1.677012 
1170.000000	1.672482 
1169.000000	1.667761 
1168.000000	1.662874 
1167.000000	1.657962 
1166.000000	1.653051 
1165.000000	1.648187 
1164.000000	1.643443 
1163.000000	1.638793 
1162.000000	1.634311 
1161.000000	1.630043 
1160.000000	1.626038 
1159.000000	1.622390 
1158.000000	1.619052 
1157.000000	1.616144 
1156.000000	1.613664 
1155.000000	1.611566 
1154.000000	1.609849 
1153.000000	1.608514 
1152.000000	1.607346 
1151.000000	1.606249 
1150.000000	1.605129 
1149.000000	1.603889 
1148.000000	1.602458 
1147.000000	1.600837 
1146.000000	1.598954 
1145.000000	1.596856 
1144.000000	1.594638 
1143.000000	1.592254 
1142.000000	1.589775 
1141.000000	1.587152 
1140.000000	1.584362 
1139.000000	1.581358 
1138.000000	1.578140 
1137.000000	1.574611 
1136.000000	1.570844 
1135.000000	1.566839 
1134.000000	1.562595 
1133.000000	1.558136 
1132.000000	1.553559 
1131.000000	1.548862 
1130.000000	1.544094 
1129.000000	1.539254 
1128.000000	1.534342 
1127.000000	1.529407 
1126.000000	1.524400 
1125.000000	1.519298 
1124.000000	1.514172 
1123.000000	1.508951 
1122.000000	1.503729 
1121.000000	1.498508 
1120.000000	1.493310 
1119.000000	1.488161 
1118.000000	1.483106 
1117.000000	1.478147 
1116.000000	1.473236 
1115.000000	1.468443 
1114.000000	1.463723 
1113.000000	1.459050 
1112.000000	1.454544 
1111.000000	1.450157 
1110.000000	1.446008 
1109.000000	1.442050 
1108.000000	1.438426 
1107.000000	1.435112 
1106.000000	1.432180 
1105.000000	1.429581 
1104.000000	1.427388 
1103.000000	1.425480 
1102.000000	1.423883 
1101.000000	1.422548 
1100.000000	1.421403 
1099.000000	1.420497 
1098.000000	1.419734 
1097.000000	1.419162 
1096.000000	1.418757 
1095.000000	1.418495 
1094.000000	1.418375 
1093.000000	1.418471 
1092.000000	1.418709 
1091.000000	1.419138 
1090.000000	1.419758 
1089.000000	1.420521 
1088.000000	1.421380 
1087.000000	1.422262 
1086.000000	1.423096 
1085.000000	1.423740 
1084.000000	1.424169 
1083.000000	1.424288 
1082.000000	1.424121 
1081.000000	1.423716 
1080.000000	1.423168 
1079.000000	1.422572 
1078.000000	1.422119 
1077.000000	1.421928 
1076.000000	1.422142 
1075.000000	1.422786 
1074.000000	1.423835 
1073.000000	1.425194 
1072.000000	1.426696 
1071.000000	1.428222 
1070.000000	1.429653 
1069.000000	1.430797 
1068.000000	1.431560 
1067.000000	1.431941 
1066.000000	1.431870 
1065.000000	1.431345 
1064.000000	1.430177 
1063.000000	1.428198 
1062.000000	1.425099 
1061.000000	1.420450 
1060.000000	1.413846 
1059.000000	1.404976 
1058.000000	1.393604 
1057.000000	1.379942 
1056.000000	1.364469 
1055.000000	1.348042 
1054.000000	1.331877 
1053.000000	1.317286 
1052.000000	1.305580 
1051.000000	1.297712 
1050.000000	1.294445 
1049.000000	1.295757 
1048.000000	1.301336 
1047.000000	1.310253 
1046.000000	1.321387 
1045.000000	1.333427 
1044.000000	1.345229 
1043.000000	1.355814 
1042.000000	1.364588 
1041.000000	1.371240 
1040.000000	1.375818 
1039.000000	1.378560 
1038.000000	1.379823 
1037.000000	1.379966 
1036.000000	1.379299 
1035.000000	1.378059 
1034.000000	1.376533 
1033.000000	1.374769 
1032.000000	1.372790 
1031.000000	1.370739 
1030.000000	1.368594 
1029.000000	1.366400 
1028.000000	1.364159 
1027.000000	1.361989 
1026.000000	1.359891 
1025.000000	1.357936 
1024.000000	1.356267 
1023.000000	1.354956 
1022.000000	1.354002 
1021.000000	1.353502 
1020.000000	1.353454 
1019.000000	1.353931 
1018.000000	1.354861 
1017.000000	1.356244 
1016.000000	1.358032 
1015.000000	1.360154 
1014.000000	1.362633 
1013.000000	1.365351 
1012.000000	1.368236 
1011.000000	1.371169 
1010.000000	1.374077 
1009.000000	1.376867 
1008.000000	1.379466 
1007.000000	1.381778 
1006.000000	1.383852 
1005.000000	1.385664 
1004.000000	1.387262 
1003.000000	1.388645 
1002.000000	1.389861 
1001.000000	1.390933 
1000.000000	1.391792 
999.000000	 1.392483 
998.000000	 1.392936 
997.000000	 1.393103 
996.000000	 1.392936 
995.000000	 1.392483 
994.000000	 1.391720 
993.000000	 1.390647 
992.000000	 1.389336 
991.000000	 1.387834 
990.000000	 1.386237 
989.000000	 1.384520 
988.000000	 1.382708 
987.000000	 1.380896 
986.000000	 1.379013 
985.000000	 1.377081 
984.000000	 1.375079 
983.000000	 1.373028 
982.000000	 1.370930 
981.000000	 1.368784 
980.000000	 1.366543 
979.000000	 1.364326 
978.000000	 1.362085 
977.000000	 1.359820 
976.000000	 1.357531 
975.000000	 1.355242 
974.000000	 1.352930 
973.000000	 1.350593 
972.000000	 1.348114 
971.000000	 1.345539 
970.000000	 1.342844 
969.000000	 1.339912 
968.000000	 1.336812 
967.000000	 1.333498 
966.000000	 1.330018 
965.000000	 1.326370 
964.000000	 1.322698 
963.000000	 1.319003 
962.000000	 1.315283 
961.000000	 1.311635 
960.000000	 1.308059 
959.000000	 1.304531 
958.000000	 1.301097 
957.000000	 1.297736 
956.000000	 1.294398 
955.000000	 1.291179 
954.000000	 1.288032 
953.000000	 1.284980 
952.000000	 1.282048 
951.000000	 1.279258 
950.000000	 1.276540 
949.000000	 1.274013 
948.000000	 1.271533 
947.000000	 1.269197 
946.000000	 1.266932 
945.000000	 1.264762 
944.000000	 1.262712 
943.000000	 1.260709 
942.000000	 1.258754 
941.000000	 1.256871 
940.000000	 1.255011 
939.000000	 1.253056 
938.000000	 1.251053 
937.000000	 1.248955 
936.000000	 1.246714 
935.000000	 1.244330 
934.000000	 1.241803 
933.000000	 1.239180 
932.000000	 1.236486 
931.000000	 1.233792 
930.000000	 1.231122 
929.000000	 1.228523 
928.000000	 1.225996 
927.000000	 1.223540 
926.000000	 1.221203 
925.000000	 1.218914 
924.000000	 1.216697 
923.000000	 1.214504 
922.000000	 1.212310 
921.000000	 1.210021 
920.000000	 1.207590 
919.000000	 1.204895 
918.000000	 1.201868 
917.000000	 1.198482 
916.000000	 1.194787 
915.000000	 1.190757 
914.000000	 1.186561 
913.000000	 1.182293 
912.000000	 1.178121 
911.000000	 1.174139 
910.000000	 1.170444 
909.000000	 1.167154 
908.000000	 1.164197 
907.000000	 1.161646 
906.000000	 1.159477 
905.000000	 1.157665 
904.000000	 1.156115 
903.000000	 1.154804 
902.000000	 1.153635 
901.000000	 1.152515 
900.000000	 1.151371 
899.000000	 1.150059 
898.000000	 1.148533 
897.000000	 1.146769 
896.000000	 1.144766 
895.000000	 1.142454 
894.000000	 1.139879 
893.000000	 1.136922 
892.000000	 1.133608 
891.000000	 1.129817 
890.000000	 1.125383 
889.000000	 1.120209 
888.000000	 1.114177 
887.000000	 1.107263 
886.000000	 1.099467 
885.000000	 1.090884 
884.000000	 1.081728 
883.000000	 1.072239 
882.000000	 1.062750 
881.000000	 1.053571 
880.000000	 1.045131 
879.000000	 1.037764 
878.000000	 1.031827 
877.000000	 1.027607 
876.000000	 1.025295 
875.000000	 1.024937 
874.000000	 1.026463 
873.000000	 1.029682 
872.000000	 1.034283 
871.000000	 1.039934 
870.000000	 1.046156 
869.000000	 1.052594 
868.000000	 1.058959 
867.000000	 1.064991 
866.000000	 1.070451 
865.000000	 1.075220 
864.000000	 1.079320 
863.000000	 1.082682 
862.000000	 1.085329 
861.000000	 1.087212 
860.000000	 1.088452 
859.000000	 1.089048 
858.000000	 1.089048 
857.000000	 1.088500 
856.000000	 1.087594 
855.000000	 1.086354 
854.000000	 1.084923 
853.000000	 1.083374 
852.000000	 1.081776 
851.000000	 1.080226 
850.000000	 1.078748 
849.000000	 1.077342 
848.000000	 1.075935 
847.000000	 1.074481 
846.000000	 1.072883 
845.000000	 1.071071 
844.000000	 1.068878 
843.000000	 1.066184 
842.000000	 1.062870 
841.000000	 1.058816 
840.000000	 1.053786 
839.000000	 1.047635 
838.000000	 1.040077 
837.000000	 1.030969 
836.000000	 1.020002 
835.000000	 1.007056 
834.000000	 0.992035 
833.000000	 0.975012 
832.000000	 0.956273 
831.000000	 0.936341 
830.000000	 0.915956 
829.000000	 0.896072 
828.000000	 0.877761 
827.000000	 0.862073 
826.000000	 0.850009 
825.000000	 0.842142 
824.000000	 0.838947 
823.000000	 0.840353 
822.000000	 0.845861 
821.000000	 0.854754 
820.000000	 0.865983 
819.000000	 0.878500 
818.000000	 0.891184 
817.000000	 0.903248 
816.000000	 0.913953 
815.000000	 0.922989 
814.000000	 0.930166 
813.000000	 0.935530 
812.000000	 0.939345 
811.000000	 0.941824 
810.000000	 0.943255 
809.000000	 0.943851 
808.000000	 0.943875 
807.000000	 0.943541 
806.000000	 0.942945 
805.000000	 0.942230 
804.000000	 0.941610 
803.000000	 0.941109 
802.000000	 0.940847 
801.000000	 0.940823 
800.000000	 0.941157 
799.000000	 0.941824 
798.000000	 0.942826 
797.000000	 0.944089 
796.000000	 0.945687 
795.000000	 0.947570 
794.000000	 0.949740 
793.000000	 0.952148 
792.000000	 0.954747 
791.000000	 0.957489 
790.000000	 0.960350 
789.000000	 0.963163 
788.000000	 0.965833 
787.000000	 0.968241 
786.000000	 0.970363 
785.000000	 0.972127 
784.000000	 0.973486 
783.000000	 0.974369 
782.000000	 0.974893 
781.000000	 0.975060 
780.000000	 0.974917 
779.000000	 0.974559 
778.000000	 0.974082 
777.000000	 0.973534 
776.000000	 0.972986 
775.000000	 0.972414 
774.000000	 0.971913 
773.000000	 0.971460 
772.000000	 0.971007 
771.000000	 0.970554 
770.000000	 0.970029 
769.000000	 0.969409 
768.000000	 0.968623 
767.000000	 0.967669 
766.000000	 0.966596 
765.000000	 0.965428 
764.000000	 0.964188 
763.000000	 0.962948 
762.000000	 0.961732 
761.000000	 0.960588 
760.000000	 0.959539 
759.000000	 0.958561 
758.000000	 0.957655 
757.000000	 0.956773 
756.000000	 0.955915 
755.000000	 0.955009 
754.000000	 0.954031 
753.000000	 0.952959 
752.000000	 0.951790 
751.000000	 0.950551 
750.000000	 0.949168 
749.000000	 0.947713 
748.000000	 0.946187 
747.000000	 0.944590 
746.000000	 0.942921 
745.000000	 0.941133 
744.000000	 0.939249 
743.000000	 0.937247 
742.000000	 0.935101 
741.000000	 0.932836 
740.000000	 0.930452 
739.000000	 0.927948 
738.000000	 0.925397 
737.000000	 0.922775 
736.000000	 0.920128 
735.000000	 0.917482 
734.000000	 0.914812 
733.000000	 0.912117 
732.000000	 0.909399 
731.000000	 0.906634 
730.000000	 0.903820 
729.000000	 0.900983 
728.000000	 0.898075 
727.000000	 0.895166 
726.000000	 0.892233 
725.000000	 0.889348 
724.000000	 0.886487 
723.000000	 0.883674 
722.000000	 0.880861 
721.000000	 0.878047 
720.000000	 0.875210 
719.000000	 0.872349 
718.000000	 0.869464 
717.000000	 0.866532 
716.000000	 0.863552 
715.000000	 0.860571 
714.000000	 0.857567 
713.000000	 0.854563 
712.000000	 0.851535 
711.000000	 0.848484 
710.000000	 0.845384 
709.000000	 0.842237 
708.000000	 0.839090 
707.000000	 0.835895 
706.000000	 0.832724 
705.000000	 0.829505 
704.000000	 0.826287 
703.000000	 0.822973 
702.000000	 0.819492 
701.000000	 0.815749 
700.000000	 0.811648 
699.000000	 0.807023 
698.000000	 0.801777 
697.000000	 0.795841 
696.000000	 0.789189 
695.000000	 0.781846 
694.000000	 0.773930 
693.000000	 0.765705 
692.000000	 0.757479 
691.000000	 0.749611 
690.000000	 0.742578 
689.000000	 0.736665 
688.000000	 0.732135 
687.000000	 0.729107 
686.000000	 0.727510 
685.000000	 0.727152 
684.000000	 0.727677 
683.000000	 0.728774 
682.000000	 0.730013 
681.000000	 0.731086 
680.000000	 0.731801 
679.000000	 0.732016 
678.000000	 0.731730 
677.000000	 0.730943 
676.000000	 0.729775 
675.000000	 0.728273 
674.000000	 0.726509 
673.000000	 0.724577 
672.000000	 0.722479 
671.000000	 0.720238 
670.000000	 0.717902 
669.000000	 0.715494 
668.000000	 0.713014 
667.000000	 0.710511 
666.000000	 0.708007 
665.000000	 0.705480 
664.000000	 0.702953 
663.000000	 0.700473 
662.000000	 0.697970 
661.000000	 0.695443 
660.000000	 0.692963 
659.000000	 0.690507 
658.000000	 0.688076 
657.000000	 0.685644 
656.000000	 0.683236 
655.000000	 0.680828 
654.000000	 0.678420 
653.000000	 0.675964 
652.000000	 0.673484 
651.000000	 0.670957 
650.000000	 0.668454 
649.000000	 0.665926 
648.000000	 0.663399 
647.000000	 0.660920 
646.000000	 0.658416 
645.000000	 0.655913 
644.000000	 0.653338 
643.000000	 0.650715 
642.000000	 0.647926 
641.000000	 0.644993 
640.000000	 0.641965 
639.000000	 0.638842 
638.000000	 0.635671 
637.000000	 0.632524 
636.000000	 0.629472 
635.000000	 0.626587 
634.000000	 0.623869 
633.000000	 0.621318 
632.000000	 0.618910 
631.000000	 0.616645 
630.000000	 0.614380 
629.000000	 0.612115 
628.000000	 0.609803 
627.000000	 0.607347 
626.000000	 0.604796 
625.000000	 0.602173 
624.000000	 0.599455 
623.000000	 0.596642 
622.000000	 0.593781 
621.000000	 0.590801 
620.000000	 0.587701 
619.000000	 0.584411 
618.000000	 0.580930 
617.000000	 0.577139 
616.000000	 0.572991 
615.000000	 0.568461 
614.000000	 0.563549 
613.000000	 0.558257 
612.000000	 0.552773 
611.000000	 0.547170 
610.000000	 0.541663 
609.000000	 0.536417 
608.000000	 0.531673 
607.000000	 0.527572 
606.000000	 0.524330 
605.000000	 0.521945 
604.000000	 0.520396 
603.000000	 0.519537 
602.000000	 0.519323 
601.000000	 0.519442 
600.000000	 0.519776 
599.000000	 0.520086 
598.000000	 0.520205 
597.000000	 0.520110 
596.000000	 0.519609 
595.000000	 0.518846 
594.000000	 0.517821 
593.000000	 0.516533 
592.000000	 0.515127 
591.000000	 0.513625 
590.000000	 0.512123 
589.000000	 0.510668 
588.000000	 0.509309 
587.000000	 0.508069 
586.000000	 0.506973 
585.000000	 0.505995 
584.000000	 0.505137 
583.000000	 0.504374 
582.000000	 0.503635 
581.000000	 0.502920 
580.000000	 0.502181 
579.000000	 0.501394 
578.000000	 0.500583 
577.000000	 0.499749 
576.000000	 0.498914 
575.000000	 0.498104 
574.000000	 0.497341 
573.000000	 0.496554 
572.000000	 0.495743 
571.000000	 0.494861 
570.000000	 0.493860 
569.000000	 0.492715 
568.000000	 0.491380 
567.000000	 0.489878 
566.000000	 0.488257 
565.000000	 0.486493 
564.000000	 0.484728 
563.000000	 0.482940 
562.000000	 0.481200 
561.000000	 0.479507 
560.000000	 0.477910 
559.000000	 0.476336 
558.000000	 0.474786 
557.000000	 0.473213 
556.000000	 0.471639 
555.000000	 0.470018 
554.000000	 0.468373 
553.000000	 0.466656 
552.000000	 0.464892 
551.000000	 0.463056 
550.000000	 0.461196 
549.000000	 0.459313 
548.000000	 0.457429 
547.000000	 0.455570 
546.000000	 0.453686 
545.000000	 0.451827 
544.000000	 0.449967 
543.000000	 0.448107 
542.000000	 0.446224 
541.000000	 0.444293 
540.000000	 0.442385 
539.000000	 0.440454 
538.000000	 0.438570 
537.000000	 0.436663 
536.000000	 0.434780 
535.000000	 0.432896 
534.000000	 0.430989 
533.000000	 0.429034 
532.000000	 0.426983 
531.000000	 0.424814 
530.000000	 0.422501 
529.000000	 0.420069 
528.000000	 0.417590 
527.000000	 0.415015 
526.000000	 0.412535 
525.000000	 0.410056 
524.000000	 0.407648 
523.000000	 0.405359 
522.000000	 0.403118 
521.000000	 0.400900 
520.000000	 0.398659 
519.000000	 0.396418 
518.000000	 0.394153 
517.000000	 0.391840 
516.000000	 0.389528 
515.000000	 0.387096 
514.000000	 0.384664 
513.000000	 0.382184 
512.000000	 0.379657 
511.000000	 0.377106 
510.000000	 0.374484 
509.000000	 0.371837 
508.000000	 0.369119 
507.000000	 0.366353 
506.000000	 0.363445 
505.000000	 0.360488 
504.000000	 0.357389 
503.000000	 0.354242 
502.000000	 0.351023 
501.000000	 0.347733 
500.000000	 0.344419 
499.000000	 0.341033 
498.000000	 0.337696 
497.000000	 0.334382 
496.000000	 0.331091 
495.000000	 0.327777 
494.000000	 0.324487 
493.000000	 0.321173 
492.000000	 0.317835 
491.000000	 0.314450 
490.000000	 0.310993 
489.000000	 0.307464 
488.000000	 0.303840 
487.000000	 0.300145 
486.000000	 0.296425 
485.000000	 0.292682 
484.000000	 0.289011 
483.000000	 0.285410 
482.000000	 0.281906 
481.000000	 0.278568 
480.000000	 0.275397 
479.000000	 0.272393 
478.000000	 0.269460 
477.000000	 0.266623 
476.000000	 0.263762 
475.000000	 0.260901 
474.000000	 0.257945 
473.000000	 0.254893 
472.000000	 0.251746 
471.000000	 0.248527 
470.000000	 0.245213 
469.000000	 0.241851 
468.000000	 0.238442 
467.000000	 0.235009 
466.000000	 0.231552 
465.000000	 0.228071 
464.000000	 0.224566 
463.000000	 0.221014 
462.000000	 0.217437 
461.000000	 0.213766 
460.000000	 0.210022 
459.000000	 0.206255 
458.000000	 0.202369 
457.000000	 0.198435 
456.000000	 0.194478 
455.000000	 0.190591 
454.000000	 0.186777 
453.000000	 0.183129 
452.000000	 0.179696 
451.000000	 0.176525 
450.000000	 0.173640 
449.000000	 0.170993 
448.000000	 0.168514 
447.000000	 0.166153 
446.000000	 0.163841 
445.000000	 0.161457 
444.000000	 0.159025 
443.000000	 0.156474 
442.000000	 0.153851 
441.000000	 0.151181 
440.000000	 0.148463 
439.000000	 0.145745 
438.000000	 0.143027 
437.000000	 0.140333 
436.000000	 0.137615 
435.000000	 0.134825 
434.000000	 0.131964 
433.000000	 0.128984 
432.000000	 0.125908 
431.000000	 0.122714 
430.000000	 0.119400 
429.000000	 0.116014 
428.000000	 0.112533 
427.000000	 0.108957 
426.000000	 0.105381 
425.000000	 0.101780 
424.000000	 0.098228 
423.000000	 0.094723 
422.000000	 0.091290 
421.000000	 0.088000 
420.000000	 0.084853 
419.000000	 0.081872 
418.000000	 0.079059 
417.000000	 0.076317 
416.000000	 0.073695 
415.000000	 0.071191 
414.000000	 0.068712 
413.000000	 0.066280 
412.000000	 0.063872 
411.000000	 0.061535 
410.000000	 0.059223 
409.000000	 0.056934 
408.000000	 0.054693 
407.000000	 0.052499 
406.000000	 0.050425 
405.000000	 0.048422 
404.000000	 0.046563 
403.000000	 0.044775 
402.000000	 0.043106 
401.000000	 0.041413 
400.000000	 0.039768 
399.000000	 0.038075 
398.000000	 0.036334 
397.000000	 0.034546 
396.000000	 0.032687 
395.000000	 0.030803 
394.000000	 0.028967 
393.000000	 0.027203 
392.000000	 0.025558 
391.000000	 0.024032 
390.000000	 0.022721 
389.000000	 0.021529 
388.000000	 0.020408 
387.000000	 0.019383 
386.000000	 0.018429 
385.000000	 0.017499 
384.000000	 0.016522 
383.000000	 0.015568 
382.000000	 0.014615 
381.000000	 0.013613 
380.000000	 0.012707 
379.000000	 0.011801 
378.000000	 0.010943 
377.000000	 0.010156 
376.000000	 0.009417 
375.000000	 0.008749 
374.000000	 0.008130 
373.000000	 0.007581 
372.000000	 0.007057 
371.000000	 0.006628 
370.000000	 0.006222 

