PE IR       SPECTRUM    SPECTRUM    ASCII       PEDS        1.60        
  -1
C-1BA1~1.ASC
17/05/02
11:52:50.00
17/05/02
11:52:50.00
tln
$C-4040-8_e0038$<ebV0>[-23.3,12.1,10.0,0.0,22,1,0]
370.000000
64









2002,4.07    
MIRTGS : RIGHTBACK : INTERNAL 2
MIR : ON : INTERNAL 2
OPTKBR

0.200000
8
8.000000
FILLER
SINGLE
SPECTRUM
UNLOCKED 256

DOUBLE

COMBINED
1
0
0


1.000000
BACKG


1
0
TRUE
51149
0
LEFT NOT FITTED RIGHT NOT FITTED 0
NONE
NONE
15600
12.000000
4.427000
51148
TRUE
1 0 8 72 0 0 0 0 

15798.010000






#HDR
-1
-1
#GR
CM-1
EGY
0.00002384185791015625
0.0
7800.000000
-1.000000
7431
8
2.449655
0.008630
#DATA
7800.000000	0.033617 
7799.000000	0.034141 
7798.000000	0.034618 
7797.000000	0.035071 
7796.000000	0.035429 
7795.000000	0.035738 
7794.000000	0.035953 
7793.000000	0.036096 
7792.000000	0.036239 
7791.000000	0.036358 
7790.000000	0.036501 
7789.000000	0.036692 
7788.000000	0.036907 
7787.000000	0.037169 
7786.000000	0.037407 
7785.000000	0.037622 
7784.000000	0.037860 
7783.000000	0.038051 
7782.000000	0.038242 
7781.000000	0.038433 
7780.000000	0.038671 
7779.000000	0.038909 
7778.000000	0.039219 
7777.000000	0.039505 
7776.000000	0.039768 
7775.000000	0.039982 
7774.000000	0.040149 
7773.000000	0.040149 
7772.000000	0.040078 
7771.000000	0.039887 
7770.000000	0.039625 
7769.000000	0.039386 
7768.000000	0.039196 
7767.000000	0.039100 
7766.000000	0.039100 
7765.000000	0.039243 
7764.000000	0.039529 
7763.000000	0.039887 
7762.000000	0.040268 
7761.000000	0.040626 
7760.000000	0.040888 
7759.000000	0.041103 
7758.000000	0.041270 
7757.000000	0.041413 
7756.000000	0.041627 
7755.000000	0.041961 
7754.000000	0.042462 
7753.000000	0.043153 
7752.000000	0.044012 
7751.000000	0.044941 
7750.000000	0.045895 
7749.000000	0.046753 
7748.000000	0.047373 
7747.000000	0.047731 
7746.000000	0.047779 
7745.000000	0.047516 
7744.000000	0.047087 
7743.000000	0.046539 
7742.000000	0.046014 
7741.000000	0.045657 
7740.000000	0.045490 
7739.000000	0.045561 
7738.000000	0.045847 
7737.000000	0.046253 
7736.000000	0.046777 
7735.000000	0.047254 
7734.000000	0.047659 
7733.000000	0.047922 
7732.000000	0.048089 
7731.000000	0.048184 
7730.000000	0.048255 
7729.000000	0.048327 
7728.000000	0.048422 
7727.000000	0.048565 
7726.000000	0.048732 
7725.000000	0.048899 
7724.000000	0.049018 
7723.000000	0.049066 
7722.000000	0.049066 
7721.000000	0.048923 
7720.000000	0.048804 
7719.000000	0.048661 
7718.000000	0.048542 
7717.000000	0.048542 
7716.000000	0.048661 
7715.000000	0.048947 
7714.000000	0.049328 
7713.000000	0.049781 
7712.000000	0.050258 
7711.000000	0.050711 
7710.000000	0.051116 
7709.000000	0.051379 
7708.000000	0.051498 
7707.000000	0.051546 
7706.000000	0.051546 
7705.000000	0.051498 
7704.000000	0.051450 
7703.000000	0.051498 
7702.000000	0.051617 
7701.000000	0.051903 
7700.000000	0.052285 
7699.000000	0.052833 
7698.000000	0.053477 
7697.000000	0.054168 
7696.000000	0.054883 
7695.000000	0.055575 
7694.000000	0.056219 
7693.000000	0.056743 
7692.000000	0.057196 
7691.000000	0.057506 
7690.000000	0.057768 
7689.000000	0.057911 
7688.000000	0.057983 
7687.000000	0.058007 
7686.000000	0.057983 
7685.000000	0.057888 
7684.000000	0.057768 
7683.000000	0.057649 
7682.000000	0.057554 
7681.000000	0.057458 
7680.000000	0.057435 
7679.000000	0.057458 
7678.000000	0.057506 
7677.000000	0.057625 
7676.000000	0.057744 
7675.000000	0.057840 
7674.000000	0.057911 
7673.000000	0.057935 
7672.000000	0.057959 
7671.000000	0.057983 
7670.000000	0.058007 
7669.000000	0.058150 
7668.000000	0.058317 
7667.000000	0.058650 
7666.000000	0.059056 
7665.000000	0.059556 
7664.000000	0.060176 
7663.000000	0.060796 
7662.000000	0.061392 
7661.000000	0.061917 
7660.000000	0.062322 
7659.000000	0.062584 
7658.000000	0.062656 
7657.000000	0.062608 
7656.000000	0.062441 
7655.000000	0.062251 
7654.000000	0.062060 
7653.000000	0.061964 
7652.000000	0.061988 
7651.000000	0.062131 
7650.000000	0.062417 
7649.000000	0.062823 
7648.000000	0.063300 
7647.000000	0.063872 
7646.000000	0.064444 
7645.000000	0.064945 
7644.000000	0.065350 
7643.000000	0.065684 
7642.000000	0.065851 
7641.000000	0.065922 
7640.000000	0.065851 
7639.000000	0.065684 
7638.000000	0.065422 
7637.000000	0.065159 
7636.000000	0.064873 
7635.000000	0.064635 
7634.000000	0.064468 
7633.000000	0.064396 
7632.000000	0.064373 
7631.000000	0.064420 
7630.000000	0.064563 
7629.000000	0.064730 
7628.000000	0.064921 
7627.000000	0.065159 
7626.000000	0.065445 
7625.000000	0.065732 
7624.000000	0.066089 
7623.000000	0.066471 
7622.000000	0.066852 
7621.000000	0.067281 
7620.000000	0.067710 
7619.000000	0.068140 
7618.000000	0.068593 
7617.000000	0.068998 
7616.000000	0.069451 
7615.000000	0.069856 
7614.000000	0.070261 
7613.000000	0.070595 
7612.000000	0.070738 
7611.000000	0.070714 
7610.000000	0.070524 
7609.000000	0.070095 
7608.000000	0.069499 
7607.000000	0.068831 
7606.000000	0.068163 
7605.000000	0.067639 
7604.000000	0.067353 
7603.000000	0.067329 
7602.000000	0.067639 
7601.000000	0.068187 
7600.000000	0.068950 
7599.000000	0.069832 
7598.000000	0.070714 
7597.000000	0.071525 
7596.000000	0.072216 
7595.000000	0.072813 
7594.000000	0.073218 
7593.000000	0.073480 
7592.000000	0.073647 
7591.000000	0.073671 
7590.000000	0.073575 
7589.000000	0.073361 
7588.000000	0.073075 
7587.000000	0.072717 
7586.000000	0.072312 
7585.000000	0.071907 
7584.000000	0.071549 
7583.000000	0.071334 
7582.000000	0.071239 
7581.000000	0.071263 
7580.000000	0.071430 
7579.000000	0.071763 
7578.000000	0.072121 
7577.000000	0.072526 
7576.000000	0.072932 
7575.000000	0.073266 
7574.000000	0.073599 
7573.000000	0.073885 
7572.000000	0.074124 
7571.000000	0.074338 
7570.000000	0.074553 
7569.000000	0.074744 
7568.000000	0.074982 
7567.000000	0.075221 
7566.000000	0.075411 
7565.000000	0.075554 
7564.000000	0.075578 
7563.000000	0.075531 
7562.000000	0.075387 
7561.000000	0.075197 
7560.000000	0.075054 
7559.000000	0.074958 
7558.000000	0.074982 
7557.000000	0.075149 
7556.000000	0.075459 
7555.000000	0.075888 
7554.000000	0.076389 
7553.000000	0.076889 
7552.000000	0.077319 
7551.000000	0.077676 
7550.000000	0.077867 
7549.000000	0.077962 
7548.000000	0.077939 
7547.000000	0.077867 
7546.000000	0.077772 
7545.000000	0.077676 
7544.000000	0.077581 
7543.000000	0.077509 
7542.000000	0.077462 
7541.000000	0.077414 
7540.000000	0.077414 
7539.000000	0.077438 
7538.000000	0.077509 
7537.000000	0.077605 
7536.000000	0.077748 
7535.000000	0.077915 
7534.000000	0.078129 
7533.000000	0.078344 
7532.000000	0.078535 
7531.000000	0.078701 
7530.000000	0.078821 
7529.000000	0.078892 
7528.000000	0.078892 
7527.000000	0.078821 
7526.000000	0.078725 
7525.000000	0.078582 
7524.000000	0.078439 
7523.000000	0.078344 
7522.000000	0.078296 
7521.000000	0.078368 
7520.000000	0.078487 
7519.000000	0.078701 
7518.000000	0.078988 
7517.000000	0.079298 
7516.000000	0.079607 
7515.000000	0.079870 
7514.000000	0.080084 
7513.000000	0.080251 
7512.000000	0.080323 
7511.000000	0.080370 
7510.000000	0.080394 
7509.000000	0.080466 
7508.000000	0.080537 
7507.000000	0.080657 
7506.000000	0.080823 
7505.000000	0.080990 
7504.000000	0.081181 
7503.000000	0.081348 
7502.000000	0.081515 
7501.000000	0.081682 
7500.000000	0.081896 
7499.000000	0.082135 
7498.000000	0.082468 
7497.000000	0.082802 
7496.000000	0.083208 
7495.000000	0.083661 
7494.000000	0.084090 
7493.000000	0.084495 
7492.000000	0.084900 
7491.000000	0.085210 
7490.000000	0.085449 
7489.000000	0.085639 
7488.000000	0.085783 
7487.000000	0.085902 
7486.000000	0.085997 
7485.000000	0.086092 
7484.000000	0.086140 
7483.000000	0.086212 
7482.000000	0.086283 
7481.000000	0.086331 
7480.000000	0.086379 
7479.000000	0.086474 
7478.000000	0.086593 
7477.000000	0.086736 
7476.000000	0.086903 
7475.000000	0.087118 
7474.000000	0.087308 
7473.000000	0.087475 
7472.000000	0.087594 
7471.000000	0.087618 
7470.000000	0.087618 
7469.000000	0.087547 
7468.000000	0.087451 
7467.000000	0.087356 
7466.000000	0.087308 
7465.000000	0.087285 
7464.000000	0.087308 
7463.000000	0.087356 
7462.000000	0.087428 
7461.000000	0.087499 
7460.000000	0.087571 
7459.000000	0.087642 
7458.000000	0.087714 
7457.000000	0.087761 
7456.000000	0.087833 
7455.000000	0.087881 
7454.000000	0.087904 
7453.000000	0.087904 
7452.000000	0.087928 
7451.000000	0.087928 
7450.000000	0.087809 
7449.000000	0.087738 
7448.000000	0.087642 
7447.000000	0.087594 
7446.000000	0.087618 
7445.000000	0.087761 
7444.000000	0.088071 
7443.000000	0.088548 
7442.000000	0.089168 
7441.000000	0.089979 
7440.000000	0.090789 
7439.000000	0.091624 
7438.000000	0.092315 
7437.000000	0.092840 
7436.000000	0.093102 
7435.000000	0.093126 
7434.000000	0.092911 
7433.000000	0.092482 
7432.000000	0.091981 
7431.000000	0.091481 
7430.000000	0.091028 
7429.000000	0.090718 
7428.000000	0.090551 
7427.000000	0.090527 
7426.000000	0.090599 
7425.000000	0.090718 
7424.000000	0.090813 
7423.000000	0.090861 
7422.000000	0.090837 
7421.000000	0.090765 
7420.000000	0.090670 
7419.000000	0.090599 
7418.000000	0.090575 
7417.000000	0.090646 
7416.000000	0.090837 
7415.000000	0.091123 
7414.000000	0.091457 
7413.000000	0.091791 
7412.000000	0.092124 
7411.000000	0.092387 
7410.000000	0.092554 
7409.000000	0.092649 
7408.000000	0.092720 
7407.000000	0.092768 
7406.000000	0.092864 
7405.000000	0.093054 
7404.000000	0.093293 
7403.000000	0.093603 
7402.000000	0.093984 
7401.000000	0.094318 
7400.000000	0.094652 
7399.000000	0.094866 
7398.000000	0.095033 
7397.000000	0.095105 
7396.000000	0.095057 
7395.000000	0.094985 
7394.000000	0.094938 
7393.000000	0.094890 
7392.000000	0.094866 
7391.000000	0.094866 
7390.000000	0.094914 
7389.000000	0.095009 
7388.000000	0.095129 
7387.000000	0.095319 
7386.000000	0.095510 
7385.000000	0.095701 
7384.000000	0.095915 
7383.000000	0.096106 
7382.000000	0.096297 
7381.000000	0.096511 
7380.000000	0.096702 
7379.000000	0.096869 
7378.000000	0.097012 
7377.000000	0.097155 
7376.000000	0.097298 
7375.000000	0.097417 
7374.000000	0.097537 
7373.000000	0.097703 
7372.000000	0.097918 
7371.000000	0.098156 
7370.000000	0.098466 
7369.000000	0.098752 
7368.000000	0.099015 
7367.000000	0.099229 
7366.000000	0.099325 
7365.000000	0.099325 
7364.000000	0.099229 
7363.000000	0.099062 
7362.000000	0.098896 
7361.000000	0.098824 
7360.000000	0.098824 
7359.000000	0.098919 
7358.000000	0.099158 
7357.000000	0.099444 
7356.000000	0.099682 
7355.000000	0.099873 
7354.000000	0.099921 
7353.000000	0.099873 
7352.000000	0.099802 
7351.000000	0.099706 
7350.000000	0.099706 
7349.000000	0.099825 
7348.000000	0.100111 
7347.000000	0.100564 
7346.000000	0.101137 
7345.000000	0.101757 
7344.000000	0.102400 
7343.000000	0.102996 
7342.000000	0.103473 
7341.000000	0.103926 
7340.000000	0.104331 
7339.000000	0.104689 
7338.000000	0.104999 
7337.000000	0.105237 
7336.000000	0.105404 
7335.000000	0.105381 
7334.000000	0.105166 
7333.000000	0.104761 
7332.000000	0.104236 
7331.000000	0.103545 
7330.000000	0.102853 
7329.000000	0.102162 
7328.000000	0.101566 
7327.000000	0.101089 
7326.000000	0.100803 
7325.000000	0.100660 
7324.000000	0.100708 
7323.000000	0.100827 
7322.000000	0.101089 
7321.000000	0.101518 
7320.000000	0.102043 
7319.000000	0.102686 
7318.000000	0.103449 
7317.000000	0.104260 
7316.000000	0.105142 
7315.000000	0.106000 
7314.000000	0.106835 
7313.000000	0.107598 
7312.000000	0.108242 
7311.000000	0.108647 
7310.000000	0.108909 
7309.000000	0.109004 
7308.000000	0.108933 
7307.000000	0.108671 
7306.000000	0.108289 
7305.000000	0.107860 
7304.000000	0.107407 
7303.000000	0.107002 
7302.000000	0.106644 
7301.000000	0.106430 
7300.000000	0.106263 
7299.000000	0.106191 
7298.000000	0.106167 
7297.000000	0.106239 
7296.000000	0.106358 
7295.000000	0.106549 
7294.000000	0.106787 
7293.000000	0.107121 
7292.000000	0.107574 
7291.000000	0.108146 
7290.000000	0.108790 
7289.000000	0.109553 
7288.000000	0.110340 
7287.000000	0.111174 
7286.000000	0.111961 
7285.000000	0.112700 
7284.000000	0.113320 
7283.000000	0.113797 
7282.000000	0.114083 
7281.000000	0.114202 
7280.000000	0.114130 
7279.000000	0.113892 
7278.000000	0.113534 
7277.000000	0.113105 
7276.000000	0.112605 
7275.000000	0.112104 
7274.000000	0.111603 
7273.000000	0.111222 
7272.000000	0.110983 
7271.000000	0.110816 
7270.000000	0.110840 
7269.000000	0.111055 
7268.000000	0.111389 
7267.000000	0.111889 
7266.000000	0.112509 
7265.000000	0.113129 
7264.000000	0.113773 
7263.000000	0.114369 
7262.000000	0.114870 
7261.000000	0.115227 
7260.000000	0.115466 
7259.000000	0.115609 
7258.000000	0.115656 
7257.000000	0.115633 
7256.000000	0.115561 
7255.000000	0.115466 
7254.000000	0.115370 
7253.000000	0.115203 
7252.000000	0.114989 
7251.000000	0.114703 
7250.000000	0.114393 
7249.000000	0.114011 
7248.000000	0.113654 
7247.000000	0.113344 
7246.000000	0.113129 
7245.000000	0.113081 
7244.000000	0.113201 
7243.000000	0.113487 
7242.000000	0.113940 
7241.000000	0.114536 
7240.000000	0.115132 
7239.000000	0.115776 
7238.000000	0.116348 
7237.000000	0.116872 
7236.000000	0.117278 
7235.000000	0.117635 
7234.000000	0.117897 
7233.000000	0.118160 
7232.000000	0.118374 
7231.000000	0.118589 
7230.000000	0.118780 
7229.000000	0.118970 
7228.000000	0.119113 
7227.000000	0.119161 
7226.000000	0.119209 
7225.000000	0.119185 
7224.000000	0.119161 
7223.000000	0.119113 
7222.000000	0.119113 
7221.000000	0.119137 
7220.000000	0.119161 
7219.000000	0.119233 
7218.000000	0.119280 
7217.000000	0.119328 
7216.000000	0.119376 
7215.000000	0.119400 
7214.000000	0.119447 
7213.000000	0.119519 
7212.000000	0.119662 
7211.000000	0.119853 
7210.000000	0.120115 
7209.000000	0.120472 
7208.000000	0.120878 
7207.000000	0.121283 
7206.000000	0.121736 
7205.000000	0.122141 
7204.000000	0.122547 
7203.000000	0.122928 
7202.000000	0.123262 
7201.000000	0.123548 
7200.000000	0.123810 
7199.000000	0.124001 
7198.000000	0.124192 
7197.000000	0.124335 
7196.000000	0.124454 
7195.000000	0.124526 
7194.000000	0.124597 
7193.000000	0.124621 
7192.000000	0.124645 
7191.000000	0.124645 
7190.000000	0.124669 
7189.000000	0.124692 
7188.000000	0.124716 
7187.000000	0.124764 
7186.000000	0.124835 
7185.000000	0.124907 
7184.000000	0.124955 
7183.000000	0.124955 
7182.000000	0.124931 
7181.000000	0.124788 
7180.000000	0.124621 
7179.000000	0.124406 
7178.000000	0.124144 
7177.000000	0.123953 
7176.000000	0.123858 
7175.000000	0.123929 
7174.000000	0.124168 
7173.000000	0.124645 
7172.000000	0.125312 
7171.000000	0.126147 
7170.000000	0.127124 
7169.000000	0.128149 
7168.000000	0.129151 
7167.000000	0.130128 
7166.000000	0.130963 
7165.000000	0.131583 
7164.000000	0.132012 
7163.000000	0.132179 
7162.000000	0.132131 
7161.000000	0.131821 
7160.000000	0.131344 
7159.000000	0.130748 
7158.000000	0.130057 
7157.000000	0.129365 
7156.000000	0.128722 
7155.000000	0.128245 
7154.000000	0.127959 
7153.000000	0.127911 
7152.000000	0.128078 
7151.000000	0.128483 
7150.000000	0.129032 
7149.000000	0.129675 
7148.000000	0.130295 
7147.000000	0.130844 
7146.000000	0.131225 
7145.000000	0.131416 
7144.000000	0.131440 
7143.000000	0.131297 
7142.000000	0.131082 
7141.000000	0.130844 
7140.000000	0.130701 
7139.000000	0.130653 
7138.000000	0.130796 
7137.000000	0.131011 
7136.000000	0.131344 
7135.000000	0.131678 
7134.000000	0.132012 
7133.000000	0.132226 
7132.000000	0.132369 
7131.000000	0.132393 
7130.000000	0.132298 
7129.000000	0.132131 
7128.000000	0.131916 
7127.000000	0.131726 
7126.000000	0.131535 
7125.000000	0.131440 
7124.000000	0.131464 
7123.000000	0.131559 
7122.000000	0.131726 
7121.000000	0.131988 
7120.000000	0.132298 
7119.000000	0.132584 
7118.000000	0.132799 
7117.000000	0.132918 
7116.000000	0.132966 
7115.000000	0.132894 
7114.000000	0.132775 
7113.000000	0.132679 
7112.000000	0.132632 
7111.000000	0.132703 
7110.000000	0.132918 
7109.000000	0.133275 
7108.000000	0.133728 
7107.000000	0.134229 
7106.000000	0.134730 
7105.000000	0.135183 
7104.000000	0.135588 
7103.000000	0.135922 
7102.000000	0.136184 
7101.000000	0.136375 
7100.000000	0.136542 
7099.000000	0.136685 
7098.000000	0.136828 
7097.000000	0.136971 
7096.000000	0.137114 
7095.000000	0.137257 
7094.000000	0.137376 
7093.000000	0.137543 
7092.000000	0.137710 
7091.000000	0.137853 
7090.000000	0.138044 
7089.000000	0.138258 
7088.000000	0.138425 
7087.000000	0.138592 
7086.000000	0.138759 
7085.000000	0.138878 
7084.000000	0.138998 
7083.000000	0.139141 
7082.000000	0.139284 
7081.000000	0.139451 
7080.000000	0.139689 
7079.000000	0.139951 
7078.000000	0.140261 
7077.000000	0.140547 
7076.000000	0.140857 
7075.000000	0.141096 
7074.000000	0.141286 
7073.000000	0.141334 
7072.000000	0.141286 
7071.000000	0.141119 
7070.000000	0.140810 
7069.000000	0.140357 
7068.000000	0.139832 
7067.000000	0.139236 
7066.000000	0.138616 
7065.000000	0.138020 
7064.000000	0.137519 
7063.000000	0.137186 
7062.000000	0.137066 
7061.000000	0.137186 
7060.000000	0.137543 
7059.000000	0.138163 
7058.000000	0.138926 
7057.000000	0.139832 
7056.000000	0.140833 
7055.000000	0.141882 
7054.000000	0.142931 
7053.000000	0.143957 
7052.000000	0.144910 
7051.000000	0.145792 
7050.000000	0.146555 
7049.000000	0.147128 
7048.000000	0.147533 
7047.000000	0.147700 
7046.000000	0.147676 
7045.000000	0.147390 
7044.000000	0.147008 
7043.000000	0.146484 
7042.000000	0.146007 
7041.000000	0.145602 
7040.000000	0.145411 
7039.000000	0.145411 
7038.000000	0.145745 
7037.000000	0.146341 
7036.000000	0.147151 
7035.000000	0.148177 
7034.000000	0.149297 
7033.000000	0.150442 
7032.000000	0.151467 
7031.000000	0.152254 
7030.000000	0.152659 
7029.000000	0.152587 
7028.000000	0.152087 
7027.000000	0.151085 
7026.000000	0.149750 
7025.000000	0.148224 
7024.000000	0.146770 
7023.000000	0.145578 
7022.000000	0.144839 
7021.000000	0.144696 
7020.000000	0.145149 
7019.000000	0.146150 
7018.000000	0.147581 
7017.000000	0.149154 
7016.000000	0.150680 
7015.000000	0.152015 
7014.000000	0.153040 
7013.000000	0.153708 
7012.000000	0.154042 
7011.000000	0.154089 
7010.000000	0.153946 
7009.000000	0.153708 
7008.000000	0.153493 
7007.000000	0.153303 
7006.000000	0.153136 
7005.000000	0.153064 
7004.000000	0.153017 
7003.000000	0.152945 
7002.000000	0.152826 
7001.000000	0.152683 
7000.000000	0.152492 
6999.000000	0.152301 
6998.000000	0.152111 
6997.000000	0.151991 
6996.000000	0.151991 
6995.000000	0.152182 
6994.000000	0.152587 
6993.000000	0.153183 
6992.000000	0.153994 
6991.000000	0.154948 
6990.000000	0.155925 
6989.000000	0.156903 
6988.000000	0.157713 
6987.000000	0.158309 
6986.000000	0.158619 
6985.000000	0.158691 
6984.000000	0.158500 
6983.000000	0.158119 
6982.000000	0.157594 
6981.000000	0.157070 
6980.000000	0.156545 
6979.000000	0.156116 
6978.000000	0.155806 
6977.000000	0.155568 
6976.000000	0.155448 
6975.000000	0.155377 
6974.000000	0.155305 
6973.000000	0.155210 
6972.000000	0.155115 
6971.000000	0.154995 
6970.000000	0.154876 
6969.000000	0.154805 
6968.000000	0.154781 
6967.000000	0.154829 
6966.000000	0.154995 
6965.000000	0.155258 
6964.000000	0.155615 
6963.000000	0.156044 
6962.000000	0.156474 
6961.000000	0.156879 
6960.000000	0.157284 
6959.000000	0.157690 
6958.000000	0.158071 
6957.000000	0.158429 
6956.000000	0.158739 
6955.000000	0.159025 
6954.000000	0.159239 
6953.000000	0.159335 
6952.000000	0.159335 
6951.000000	0.159168 
6950.000000	0.158882 
6949.000000	0.158452 
6948.000000	0.157976 
6947.000000	0.157499 
6946.000000	0.157117 
6945.000000	0.156831 
6944.000000	0.156688 
6943.000000	0.156736 
6942.000000	0.156974 
6941.000000	0.157356 
6940.000000	0.157880 
6939.000000	0.158548 
6938.000000	0.159287 
6937.000000	0.160050 
6936.000000	0.160765 
6935.000000	0.161409 
6934.000000	0.161933 
6933.000000	0.162291 
6932.000000	0.162386 
6931.000000	0.162267 
6930.000000	0.161981 
6929.000000	0.161576 
6928.000000	0.161099 
6927.000000	0.160670 
6926.000000	0.160360 
6925.000000	0.160241 
6924.000000	0.160312 
6923.000000	0.160551 
6922.000000	0.160884 
6921.000000	0.161361 
6920.000000	0.161814 
6919.000000	0.162220 
6918.000000	0.162577 
6917.000000	0.162863 
6916.000000	0.163173 
6915.000000	0.163483 
6914.000000	0.163793 
6913.000000	0.164175 
6912.000000	0.164604 
6911.000000	0.165057 
6910.000000	0.165486 
6909.000000	0.165820 
6908.000000	0.166034 
6907.000000	0.166082 
6906.000000	0.166010 
6905.000000	0.165820 
6904.000000	0.165534 
6903.000000	0.165271 
6902.000000	0.165081 
6901.000000	0.164961 
6900.000000	0.164914 
6899.000000	0.164985 
6898.000000	0.165104 
6897.000000	0.165224 
6896.000000	0.165319 
6895.000000	0.165390 
6894.000000	0.165462 
6893.000000	0.165510 
6892.000000	0.165605 
6891.000000	0.165748 
6890.000000	0.165939 
6889.000000	0.166225 
6888.000000	0.166487 
6887.000000	0.166702 
6886.000000	0.166869 
6885.000000	0.166964 
6884.000000	0.166893 
6883.000000	0.166773 
6882.000000	0.166583 
6881.000000	0.166392 
6880.000000	0.166249 
6879.000000	0.166201 
6878.000000	0.166296 
6877.000000	0.166463 
6876.000000	0.166726 
6875.000000	0.167036 
6874.000000	0.167393 
6873.000000	0.167751 
6872.000000	0.168108 
6871.000000	0.168418 
6870.000000	0.168728 
6869.000000	0.169062 
6868.000000	0.169444 
6867.000000	0.169873 
6866.000000	0.170350 
6865.000000	0.170850 
6864.000000	0.171375 
6863.000000	0.171875 
6862.000000	0.172281 
6861.000000	0.172638 
6860.000000	0.172924 
6859.000000	0.173163 
6858.000000	0.173401 
6857.000000	0.173616 
6856.000000	0.173878 
6855.000000	0.174140 
6854.000000	0.174403 
6853.000000	0.174593 
6852.000000	0.174736 
6851.000000	0.174784 
6850.000000	0.174665 
6849.000000	0.174427 
6848.000000	0.174093 
6847.000000	0.173687 
6846.000000	0.173258 
6845.000000	0.172948 
6844.000000	0.172758 
6843.000000	0.172734 
6842.000000	0.172877 
6841.000000	0.173187 
6840.000000	0.173664 
6839.000000	0.174140 
6838.000000	0.174570 
6837.000000	0.174903 
6836.000000	0.175046 
6835.000000	0.174999 
6834.000000	0.174736 
6833.000000	0.174331 
6832.000000	0.173878 
6831.000000	0.173425 
6830.000000	0.173091 
6829.000000	0.172948 
6828.000000	0.173044 
6827.000000	0.173330 
6826.000000	0.173854 
6825.000000	0.174546 
6824.000000	0.175333 
6823.000000	0.176191 
6822.000000	0.177049 
6821.000000	0.177812 
6820.000000	0.178432 
6819.000000	0.178885 
6818.000000	0.179171 
6817.000000	0.179266 
6816.000000	0.179171 
6815.000000	0.178909 
6814.000000	0.178527 
6813.000000	0.178122 
6812.000000	0.177741 
6811.000000	0.177407 
6810.000000	0.177168 
6809.000000	0.177049 
6808.000000	0.177049 
6807.000000	0.177121 
6806.000000	0.177240 
6805.000000	0.177335 
6804.000000	0.177431 
6803.000000	0.177502 
6802.000000	0.177526 
6801.000000	0.177550 
6800.000000	0.177550 
6799.000000	0.177621 
6798.000000	0.177764 
6797.000000	0.178003 
6796.000000	0.178313 
6795.000000	0.178718 
6794.000000	0.179243 
6793.000000	0.179839 
6792.000000	0.180482 
6791.000000	0.181174 
6790.000000	0.181865 
6789.000000	0.182533 
6788.000000	0.183153 
6787.000000	0.183701 
6786.000000	0.184226 
6785.000000	0.184655 
6784.000000	0.185060 
6783.000000	0.185465 
6782.000000	0.185894 
6781.000000	0.186300 
6780.000000	0.186705 
6779.000000	0.187039 
6778.000000	0.187301 
6777.000000	0.187397 
6776.000000	0.187301 
6775.000000	0.187015 
6774.000000	0.186538 
6773.000000	0.185918 
6772.000000	0.185251 
6771.000000	0.184559 
6770.000000	0.183987 
6769.000000	0.183606 
6768.000000	0.183415 
6767.000000	0.183463 
6766.000000	0.183749 
6765.000000	0.184178 
6764.000000	0.184631 
6763.000000	0.185084 
6762.000000	0.185441 
6761.000000	0.185608 
6760.000000	0.185632 
6759.000000	0.185489 
6758.000000	0.185227 
6757.000000	0.184965 
6756.000000	0.184774 
6755.000000	0.184702 
6754.000000	0.184845 
6753.000000	0.185203 
6752.000000	0.185728 
6751.000000	0.186395 
6750.000000	0.187087 
6749.000000	0.187754 
6748.000000	0.188231 
6747.000000	0.188541 
6746.000000	0.188660 
6745.000000	0.188589 
6744.000000	0.188398 
6743.000000	0.188159 
6742.000000	0.187945 
6741.000000	0.187802 
6740.000000	0.187778 
6739.000000	0.187921 
6738.000000	0.188159 
6737.000000	0.188493 
6736.000000	0.188827 
6735.000000	0.189137 
6734.000000	0.189399 
6733.000000	0.189566 
6732.000000	0.189685 
6731.000000	0.189781 
6730.000000	0.189876 
6729.000000	0.189995 
6728.000000	0.190091 
6727.000000	0.190234 
6726.000000	0.190353 
6725.000000	0.190448 
6724.000000	0.190520 
6723.000000	0.190520 
6722.000000	0.190496 
6721.000000	0.190472 
6720.000000	0.190472 
6719.000000	0.190615 
6718.000000	0.190830 
6717.000000	0.191187 
6716.000000	0.191688 
6715.000000	0.192236 
6714.000000	0.192832 
6713.000000	0.193405 
6712.000000	0.193834 
6711.000000	0.194168 
6710.000000	0.194358 
6709.000000	0.194430 
6708.000000	0.194358 
6707.000000	0.194191 
6706.000000	0.193953 
6705.000000	0.193667 
6704.000000	0.193333 
6703.000000	0.192952 
6702.000000	0.192618 
6701.000000	0.192284 
6700.000000	0.191998 
6699.000000	0.191879 
6698.000000	0.191855 
6697.000000	0.192022 
6696.000000	0.192403 
6695.000000	0.192952 
6694.000000	0.193595 
6693.000000	0.194287 
6692.000000	0.194907 
6691.000000	0.195431 
6690.000000	0.195789 
6689.000000	0.195956 
6688.000000	0.195956 
6687.000000	0.195813 
6686.000000	0.195622 
6685.000000	0.195431 
6684.000000	0.195288 
6683.000000	0.195240 
6682.000000	0.195288 
6681.000000	0.195455 
6680.000000	0.195670 
6679.000000	0.195860 
6678.000000	0.196027 
6677.000000	0.196075 
6676.000000	0.196027 
6675.000000	0.195884 
6674.000000	0.195693 
6673.000000	0.195431 
6672.000000	0.195217 
6671.000000	0.195026 
6670.000000	0.194907 
6669.000000	0.194811 
6668.000000	0.194764 
6667.000000	0.194764 
6666.000000	0.194787 
6665.000000	0.194859 
6664.000000	0.194931 
6663.000000	0.195002 
6662.000000	0.195121 
6661.000000	0.195312 
6660.000000	0.195574 
6659.000000	0.195908 
6658.000000	0.196361 
6657.000000	0.196909 
6656.000000	0.197505 
6655.000000	0.198125 
6654.000000	0.198698 
6653.000000	0.199127 
6652.000000	0.199437 
6651.000000	0.199580 
6650.000000	0.199532 
6649.000000	0.199365 
6648.000000	0.199174 
6647.000000	0.198984 
6646.000000	0.198864 
6645.000000	0.198888 
6644.000000	0.199007 
6643.000000	0.199246 
6642.000000	0.199508 
6641.000000	0.199747 
6640.000000	0.199842 
6639.000000	0.199818 
6638.000000	0.199627 
6637.000000	0.199294 
6636.000000	0.198864 
6635.000000	0.198364 
6634.000000	0.197839 
6633.000000	0.197362 
6632.000000	0.196981 
6631.000000	0.196671 
6630.000000	0.196433 
6629.000000	0.196313 
6628.000000	0.196194 
6627.000000	0.196218 
6626.000000	0.196337 
6625.000000	0.196552 
6624.000000	0.196933 
6623.000000	0.197410 
6622.000000	0.198078 
6621.000000	0.198864 
6620.000000	0.199747 
6619.000000	0.200700 
6618.000000	0.201582 
6617.000000	0.202369 
6616.000000	0.202965 
6615.000000	0.203299 
6614.000000	0.203371 
6613.000000	0.203108 
6612.000000	0.202631 
6611.000000	0.201964 
6610.000000	0.201225 
6609.000000	0.200533 
6608.000000	0.200033 
6607.000000	0.199770 
6606.000000	0.199794 
6605.000000	0.200080 
6604.000000	0.200605 
6603.000000	0.201225 
6602.000000	0.201821 
6601.000000	0.202298 
6600.000000	0.202536 
6599.000000	0.202512 
6598.000000	0.202202 
6597.000000	0.201654 
6596.000000	0.201058 
6595.000000	0.200462 
6594.000000	0.199985 
6593.000000	0.199770 
6592.000000	0.199890 
6591.000000	0.200247 
6590.000000	0.200867 
6589.000000	0.201630 
6588.000000	0.202512 
6587.000000	0.203299 
6586.000000	0.203967 
6585.000000	0.204491 
6584.000000	0.204825 
6583.000000	0.204968 
6582.000000	0.205016 
6581.000000	0.205016 
6580.000000	0.204992 
6579.000000	0.205063 
6578.000000	0.205206 
6577.000000	0.205469 
6576.000000	0.205802 
6575.000000	0.206160 
6574.000000	0.206494 
6573.000000	0.206804 
6572.000000	0.206995 
6571.000000	0.207066 
6570.000000	0.207018 
6569.000000	0.206899 
6568.000000	0.206708 
6567.000000	0.206494 
6566.000000	0.206303 
6565.000000	0.206041 
6564.000000	0.205826 
6563.000000	0.205659 
6562.000000	0.205540 
6561.000000	0.205445 
6560.000000	0.205421 
6559.000000	0.205492 
6558.000000	0.205659 
6557.000000	0.205874 
6556.000000	0.206160 
6555.000000	0.206470 
6554.000000	0.206756 
6553.000000	0.207018 
6552.000000	0.207233 
6551.000000	0.207424 
6550.000000	0.207662 
6549.000000	0.207901 
6548.000000	0.208234 
6547.000000	0.208663 
6546.000000	0.209188 
6545.000000	0.209712 
6544.000000	0.210261 
6543.000000	0.210714 
6542.000000	0.211095 
6541.000000	0.211310 
6540.000000	0.211429 
6539.000000	0.211381 
6538.000000	0.211238 
6537.000000	0.211071 
6536.000000	0.210881 
6535.000000	0.210785 
6534.000000	0.210809 
6533.000000	0.211048 
6532.000000	0.211429 
6531.000000	0.211954 
6530.000000	0.212526 
6529.000000	0.213146 
6528.000000	0.213718 
6527.000000	0.214195 
6526.000000	0.214481 
6525.000000	0.214576 
6524.000000	0.214505 
6523.000000	0.214314 
6522.000000	0.214052 
6521.000000	0.213766 
6520.000000	0.213456 
6519.000000	0.213265 
6518.000000	0.213122 
6517.000000	0.213074 
6516.000000	0.213146 
6515.000000	0.213313 
6514.000000	0.213623 
6513.000000	0.214004 
6512.000000	0.214457 
6511.000000	0.214958 
6510.000000	0.215458 
6509.000000	0.215888 
6508.000000	0.216174 
6507.000000	0.216364 
6506.000000	0.216388 
6505.000000	0.216317 
6504.000000	0.216197 
6503.000000	0.216054 
6502.000000	0.215983 
6501.000000	0.216007 
6500.000000	0.216150 
6499.000000	0.216364 
6498.000000	0.216698 
6497.000000	0.217056 
6496.000000	0.217390 
6495.000000	0.217676 
6494.000000	0.217914 
6493.000000	0.218105 
6492.000000	0.218296 
6491.000000	0.218510 
6490.000000	0.218796 
6489.000000	0.219130 
6488.000000	0.219535 
6487.000000	0.219988 
6486.000000	0.220489 
6485.000000	0.220966 
6484.000000	0.221347 
6483.000000	0.221705 
6482.000000	0.221991 
6481.000000	0.222229 
6480.000000	0.222420 
6479.000000	0.222587 
6478.000000	0.222730 
6477.000000	0.222849 
6476.000000	0.222969 
6475.000000	0.223040 
6474.000000	0.223064 
6473.000000	0.223016 
6472.000000	0.222921 
6471.000000	0.222826 
6470.000000	0.222682 
6469.000000	0.222587 
6468.000000	0.222539 
6467.000000	0.222563 
6466.000000	0.222659 
6465.000000	0.222802 
6464.000000	0.222992 
6463.000000	0.223278 
6462.000000	0.223660 
6461.000000	0.224184 
6460.000000	0.224781 
6459.000000	0.225472 
6458.000000	0.226259 
6457.000000	0.227069 
6456.000000	0.227832 
6455.000000	0.228571 
6454.000000	0.229120 
6453.000000	0.229525 
6452.000000	0.229716 
6451.000000	0.229692 
6450.000000	0.229501 
6449.000000	0.229167 
6448.000000	0.228738 
6447.000000	0.228285 
6446.000000	0.227856 
6445.000000	0.227475 
6444.000000	0.227212 
6443.000000	0.227117 
6442.000000	0.227165 
6441.000000	0.227355 
6440.000000	0.227761 
6439.000000	0.228285 
6438.000000	0.228929 
6437.000000	0.229692 
6436.000000	0.230503 
6435.000000	0.231432 
6434.000000	0.232434 
6433.000000	0.233411 
6432.000000	0.234436 
6431.000000	0.235414 
6430.000000	0.236344 
6429.000000	0.237059 
6428.000000	0.237584 
6427.000000	0.237774 
6426.000000	0.237703 
6425.000000	0.237369 
6424.000000	0.236749 
6423.000000	0.235986 
6422.000000	0.235128 
6421.000000	0.234317 
6420.000000	0.233554 
6419.000000	0.232982 
6418.000000	0.232625 
6417.000000	0.232434 
6416.000000	0.232481 
6415.000000	0.232744 
6414.000000	0.233101 
6413.000000	0.233578 
6412.000000	0.234103 
6411.000000	0.234603 
6410.000000	0.234961 
6409.000000	0.235199 
6408.000000	0.235342 
6407.000000	0.235295 
6406.000000	0.235223 
6405.000000	0.235152 
6404.000000	0.235128 
6403.000000	0.235223 
6402.000000	0.235462 
6401.000000	0.235867 
6400.000000	0.236368 
6399.000000	0.237011 
6398.000000	0.237703 
6397.000000	0.238466 
6396.000000	0.239253 
6395.000000	0.240111 
6394.000000	0.240898 
6393.000000	0.241637 
6392.000000	0.242280 
6391.000000	0.242829 
6390.000000	0.243234 
6389.000000	0.243544 
6388.000000	0.243735 
6387.000000	0.243878 
6386.000000	0.243973 
6385.000000	0.244092 
6384.000000	0.244259 
6383.000000	0.244522 
6382.000000	0.244855 
6381.000000	0.245237 
6380.000000	0.245571 
6379.000000	0.245904 
6378.000000	0.246191 
6377.000000	0.246381 
6376.000000	0.246548 
6375.000000	0.246644 
6374.000000	0.246739 
6373.000000	0.246858 
6372.000000	0.247025 
6371.000000	0.247216 
6370.000000	0.247406 
6369.000000	0.247645 
6368.000000	0.247859 
6367.000000	0.248026 
6366.000000	0.248146 
6365.000000	0.248193 
6364.000000	0.248217 
6363.000000	0.248241 
6362.000000	0.248289 
6361.000000	0.248408 
6360.000000	0.248527 
6359.000000	0.248765 
6358.000000	0.249075 
6357.000000	0.249385 
6356.000000	0.249695 
6355.000000	0.250029 
6354.000000	0.250315 
6353.000000	0.250577 
6352.000000	0.250816 
6351.000000	0.251078 
6350.000000	0.251364 
6349.000000	0.251698 
6348.000000	0.252127 
6347.000000	0.252652 
6346.000000	0.253224 
6345.000000	0.253820 
6344.000000	0.254392 
6343.000000	0.254940 
6342.000000	0.255417 
6341.000000	0.255823 
6340.000000	0.256156 
6339.000000	0.256395 
6338.000000	0.256657 
6337.000000	0.256896 
6336.000000	0.257134 
6335.000000	0.257396 
6334.000000	0.257635 
6333.000000	0.257873 
6332.000000	0.258088 
6331.000000	0.258278 
6330.000000	0.258445 
6329.000000	0.258636 
6328.000000	0.258803 
6327.000000	0.259041 
6326.000000	0.259280 
6325.000000	0.259542 
6324.000000	0.259828 
6323.000000	0.260043 
6322.000000	0.260210 
6321.000000	0.260281 
6320.000000	0.260353 
6319.000000	0.260400 
6318.000000	0.260519 
6317.000000	0.260758 
6316.000000	0.261139 
6315.000000	0.261688 
6314.000000	0.262403 
6313.000000	0.263166 
6312.000000	0.264000 
6311.000000	0.264716 
6310.000000	0.265336 
6309.000000	0.265765 
6308.000000	0.266003 
6307.000000	0.266027 
6306.000000	0.265955 
6305.000000	0.265812 
6304.000000	0.265645 
6303.000000	0.265526 
6302.000000	0.265431 
6301.000000	0.265455 
6300.000000	0.265574 
6299.000000	0.265765 
6298.000000	0.266003 
6297.000000	0.266337 
6296.000000	0.266647 
6295.000000	0.266957 
6294.000000	0.267314 
6293.000000	0.267624 
6292.000000	0.267982 
6291.000000	0.268387 
6290.000000	0.268793 
6289.000000	0.269174 
6288.000000	0.269603 
6287.000000	0.270032 
6286.000000	0.270509 
6285.000000	0.271010 
6284.000000	0.271582 
6283.000000	0.272226 
6282.000000	0.272965 
6281.000000	0.273823 
6280.000000	0.274729 
6279.000000	0.275635 
6278.000000	0.276470 
6277.000000	0.277137 
6276.000000	0.277590 
6275.000000	0.277733 
6274.000000	0.277638 
6273.000000	0.277352 
6272.000000	0.276899 
6271.000000	0.276398 
6270.000000	0.275993 
6269.000000	0.275683 
6268.000000	0.275516 
6267.000000	0.275516 
6266.000000	0.275683 
6265.000000	0.275945 
6264.000000	0.276231 
6263.000000	0.276565 
6262.000000	0.276851 
6261.000000	0.277113 
6260.000000	0.277423 
6259.000000	0.277757 
6258.000000	0.278139 
6257.000000	0.278592 
6256.000000	0.279068 
6255.000000	0.279641 
6254.000000	0.280261 
6253.000000	0.280904 
6252.000000	0.281524 
6251.000000	0.282144 
6250.000000	0.282716 
6249.000000	0.283169 
6248.000000	0.283575 
6247.000000	0.283861 
6246.000000	0.284028 
6245.000000	0.284123 
6244.000000	0.284123 
6243.000000	0.284147 
6242.000000	0.284171 
6241.000000	0.284290 
6240.000000	0.284457 
6239.000000	0.284743 
6238.000000	0.285148 
6237.000000	0.285625 
6236.000000	0.286149 
6235.000000	0.286698 
6234.000000	0.287199 
6233.000000	0.287556 
6232.000000	0.287795 
6231.000000	0.287938 
6230.000000	0.287914 
6229.000000	0.287818 
6228.000000	0.287699 
6227.000000	0.287604 
6226.000000	0.287652 
6225.000000	0.287890 
6224.000000	0.288295 
6223.000000	0.288915 
6222.000000	0.289654 
6221.000000	0.290536 
6220.000000	0.291419 
6219.000000	0.292301 
6218.000000	0.293064 
6217.000000	0.293636 
6216.000000	0.294065 
6215.000000	0.294280 
6214.000000	0.294327 
6213.000000	0.294208 
6212.000000	0.293922 
6211.000000	0.293564 
6210.000000	0.293159 
6209.000000	0.292825 
6208.000000	0.292587 
6207.000000	0.292468 
6206.000000	0.292491 
6205.000000	0.292634 
6204.000000	0.292849 
6203.000000	0.293135 
6202.000000	0.293445 
6201.000000	0.293707 
6200.000000	0.293874 
6199.000000	0.294041 
6198.000000	0.294184 
6197.000000	0.294375 
6196.000000	0.294589 
6195.000000	0.294923 
6194.000000	0.295376 
6193.000000	0.295948 
6192.000000	0.296545 
6191.000000	0.297141 
6190.000000	0.297713 
6189.000000	0.298142 
6188.000000	0.298404 
6187.000000	0.298523 
6186.000000	0.298452 
6185.000000	0.298309 
6184.000000	0.298070 
6183.000000	0.297927 
6182.000000	0.297880 
6181.000000	0.297951 
6180.000000	0.298237 
6179.000000	0.298643 
6178.000000	0.299143 
6177.000000	0.299739 
6176.000000	0.300335 
6175.000000	0.300908 
6174.000000	0.301456 
6173.000000	0.301980 
6172.000000	0.302529 
6171.000000	0.303101 
6170.000000	0.303649 
6169.000000	0.304222 
6168.000000	0.304794 
6167.000000	0.305294 
6166.000000	0.305700 
6165.000000	0.305962 
6164.000000	0.306224 
6163.000000	0.306415 
6162.000000	0.306630 
6161.000000	0.306820 
6160.000000	0.307106 
6159.000000	0.307393 
6158.000000	0.307703 
6157.000000	0.307989 
6156.000000	0.308132 
6155.000000	0.308179 
6154.000000	0.308036 
6153.000000	0.307750 
6152.000000	0.307393 
6151.000000	0.306963 
6150.000000	0.306606 
6149.000000	0.306367 
6148.000000	0.306344 
6147.000000	0.306558 
6146.000000	0.307011 
6145.000000	0.307703 
6144.000000	0.308513 
6143.000000	0.309348 
6142.000000	0.310134 
6141.000000	0.310778 
6140.000000	0.311279 
6139.000000	0.311541 
6138.000000	0.311613 
6137.000000	0.311565 
6136.000000	0.311446 
6135.000000	0.311326 
6134.000000	0.311279 
6133.000000	0.311303 
6132.000000	0.311398 
6131.000000	0.311589 
6130.000000	0.311851 
6129.000000	0.312089 
6128.000000	0.312352 
6127.000000	0.312662 
6126.000000	0.313019 
6125.000000	0.313448 
6124.000000	0.313949 
6123.000000	0.314545 
6122.000000	0.315260 
6121.000000	0.316047 
6120.000000	0.316858 
6119.000000	0.317597 
6118.000000	0.318312 
6117.000000	0.318980 
6116.000000	0.319552 
6115.000000	0.320076 
6114.000000	0.320577 
6113.000000	0.321102 
6112.000000	0.321602 
6111.000000	0.322151 
6110.000000	0.322675 
6109.000000	0.323176 
6108.000000	0.323629 
6107.000000	0.324010 
6106.000000	0.324296 
6105.000000	0.324535 
6104.000000	0.324678 
6103.000000	0.324797 
6102.000000	0.324940 
6101.000000	0.325083 
6100.000000	0.325250 
6099.000000	0.325489 
6098.000000	0.325751 
6097.000000	0.325989 
6096.000000	0.326228 
6095.000000	0.326395 
6094.000000	0.326514 
6093.000000	0.326585 
6092.000000	0.326633 
6091.000000	0.326681 
6090.000000	0.326752 
6089.000000	0.326943 
6088.000000	0.327205 
6087.000000	0.327539 
6086.000000	0.327992 
6085.000000	0.328397 
6084.000000	0.328826 
6083.000000	0.329232 
6082.000000	0.329589 
6081.000000	0.329875 
6080.000000	0.330114 
6079.000000	0.330376 
6078.000000	0.330615 
6077.000000	0.330901 
6076.000000	0.331211 
6075.000000	0.331592 
6074.000000	0.331950 
6073.000000	0.332379 
6072.000000	0.332736 
6071.000000	0.333094 
6070.000000	0.333380 
6069.000000	0.333619 
6068.000000	0.333762 
6067.000000	0.333857 
6066.000000	0.333929 
6065.000000	0.334072 
6064.000000	0.334310 
6063.000000	0.334668 
6062.000000	0.335144 
6061.000000	0.335741 
6060.000000	0.336360 
6059.000000	0.336980 
6058.000000	0.337529 
6057.000000	0.337958 
6056.000000	0.338172 
6055.000000	0.338292 
6054.000000	0.338292 
6053.000000	0.338244 
6052.000000	0.338196 
6051.000000	0.338244 
6050.000000	0.338387 
6049.000000	0.338697 
6048.000000	0.339126 
6047.000000	0.339651 
6046.000000	0.340294 
6045.000000	0.340986 
6044.000000	0.341725 
6043.000000	0.342440 
6042.000000	0.343132 
6041.000000	0.343728 
6040.000000	0.344228 
6039.000000	0.344538 
6038.000000	0.344657 
6037.000000	0.344610 
6036.000000	0.344419 
6035.000000	0.344181 
6034.000000	0.343918 
6033.000000	0.343775 
6032.000000	0.343775 
6031.000000	0.343990 
6030.000000	0.344443 
6029.000000	0.345039 
6028.000000	0.345826 
6027.000000	0.346636 
6026.000000	0.347423 
6025.000000	0.348162 
6024.000000	0.348758 
6023.000000	0.349211 
6022.000000	0.349497 
6021.000000	0.349617 
6020.000000	0.349640 
6019.000000	0.349569 
6018.000000	0.349473 
6017.000000	0.349378 
6016.000000	0.349378 
6015.000000	0.349426 
6014.000000	0.349545 
6013.000000	0.349736 
6012.000000	0.349974 
6011.000000	0.350284 
6010.000000	0.350594 
6009.000000	0.350904 
6008.000000	0.351190 
6007.000000	0.351476 
6006.000000	0.351762 
6005.000000	0.352048 
6004.000000	0.352311 
6003.000000	0.352549 
6002.000000	0.352740 
6001.000000	0.352931 
6000.000000	0.353074 
5999.000000	0.353217 
5998.000000	0.353407 
5997.000000	0.353622 
5996.000000	0.353908 
5995.000000	0.354313 
5994.000000	0.354790 
5993.000000	0.355339 
5992.000000	0.355911 
5991.000000	0.356531 
5990.000000	0.357127 
5989.000000	0.357723 
5988.000000	0.358271 
5987.000000	0.358819 
5986.000000	0.359344 
5985.000000	0.359869 
5984.000000	0.360321 
5983.000000	0.360703 
5982.000000	0.361061 
5981.000000	0.361347 
5980.000000	0.361561 
5979.000000	0.361728 
5978.000000	0.361847 
5977.000000	0.361943 
5976.000000	0.362014 
5975.000000	0.362062 
5974.000000	0.362086 
5973.000000	0.362086 
5972.000000	0.362014 
5971.000000	0.361895 
5970.000000	0.361752 
5969.000000	0.361561 
5968.000000	0.361418 
5967.000000	0.361299 
5966.000000	0.361299 
5965.000000	0.361418 
5964.000000	0.361704 
5963.000000	0.362157 
5962.000000	0.362777 
5961.000000	0.363516 
5960.000000	0.364375 
5959.000000	0.365352 
5958.000000	0.366306 
5957.000000	0.367212 
5956.000000	0.368022 
5955.000000	0.368666 
5954.000000	0.369095 
5953.000000	0.369310 
5952.000000	0.369310 
5951.000000	0.369119 
5950.000000	0.368762 
5949.000000	0.368380 
5948.000000	0.368022 
5947.000000	0.367760 
5946.000000	0.367689 
5945.000000	0.367808 
5944.000000	0.368142 
5943.000000	0.368642 
5942.000000	0.369262 
5941.000000	0.369906 
5940.000000	0.370526 
5939.000000	0.371074 
5938.000000	0.371503 
5937.000000	0.371813 
5936.000000	0.371956 
5935.000000	0.372052 
5934.000000	0.372123 
5933.000000	0.372195 
5932.000000	0.372338 
5931.000000	0.372552 
5930.000000	0.372862 
5929.000000	0.373268 
5928.000000	0.373697 
5927.000000	0.374102 
5926.000000	0.374436 
5925.000000	0.374650 
5924.000000	0.374746 
5923.000000	0.374722 
5922.000000	0.374555 
5921.000000	0.374364 
5920.000000	0.374174 
5919.000000	0.374078 
5918.000000	0.374174 
5917.000000	0.374412 
5916.000000	0.374913 
5915.000000	0.375604 
5914.000000	0.376415 
5913.000000	0.377368 
5912.000000	0.378274 
5911.000000	0.379085 
5910.000000	0.379776 
5909.000000	0.380253 
5908.000000	0.380516 
5907.000000	0.380539 
5906.000000	0.380396 
5905.000000	0.380110 
5904.000000	0.379753 
5903.000000	0.379443 
5902.000000	0.379204 
5901.000000	0.379061 
5900.000000	0.379085 
5899.000000	0.379300 
5898.000000	0.379633 
5897.000000	0.380063 
5896.000000	0.380587 
5895.000000	0.381088 
5894.000000	0.381493 
5893.000000	0.381803 
5892.000000	0.381994 
5891.000000	0.382089 
5890.000000	0.382065 
5889.000000	0.381994 
5888.000000	0.381946 
5887.000000	0.381922 
5886.000000	0.381970 
5885.000000	0.382137 
5884.000000	0.382399 
5883.000000	0.382757 
5882.000000	0.383186 
5881.000000	0.383663 
5880.000000	0.384140 
5879.000000	0.384545 
5878.000000	0.384879 
5877.000000	0.385141 
5876.000000	0.385355 
5875.000000	0.385570 
5874.000000	0.385785 
5873.000000	0.386142 
5872.000000	0.386595 
5871.000000	0.387263 
5870.000000	0.388050 
5869.000000	0.388884 
5868.000000	0.389695 
5867.000000	0.390291 
5866.000000	0.390672 
5865.000000	0.390791 
5864.000000	0.390601 
5863.000000	0.390195 
5862.000000	0.389647 
5861.000000	0.389051 
5860.000000	0.388550 
5859.000000	0.388169 
5858.000000	0.388002 
5857.000000	0.388026 
5856.000000	0.388288 
5855.000000	0.388669 
5854.000000	0.389170 
5853.000000	0.389695 
5852.000000	0.390219 
5851.000000	0.390672 
5850.000000	0.391030 
5849.000000	0.391292 
5848.000000	0.391459 
5847.000000	0.391602 
5846.000000	0.391697 
5845.000000	0.391817 
5844.000000	0.392007 
5843.000000	0.392293 
5842.000000	0.392675 
5841.000000	0.393176 
5840.000000	0.393724 
5839.000000	0.394368 
5838.000000	0.395059 
5837.000000	0.395750 
5836.000000	0.396442 
5835.000000	0.397086 
5834.000000	0.397706 
5833.000000	0.398206 
5832.000000	0.398612 
5831.000000	0.398874 
5830.000000	0.398993 
5829.000000	0.398993 
5828.000000	0.398874 
5827.000000	0.398635 
5826.000000	0.398349 
5825.000000	0.398087 
5824.000000	0.397920 
5823.000000	0.397825 
5822.000000	0.397849 
5821.000000	0.398087 
5820.000000	0.398445 
5819.000000	0.398945 
5818.000000	0.399613 
5817.000000	0.400352 
5816.000000	0.401210 
5815.000000	0.402164 
5814.000000	0.403118 
5813.000000	0.404047 
5812.000000	0.404930 
5811.000000	0.405693 
5810.000000	0.406289 
5809.000000	0.406670 
5808.000000	0.406837 
5807.000000	0.406789 
5806.000000	0.406622 
5805.000000	0.406384 
5804.000000	0.406169 
5803.000000	0.406026 
5802.000000	0.406002 
5801.000000	0.406122 
5800.000000	0.406384 
5799.000000	0.406765 
5798.000000	0.407195 
5797.000000	0.407695 
5796.000000	0.408172 
5795.000000	0.408625 
5794.000000	0.409030 
5793.000000	0.409317 
5792.000000	0.409507 
5791.000000	0.409603 
5790.000000	0.409579 
5789.000000	0.409460 
5788.000000	0.409317 
5787.000000	0.409221 
5786.000000	0.409150 
5785.000000	0.409245 
5784.000000	0.409436 
5783.000000	0.409770 
5782.000000	0.410223 
5781.000000	0.410771 
5780.000000	0.411391 
5779.000000	0.412034 
5778.000000	0.412654 
5777.000000	0.413250 
5776.000000	0.413823 
5775.000000	0.414347 
5774.000000	0.414776 
5773.000000	0.415134 
5772.000000	0.415444 
5771.000000	0.415658 
5770.000000	0.415849 
5769.000000	0.416016 
5768.000000	0.416159 
5767.000000	0.416302 
5766.000000	0.416445 
5765.000000	0.416612 
5764.000000	0.416779 
5763.000000	0.416922 
5762.000000	0.417017 
5761.000000	0.417065 
5760.000000	0.417089 
5759.000000	0.417041 
5758.000000	0.416946 
5757.000000	0.416827 
5756.000000	0.416731 
5755.000000	0.416660 
5754.000000	0.416684 
5753.000000	0.416779 
5752.000000	0.417017 
5751.000000	0.417327 
5750.000000	0.417757 
5749.000000	0.418257 
5748.000000	0.418782 
5747.000000	0.419259 
5746.000000	0.419664 
5745.000000	0.419974 
5744.000000	0.420165 
5743.000000	0.420308 
5742.000000	0.420403 
5741.000000	0.420522 
5740.000000	0.420713 
5739.000000	0.420975 
5738.000000	0.421333 
5737.000000	0.421810 
5736.000000	0.422286 
5735.000000	0.422763 
5734.000000	0.423192 
5733.000000	0.423455 
5732.000000	0.423622 
5731.000000	0.423598 
5730.000000	0.423479 
5729.000000	0.423240 
5728.000000	0.422978 
5727.000000	0.422644 
5726.000000	0.422310 
5725.000000	0.422000 
5724.000000	0.421786 
5723.000000	0.421667 
5722.000000	0.421690 
5721.000000	0.421857 
5720.000000	0.422167 
5719.000000	0.422620 
5718.000000	0.423264 
5717.000000	0.423979 
5716.000000	0.424766 
5715.000000	0.425529 
5714.000000	0.426244 
5713.000000	0.426840 
5712.000000	0.427317 
5711.000000	0.427675 
5710.000000	0.427913 
5709.000000	0.428080 
5708.000000	0.428199 
5707.000000	0.428295 
5706.000000	0.428366 
5705.000000	0.428342 
5704.000000	0.428271 
5703.000000	0.428175 
5702.000000	0.428009 
5701.000000	0.427842 
5700.000000	0.427746 
5699.000000	0.427746 
5698.000000	0.427889 
5697.000000	0.428199 
5696.000000	0.428652 
5695.000000	0.429177 
5694.000000	0.429701 
5693.000000	0.430178 
5692.000000	0.430560 
5691.000000	0.430822 
5690.000000	0.430965 
5689.000000	0.431060 
5688.000000	0.431108 
5687.000000	0.431180 
5686.000000	0.431299 
5685.000000	0.431418 
5684.000000	0.431656 
5683.000000	0.431895 
5682.000000	0.432181 
5681.000000	0.432491 
5680.000000	0.432801 
5679.000000	0.433111 
5678.000000	0.433421 
5677.000000	0.433659 
5676.000000	0.433850 
5675.000000	0.433945 
5674.000000	0.433969 
5673.000000	0.433897 
5672.000000	0.433826 
5671.000000	0.433802 
5670.000000	0.433850 
5669.000000	0.434064 
5668.000000	0.434398 
5667.000000	0.434851 
5666.000000	0.435447 
5665.000000	0.436067 
5664.000000	0.436615 
5663.000000	0.437116 
5662.000000	0.437498 
5661.000000	0.437784 
5660.000000	0.437927 
5659.000000	0.437998 
5658.000000	0.437998 
5657.000000	0.437951 
5656.000000	0.437855 
5655.000000	0.437712 
5654.000000	0.437521 
5653.000000	0.437259 
5652.000000	0.436997 
5651.000000	0.436711 
5650.000000	0.436472 
5649.000000	0.436305 
5648.000000	0.436234 
5647.000000	0.436234 
5646.000000	0.436329 
5645.000000	0.436520 
5644.000000	0.436782 
5643.000000	0.437021 
5642.000000	0.437259 
5641.000000	0.437450 
5640.000000	0.437617 
5639.000000	0.437808 
5638.000000	0.437974 
5637.000000	0.438117 
5636.000000	0.438284 
5635.000000	0.438451 
5634.000000	0.438618 
5633.000000	0.438690 
5632.000000	0.438666 
5631.000000	0.438547 
5630.000000	0.438284 
5629.000000	0.437951 
5628.000000	0.437593 
5627.000000	0.437211 
5626.000000	0.436997 
5625.000000	0.436949 
5624.000000	0.437116 
5623.000000	0.437474 
5622.000000	0.438046 
5621.000000	0.438714 
5620.000000	0.439476 
5619.000000	0.440263 
5618.000000	0.440979 
5617.000000	0.441622 
5616.000000	0.442171 
5615.000000	0.442624 
5614.000000	0.442957 
5613.000000	0.443196 
5612.000000	0.443339 
5611.000000	0.443458 
5610.000000	0.443530 
5609.000000	0.443601 
5608.000000	0.443696 
5607.000000	0.443863 
5606.000000	0.444054 
5605.000000	0.444364 
5604.000000	0.444746 
5603.000000	0.445222 
5602.000000	0.445723 
5601.000000	0.446271 
5600.000000	0.446844 
5599.000000	0.447416 
5598.000000	0.447988 
5597.000000	0.448536 
5596.000000	0.449061 
5595.000000	0.449538 
5594.000000	0.449967 
5593.000000	0.450420 
5592.000000	0.450849 
5591.000000	0.451254 
5590.000000	0.451683 
5589.000000	0.452184 
5588.000000	0.452733 
5587.000000	0.453352 
5586.000000	0.454068 
5585.000000	0.454878 
5584.000000	0.455665 
5583.000000	0.456404 
5582.000000	0.457072 
5581.000000	0.457572 
5580.000000	0.457882 
5579.000000	0.457954 
5578.000000	0.457882 
5577.000000	0.457692 
5576.000000	0.457406 
5575.000000	0.457119 
5574.000000	0.456857 
5573.000000	0.456738 
5572.000000	0.456738 
5571.000000	0.456881 
5570.000000	0.457215 
5569.000000	0.457739 
5568.000000	0.458359 
5567.000000	0.459074 
5566.000000	0.459861 
5565.000000	0.460648 
5564.000000	0.461387 
5563.000000	0.461983 
5562.000000	0.462460 
5561.000000	0.462770 
5560.000000	0.462937 
5559.000000	0.463056 
5558.000000	0.463175 
5557.000000	0.463390 
5556.000000	0.463747 
5555.000000	0.464296 
5554.000000	0.465011 
5553.000000	0.465846 
5552.000000	0.466680 
5551.000000	0.467491 
5550.000000	0.468134 
5549.000000	0.468635 
5548.000000	0.468969 
5547.000000	0.469088 
5546.000000	0.469064 
5545.000000	0.469017 
5544.000000	0.468921 
5543.000000	0.468826 
5542.000000	0.468754 
5541.000000	0.468802 
5540.000000	0.468921 
5539.000000	0.469088 
5538.000000	0.469350 
5537.000000	0.469684 
5536.000000	0.470089 
5535.000000	0.470614 
5534.000000	0.471162 
5533.000000	0.471782 
5532.000000	0.472378 
5531.000000	0.472903 
5530.000000	0.473427 
5529.000000	0.473880 
5528.000000	0.474309 
5527.000000	0.474739 
5526.000000	0.475144 
5525.000000	0.475597 
5524.000000	0.476074 
5523.000000	0.476574 
5522.000000	0.477075 
5521.000000	0.477600 
5520.000000	0.478148 
5519.000000	0.478720 
5518.000000	0.479316 
5517.000000	0.479888 
5516.000000	0.480532 
5515.000000	0.481176 
5514.000000	0.481796 
5513.000000	0.482416 
5512.000000	0.482964 
5511.000000	0.483465 
5510.000000	0.483894 
5509.000000	0.484299 
5508.000000	0.484657 
5507.000000	0.484967 
5506.000000	0.485277 
5505.000000	0.485539 
5504.000000	0.485873 
5503.000000	0.486135 
5502.000000	0.486421 
5501.000000	0.486683 
5500.000000	0.486946 
5499.000000	0.487184 
5498.000000	0.487399 
5497.000000	0.487685 
5496.000000	0.487947 
5495.000000	0.488328 
5494.000000	0.488805 
5493.000000	0.489401 
5492.000000	0.490117 
5491.000000	0.490951 
5490.000000	0.491809 
5489.000000	0.492644 
5488.000000	0.493407 
5487.000000	0.494027 
5486.000000	0.494456 
5485.000000	0.494694 
5484.000000	0.494742 
5483.000000	0.494647 
5482.000000	0.494503 
5481.000000	0.494408 
5480.000000	0.494384 
5479.000000	0.494503 
5478.000000	0.494742 
5477.000000	0.495100 
5476.000000	0.495529 
5475.000000	0.496053 
5474.000000	0.496554 
5473.000000	0.497055 
5472.000000	0.497555 
5471.000000	0.498080 
5470.000000	0.498604 
5469.000000	0.499105 
5468.000000	0.499606 
5467.000000	0.500130 
5466.000000	0.500631 
5465.000000	0.501084 
5464.000000	0.501537 
5463.000000	0.501966 
5462.000000	0.502347 
5461.000000	0.502705 
5460.000000	0.503063 
5459.000000	0.503420 
5458.000000	0.503802 
5457.000000	0.504159 
5456.000000	0.504517 
5455.000000	0.504875 
5454.000000	0.505256 
5453.000000	0.505661 
5452.000000	0.505995 
5451.000000	0.506401 
5450.000000	0.506806 
5449.000000	0.507259 
5448.000000	0.507760 
5447.000000	0.508284 
5446.000000	0.508856 
5445.000000	0.509357 
5444.000000	0.509786 
5443.000000	0.510120 
5442.000000	0.510382 
5441.000000	0.510501 
5440.000000	0.510573 
5439.000000	0.510644 
5438.000000	0.510692 
5437.000000	0.510859 
5436.000000	0.511121 
5435.000000	0.511455 
5434.000000	0.511884 
5433.000000	0.512409 
5432.000000	0.512981 
5431.000000	0.513577 
5430.000000	0.514197 
5429.000000	0.514769 
5428.000000	0.515389 
5427.000000	0.516009 
5426.000000	0.516605 
5425.000000	0.517249 
5424.000000	0.517868 
5423.000000	0.518417 
5422.000000	0.518965 
5421.000000	0.519442 
5420.000000	0.519847 
5419.000000	0.520253 
5418.000000	0.520610 
5417.000000	0.520944 
5416.000000	0.521302 
5415.000000	0.521683 
5414.000000	0.522041 
5413.000000	0.522398 
5412.000000	0.522708 
5411.000000	0.523042 
5410.000000	0.523328 
5409.000000	0.523614 
5408.000000	0.523924 
5407.000000	0.524234 
5406.000000	0.524592 
5405.000000	0.524950 
5404.000000	0.525307 
5403.000000	0.525665 
5402.000000	0.525951 
5401.000000	0.526237 
5400.000000	0.526475 
5399.000000	0.526714 
5398.000000	0.526952 
5397.000000	0.527215 
5396.000000	0.527596 
5395.000000	0.528049 
5394.000000	0.528573 
5393.000000	0.529122 
5392.000000	0.529718 
5391.000000	0.530314 
5390.000000	0.530910 
5389.000000	0.531458 
5388.000000	0.532031 
5387.000000	0.532603 
5386.000000	0.533175 
5385.000000	0.533747 
5384.000000	0.534296 
5383.000000	0.534796 
5382.000000	0.535178 
5381.000000	0.535464 
5380.000000	0.535631 
5379.000000	0.535702 
5378.000000	0.535726 
5377.000000	0.535774 
5376.000000	0.535941 
5375.000000	0.536298 
5374.000000	0.536918 
5373.000000	0.537800 
5372.000000	0.538897 
5371.000000	0.540208 
5370.000000	0.541591 
5369.000000	0.542998 
5368.000000	0.544309 
5367.000000	0.545454 
5366.000000	0.546407 
5365.000000	0.547122 
5364.000000	0.547671 
5363.000000	0.548028 
5362.000000	0.548315 
5361.000000	0.548505 
5360.000000	0.548720 
5359.000000	0.548958 
5358.000000	0.549292 
5357.000000	0.549721 
5356.000000	0.550198 
5355.000000	0.550818 
5354.000000	0.551438 
5353.000000	0.552058 
5352.000000	0.552654 
5351.000000	0.553178 
5350.000000	0.553584 
5349.000000	0.553894 
5348.000000	0.554108 
5347.000000	0.554275 
5346.000000	0.554466 
5345.000000	0.554704 
5344.000000	0.555062 
5343.000000	0.555562 
5342.000000	0.556206 
5341.000000	0.557041 
5340.000000	0.557994 
5339.000000	0.558996 
5338.000000	0.560045 
5337.000000	0.561070 
5336.000000	0.562000 
5335.000000	0.562834 
5334.000000	0.563549 
5333.000000	0.564217 
5332.000000	0.564837 
5331.000000	0.565433 
5330.000000	0.566053 
5329.000000	0.566697 
5328.000000	0.567483 
5327.000000	0.568318 
5326.000000	0.569248 
5325.000000	0.570297 
5324.000000	0.571465 
5323.000000	0.572681 
5322.000000	0.573992 
5321.000000	0.575304 
5320.000000	0.576591 
5319.000000	0.577759 
5318.000000	0.578737 
5317.000000	0.579500 
5316.000000	0.580048 
5315.000000	0.580406 
5314.000000	0.580596 
5313.000000	0.580763 
5312.000000	0.580930 
5311.000000	0.581145 
5310.000000	0.581431 
5309.000000	0.581741 
5308.000000	0.582027 
5307.000000	0.582337 
5306.000000	0.582623 
5305.000000	0.582909 
5304.000000	0.583314 
5303.000000	0.583863 
5302.000000	0.584673 
5301.000000	0.585675 
5300.000000	0.586843 
5299.000000	0.588035 
5298.000000	0.589060 
5297.000000	0.589752 
5296.000000	0.590085 
5295.000000	0.589919 
5294.000000	0.589346 
5293.000000	0.588464 
5292.000000	0.587534 
5291.000000	0.586771 
5290.000000	0.586414 
5289.000000	0.586676 
5288.000000	0.587725 
5287.000000	0.589585 
5286.000000	0.592255 
5285.000000	0.595569 
5284.000000	0.599312 
5283.000000	0.603222 
5282.000000	0.606966 
5281.000000	0.610256 
5280.000000	0.612831 
5279.000000	0.614523 
5278.000000	0.615310 
5277.000000	0.615262 
5276.000000	0.614619 
5275.000000	0.613641 
5274.000000	0.612616 
5273.000000	0.611805 
5272.000000	0.611424 
5271.000000	0.611543 
5270.000000	0.612115 
5269.000000	0.613045 
5268.000000	0.614070 
5267.000000	0.615000 
5266.000000	0.615596 
5265.000000	0.615668 
5264.000000	0.615119 
5263.000000	0.613880 
5262.000000	0.612020 
5261.000000	0.609612 
5260.000000	0.606822 
5259.000000	0.603890 
5258.000000	0.600957 
5257.000000	0.598239 
5256.000000	0.595903 
5255.000000	0.594067 
5254.000000	0.592803 
5253.000000	0.592136 
5252.000000	0.592017 
5251.000000	0.592398 
5250.000000	0.593304 
5249.000000	0.594687 
5248.000000	0.596547 
5247.000000	0.598931 
5246.000000	0.601792 
5245.000000	0.605177 
5244.000000	0.609040 
5243.000000	0.613212 
5242.000000	0.617480 
5241.000000	0.621604 
5240.000000	0.625419 
5239.000000	0.628638 
5238.000000	0.631093 
5237.000000	0.632715 
5236.000000	0.633502 
5235.000000	0.633525 
5234.000000	0.632977 
5233.000000	0.631999 
5232.000000	0.630903 
5231.000000	0.629830 
5230.000000	0.629043 
5229.000000	0.628566 
5228.000000	0.628447 
5227.000000	0.628685 
5226.000000	0.629234 
5225.000000	0.629878 
5224.000000	0.630545 
5223.000000	0.631165 
5222.000000	0.631690 
5221.000000	0.632166 
5220.000000	0.632786 
5219.000000	0.633573 
5218.000000	0.634694 
5217.000000	0.636172 
5216.000000	0.637960 
5215.000000	0.639891 
5214.000000	0.641798 
5213.000000	0.643444 
5212.000000	0.644659 
5211.000000	0.645375 
5210.000000	0.645565 
5209.000000	0.645327 
5208.000000	0.644850 
5207.000000	0.644278 
5206.000000	0.643849 
5205.000000	0.643682 
5204.000000	0.643873 
5203.000000	0.644350 
5202.000000	0.645089 
5201.000000	0.645995 
5200.000000	0.646996 
5199.000000	0.647997 
5198.000000	0.648832 
5197.000000	0.649523 
5196.000000	0.650072 
5195.000000	0.650429 
5194.000000	0.650644 
5193.000000	0.650715 
5192.000000	0.650835 
5191.000000	0.650954 
5190.000000	0.651192 
5189.000000	0.651550 
5188.000000	0.652122 
5187.000000	0.652813 
5186.000000	0.653624 
5185.000000	0.654530 
5184.000000	0.655436 
5183.000000	0.656294 
5182.000000	0.657081 
5181.000000	0.657773 
5180.000000	0.658297 
5179.000000	0.658726 
5178.000000	0.659060 
5177.000000	0.659298 
5176.000000	0.659441 
5175.000000	0.659465 
5174.000000	0.659418 
5173.000000	0.659370 
5172.000000	0.659370 
5171.000000	0.659441 
5170.000000	0.659632 
5169.000000	0.659966 
5168.000000	0.660395 
5167.000000	0.660943 
5166.000000	0.661587 
5165.000000	0.662231 
5164.000000	0.662875 
5163.000000	0.663590 
5162.000000	0.664329 
5161.000000	0.665163 
5160.000000	0.666022 
5159.000000	0.666975 
5158.000000	0.667953 
5157.000000	0.668931 
5156.000000	0.669908 
5155.000000	0.670838 
5154.000000	0.671648 
5153.000000	0.672388 
5152.000000	0.672984 
5151.000000	0.673484 
5150.000000	0.673866 
5149.000000	0.674152 
5148.000000	0.674343 
5147.000000	0.674462 
5146.000000	0.674581 
5145.000000	0.674724 
5144.000000	0.674939 
5143.000000	0.675272 
5142.000000	0.675773 
5141.000000	0.676417 
5140.000000	0.677251 
5139.000000	0.678229 
5138.000000	0.679230 
5137.000000	0.680255 
5136.000000	0.681233 
5135.000000	0.682115 
5134.000000	0.682878 
5133.000000	0.683498 
5132.000000	0.683999 
5131.000000	0.684404 
5130.000000	0.684762 
5129.000000	0.685095 
5128.000000	0.685405 
5127.000000	0.685787 
5126.000000	0.686240 
5125.000000	0.686788 
5124.000000	0.687360 
5123.000000	0.687980 
5122.000000	0.688648 
5121.000000	0.689315 
5120.000000	0.690031 
5119.000000	0.690770 
5118.000000	0.691604 
5117.000000	0.692510 
5116.000000	0.693464 
5115.000000	0.694441 
5114.000000	0.695419 
5113.000000	0.696372 
5112.000000	0.697159 
5111.000000	0.697779 
5110.000000	0.698280 
5109.000000	0.698637 
5108.000000	0.698947 
5107.000000	0.699234 
5106.000000	0.699615 
5105.000000	0.700044 
5104.000000	0.700592 
5103.000000	0.701189 
5102.000000	0.701832 
5101.000000	0.702476 
5100.000000	0.703096 
5099.000000	0.703573 
5098.000000	0.703978 
5097.000000	0.704264 
5096.000000	0.704479 
5095.000000	0.704669 
5094.000000	0.704836 
5093.000000	0.705027 
5092.000000	0.705313 
5091.000000	0.705766 
5090.000000	0.706362 
5089.000000	0.707077 
5088.000000	0.707912 
5087.000000	0.708866 
5086.000000	0.709939 
5085.000000	0.711035 
5084.000000	0.712156 
5083.000000	0.713229 
5082.000000	0.714325 
5081.000000	0.715398 
5080.000000	0.716400 
5079.000000	0.717377 
5078.000000	0.718188 
5077.000000	0.718927 
5076.000000	0.719571 
5075.000000	0.720143 
5074.000000	0.720643 
5073.000000	0.721144 
5072.000000	0.721764 
5071.000000	0.722455 
5070.000000	0.723242 
5069.000000	0.724124 
5068.000000	0.725078 
5067.000000	0.726056 
5066.000000	0.726962 
5065.000000	0.727772 
5064.000000	0.728464 
5063.000000	0.729036 
5062.000000	0.729537 
5061.000000	0.730037 
5060.000000	0.730538 
5059.000000	0.731158 
5058.000000	0.731945 
5057.000000	0.732803 
5056.000000	0.733780 
5055.000000	0.734806 
5054.000000	0.735807 
5053.000000	0.736761 
5052.000000	0.737547 
5051.000000	0.738167 
5050.000000	0.738644 
5049.000000	0.738930 
5048.000000	0.739169 
5047.000000	0.739431 
5046.000000	0.739765 
5045.000000	0.740313 
5044.000000	0.741052 
5043.000000	0.742053 
5042.000000	0.743269 
5041.000000	0.744676 
5040.000000	0.746130 
5039.000000	0.747561 
5038.000000	0.748920 
5037.000000	0.750041 
5036.000000	0.750946 
5035.000000	0.751614 
5034.000000	0.752067 
5033.000000	0.752353 
5032.000000	0.752592 
5031.000000	0.752854 
5030.000000	0.753140 
5029.000000	0.753498 
5028.000000	0.753974 
5027.000000	0.754570 
5026.000000	0.755167 
5025.000000	0.755810 
5024.000000	0.756406 
5023.000000	0.756955 
5022.000000	0.757384 
5021.000000	0.757765 
5020.000000	0.758028 
5019.000000	0.758266 
5018.000000	0.758481 
5017.000000	0.758767 
5016.000000	0.759100 
5015.000000	0.759530 
5014.000000	0.760054 
5013.000000	0.760674 
5012.000000	0.761365 
5011.000000	0.762128 
5010.000000	0.762939 
5009.000000	0.763773 
5008.000000	0.764584 
5007.000000	0.765347 
5006.000000	0.766015 
5005.000000	0.766515 
5004.000000	0.766897 
5003.000000	0.767135 
5002.000000	0.767254 
5001.000000	0.767326 
5000.000000	0.767374 
4999.000000	0.767493 
4998.000000	0.767755 
4997.000000	0.768136 
4996.000000	0.768733 
4995.000000	0.769567 
4994.000000	0.770568 
4993.000000	0.771689 
4992.000000	0.772857 
4991.000000	0.774002 
4990.000000	0.775074 
4989.000000	0.776028 
4988.000000	0.776791 
4987.000000	0.777411 
4986.000000	0.777864 
4985.000000	0.778174 
4984.000000	0.778436 
4983.000000	0.778627 
4982.000000	0.778794 
4981.000000	0.778961 
4980.000000	0.779223 
4979.000000	0.779557 
4978.000000	0.779962 
4977.000000	0.780487 
4976.000000	0.781059 
4975.000000	0.781679 
4974.000000	0.782322 
4973.000000	0.782942 
4972.000000	0.783538 
4971.000000	0.784039 
4970.000000	0.784444 
4969.000000	0.784802 
4968.000000	0.785040 
4967.000000	0.785303 
4966.000000	0.785613 
4965.000000	0.786018 
4964.000000	0.786542 
4963.000000	0.787210 
4962.000000	0.787973 
4961.000000	0.788831 
4960.000000	0.789713 
4959.000000	0.790596 
4958.000000	0.791382 
4957.000000	0.792026 
4956.000000	0.792503 
4955.000000	0.792837 
4954.000000	0.793027 
4953.000000	0.793075 
4952.000000	0.793051 
4951.000000	0.792956 
4950.000000	0.792884 
4949.000000	0.792765 
4948.000000	0.792694 
4947.000000	0.792717 
4946.000000	0.792813 
4945.000000	0.792956 
4944.000000	0.793194 
4943.000000	0.793480 
4942.000000	0.793862 
4941.000000	0.794291 
4940.000000	0.794792 
4939.000000	0.795364 
4938.000000	0.796008 
4937.000000	0.796723 
4936.000000	0.797510 
4935.000000	0.798344 
4934.000000	0.799226 
4933.000000	0.800132 
4932.000000	0.801014 
4931.000000	0.801825 
4930.000000	0.802588 
4929.000000	0.803256 
4928.000000	0.803756 
4927.000000	0.804066 
4926.000000	0.804138 
4925.000000	0.804066 
4924.000000	0.803804 
4923.000000	0.803422 
4922.000000	0.802969 
4921.000000	0.802540 
4920.000000	0.802159 
4919.000000	0.801944 
4918.000000	0.801825 
4917.000000	0.801873 
4916.000000	0.802063 
4915.000000	0.802373 
4914.000000	0.802707 
4913.000000	0.803160 
4912.000000	0.803661 
4911.000000	0.804257 
4910.000000	0.804877 
4909.000000	0.805592 
4908.000000	0.806379 
4907.000000	0.807166 
4906.000000	0.807905 
4905.000000	0.808620 
4904.000000	0.809288 
4903.000000	0.809860 
4902.000000	0.810337 
4901.000000	0.810742 
4900.000000	0.811100 
4899.000000	0.811409 
4898.000000	0.811672 
4897.000000	0.811886 
4896.000000	0.812149 
4895.000000	0.812458 
4894.000000	0.812840 
4893.000000	0.813412 
4892.000000	0.814175 
4891.000000	0.815105 
4890.000000	0.816154 
4889.000000	0.817251 
4888.000000	0.818347 
4887.000000	0.819301 
4886.000000	0.820088 
4885.000000	0.820684 
4884.000000	0.821065 
4883.000000	0.821328 
4882.000000	0.821495 
4881.000000	0.821661 
4880.000000	0.821852 
4879.000000	0.822091 
4878.000000	0.822448 
4877.000000	0.822949 
4876.000000	0.823497 
4875.000000	0.824141 
4874.000000	0.824856 
4873.000000	0.825643 
4872.000000	0.826406 
4871.000000	0.827193 
4870.000000	0.827932 
4869.000000	0.828647 
4868.000000	0.829291 
4867.000000	0.829935 
4866.000000	0.830578 
4865.000000	0.831246 
4864.000000	0.831890 
4863.000000	0.832557 
4862.000000	0.833201 
4861.000000	0.833797 
4860.000000	0.834321 
4859.000000	0.834727 
4858.000000	0.835013 
4857.000000	0.835180 
4856.000000	0.835323 
4855.000000	0.835442 
4854.000000	0.835609 
4853.000000	0.835871 
4852.000000	0.836253 
4851.000000	0.836753 
4850.000000	0.837326 
4849.000000	0.837969 
4848.000000	0.838637 
4847.000000	0.839304 
4846.000000	0.839924 
4845.000000	0.840497 
4844.000000	0.841021 
4843.000000	0.841546 
4842.000000	0.842070 
4841.000000	0.842618 
4840.000000	0.843238 
4839.000000	0.843834 
4838.000000	0.844502 
4837.000000	0.845122 
4836.000000	0.845742 
4835.000000	0.846314 
4834.000000	0.846815 
4833.000000	0.847244 
4832.000000	0.847625 
4831.000000	0.847935 
4830.000000	0.848245 
4829.000000	0.848579 
4828.000000	0.848984 
4827.000000	0.849461 
4826.000000	0.850081 
4825.000000	0.850844 
4824.000000	0.851750 
4823.000000	0.852823 
4822.000000	0.854039 
4821.000000	0.855326 
4820.000000	0.856637 
4819.000000	0.857925 
4818.000000	0.859069 
4817.000000	0.860071 
4816.000000	0.860881 
4815.000000	0.861477 
4814.000000	0.861907 
4813.000000	0.862121 
4812.000000	0.862240 
4811.000000	0.862336 
4810.000000	0.862383 
4809.000000	0.862503 
4808.000000	0.862669 
4807.000000	0.863003 
4806.000000	0.863480 
4805.000000	0.864052 
4804.000000	0.864768 
4803.000000	0.865554 
4802.000000	0.866413 
4801.000000	0.867247 
4800.000000	0.868082 
4799.000000	0.868844 
4798.000000	0.869536 
4797.000000	0.870156 
4796.000000	0.870680 
4795.000000	0.871133 
4794.000000	0.871491 
4793.000000	0.871729 
4792.000000	0.871872 
4791.000000	0.871944 
4790.000000	0.871992 
4789.000000	0.871992 
4788.000000	0.872015 
4787.000000	0.872063 
4786.000000	0.872206 
4785.000000	0.872445 
4784.000000	0.872778 
4783.000000	0.873208 
4782.000000	0.873684 
4781.000000	0.874209 
4780.000000	0.874733 
4779.000000	0.875234 
4778.000000	0.875687 
4777.000000	0.876212 
4776.000000	0.876712 
4775.000000	0.877308 
4774.000000	0.877952 
4773.000000	0.878643 
4772.000000	0.879406 
4771.000000	0.880193 
4770.000000	0.881028 
4769.000000	0.881862 
4768.000000	0.882673 
4767.000000	0.883388 
4766.000000	0.884032 
4765.000000	0.884580 
4764.000000	0.884985 
4763.000000	0.885272 
4762.000000	0.885510 
4761.000000	0.885629 
4760.000000	0.885701 
4759.000000	0.885701 
4758.000000	0.885772 
4757.000000	0.885868 
4756.000000	0.886058 
4755.000000	0.886416 
4754.000000	0.886893 
4753.000000	0.887537 
4752.000000	0.888323 
4751.000000	0.889229 
4750.000000	0.890183 
4749.000000	0.891137 
4748.000000	0.892043 
4747.000000	0.892901 
4746.000000	0.893616 
4745.000000	0.894236 
4744.000000	0.894784 
4743.000000	0.895237 
4742.000000	0.895595 
4741.000000	0.895905 
4740.000000	0.896167 
4739.000000	0.896382 
4738.000000	0.896501 
4737.000000	0.896573 
4736.000000	0.896573 
4735.000000	0.896549 
4734.000000	0.896453 
4733.000000	0.896358 
4732.000000	0.896286 
4731.000000	0.896263 
4730.000000	0.896310 
4729.000000	0.896382 
4728.000000	0.896501 
4727.000000	0.896644 
4726.000000	0.896787 
4725.000000	0.896930 
4724.000000	0.897049 
4723.000000	0.897169 
4722.000000	0.897288 
4721.000000	0.897455 
4720.000000	0.897693 
4719.000000	0.898003 
4718.000000	0.898408 
4717.000000	0.898909 
4716.000000	0.899434 
4715.000000	0.899982 
4714.000000	0.900506 
4713.000000	0.900912 
4712.000000	0.901174 
4711.000000	0.901269 
4710.000000	0.901198 
4709.000000	0.900959 
4708.000000	0.900626 
4707.000000	0.900292 
4706.000000	0.899934 
4705.000000	0.899672 
4704.000000	0.899577 
4703.000000	0.899696 
4702.000000	0.899982 
4701.000000	0.900435 
4700.000000	0.901007 
4699.000000	0.901651 
4698.000000	0.902247 
4697.000000	0.902748 
4696.000000	0.903153 
4695.000000	0.903439 
4694.000000	0.903582 
4693.000000	0.903606 
4692.000000	0.903582 
4691.000000	0.903558 
4690.000000	0.903558 
4689.000000	0.903630 
4688.000000	0.903820 
4687.000000	0.904083 
4686.000000	0.904464 
4685.000000	0.904965 
4684.000000	0.905537 
4683.000000	0.906109 
4682.000000	0.906682 
4681.000000	0.907206 
4680.000000	0.907611 
4679.000000	0.907850 
4678.000000	0.907993 
4677.000000	0.907945 
4676.000000	0.907826 
4675.000000	0.907611 
4674.000000	0.907373 
4673.000000	0.907182 
4672.000000	0.907087 
4671.000000	0.907135 
4670.000000	0.907349 
4669.000000	0.907683 
4668.000000	0.908160 
4667.000000	0.908708 
4666.000000	0.909280 
4665.000000	0.909805 
4664.000000	0.910258 
4663.000000	0.910687 
4662.000000	0.910997 
4661.000000	0.911235 
4660.000000	0.911402 
4659.000000	0.911521 
4658.000000	0.911593 
4657.000000	0.911593 
4656.000000	0.911569 
4655.000000	0.911474 
4654.000000	0.911355 
4653.000000	0.911235 
4652.000000	0.911116 
4651.000000	0.911045 
4650.000000	0.911045 
4649.000000	0.911140 
4648.000000	0.911331 
4647.000000	0.911593 
4646.000000	0.911927 
4645.000000	0.912356 
4644.000000	0.912785 
4643.000000	0.913262 
4642.000000	0.913834 
4641.000000	0.914430 
4640.000000	0.915050 
4639.000000	0.915694 
4638.000000	0.916385 
4637.000000	0.917053 
4636.000000	0.917649 
4635.000000	0.918221 
4634.000000	0.918745 
4633.000000	0.919151 
4632.000000	0.919556 
4631.000000	0.919914 
4630.000000	0.920248 
4629.000000	0.920605 
4628.000000	0.920963 
4627.000000	0.921344 
4626.000000	0.921773 
4625.000000	0.922179 
4624.000000	0.922632 
4623.000000	0.923061 
4622.000000	0.923466 
4621.000000	0.923871 
4620.000000	0.924229 
4619.000000	0.924563 
4618.000000	0.924873 
4617.000000	0.925183 
4616.000000	0.925445 
4615.000000	0.925731 
4614.000000	0.925993 
4613.000000	0.926327 
4612.000000	0.926685 
4611.000000	0.927066 
4610.000000	0.927567 
4609.000000	0.928211 
4608.000000	0.928950 
4607.000000	0.929784 
4606.000000	0.930690 
4605.000000	0.931692 
4604.000000	0.932741 
4603.000000	0.933790 
4602.000000	0.934815 
4601.000000	0.935792 
4600.000000	0.936722 
4599.000000	0.937533 
4598.000000	0.938224 
4597.000000	0.938796 
4596.000000	0.939273 
4595.000000	0.939631 
4594.000000	0.939893 
4593.000000	0.940179 
4592.000000	0.940465 
4591.000000	0.940847 
4590.000000	0.941371 
4589.000000	0.942063 
4588.000000	0.942897 
4587.000000	0.943851 
4586.000000	0.944876 
4585.000000	0.945925 
4584.000000	0.946927 
4583.000000	0.947880 
4582.000000	0.948786 
4581.000000	0.949692 
4580.000000	0.950574 
4579.000000	0.951528 
4578.000000	0.952553 
4577.000000	0.953602 
4576.000000	0.954675 
4575.000000	0.955748 
4574.000000	0.956797 
4573.000000	0.957727 
4572.000000	0.958561 
4571.000000	0.959277 
4570.000000	0.959897 
4569.000000	0.960516 
4568.000000	0.961089 
4567.000000	0.961661 
4566.000000	0.962305 
4565.000000	0.962972 
4564.000000	0.963711 
4563.000000	0.964474 
4562.000000	0.965285 
4561.000000	0.966119 
4560.000000	0.966954 
4559.000000	0.967764 
4558.000000	0.968551 
4557.000000	0.969266 
4556.000000	0.969934 
4555.000000	0.970530 
4554.000000	0.971150 
4553.000000	0.971722 
4552.000000	0.972342 
4551.000000	0.973010 
4550.000000	0.973749 
4549.000000	0.974559 
4548.000000	0.975394 
4547.000000	0.976300 
4546.000000	0.977206 
4545.000000	0.978136 
4544.000000	0.979042 
4543.000000	0.979924 
4542.000000	0.980710 
4541.000000	0.981450 
4540.000000	0.982069 
4539.000000	0.982570 
4538.000000	0.982975 
4537.000000	0.983309 
4536.000000	0.983619 
4535.000000	0.983953 
4534.000000	0.984406 
4533.000000	0.984978 
4532.000000	0.985717 
4531.000000	0.986671 
4530.000000	0.987768 
4529.000000	0.989007 
4528.000000	0.990271 
4527.000000	0.991559 
4526.000000	0.992751 
4525.000000	0.993847 
4524.000000	0.994777 
4523.000000	0.995588 
4522.000000	0.996232 
4521.000000	0.996780 
4520.000000	0.997185 
4519.000000	0.997519 
4518.000000	0.997829 
4517.000000	0.998115 
4516.000000	0.998353 
4515.000000	0.998640 
4514.000000	0.998973 
4513.000000	0.999355 
4512.000000	0.999760 
4511.000000	1.000261 
4510.000000	1.000761 
4509.000000	1.001238 
4508.000000	1.001691 
4507.000000	1.002073 
4506.000000	1.002407 
4505.000000	1.002693 
4504.000000	1.002979 
4503.000000	1.003217 
4502.000000	1.003479 
4501.000000	1.003766 
4500.000000	1.004123 
4499.000000	1.004528 
4498.000000	1.005005 
4497.000000	1.005625 
4496.000000	1.006269 
4495.000000	1.006984 
4494.000000	1.007771 
4493.000000	1.008582 
4492.000000	1.009392 
4491.000000	1.010179 
4490.000000	1.010918 
4489.000000	1.011633 
4488.000000	1.012277 
4487.000000	1.012897 
4486.000000	1.013469 
4485.000000	1.013970 
4484.000000	1.014399 
4483.000000	1.014709 
4482.000000	1.014900 
4481.000000	1.014947 
4480.000000	1.014828 
4479.000000	1.014566 
4478.000000	1.014232 
4477.000000	1.013827 
4476.000000	1.013398 
4475.000000	1.013016 
4474.000000	1.012730 
4473.000000	1.012539 
4472.000000	1.012492 
4471.000000	1.012516 
4470.000000	1.012730 
4469.000000	1.012992 
4468.000000	1.013350 
4467.000000	1.013803 
4466.000000	1.014280 
4465.000000	1.014828 
4464.000000	1.015353 
4463.000000	1.015830 
4462.000000	1.016211 
4461.000000	1.016426 
4460.000000	1.016473 
4459.000000	1.016330 
4458.000000	1.016044 
4457.000000	1.015663 
4456.000000	1.015281 
4455.000000	1.014995 
4454.000000	1.014900 
4453.000000	1.014995 
4452.000000	1.015329 
4451.000000	1.015830 
4450.000000	1.016473 
4449.000000	1.017069 
4448.000000	1.017642 
4447.000000	1.018095 
4446.000000	1.018404 
4445.000000	1.018500 
4444.000000	1.018476 
4443.000000	1.018285 
4442.000000	1.017975 
4441.000000	1.017522 
4440.000000	1.016902 
4439.000000	1.016259 
4438.000000	1.015615 
4437.000000	1.015090 
4436.000000	1.014804 
4435.000000	1.014828 
4434.000000	1.015210 
4433.000000	1.015925 
4432.000000	1.016950 
4431.000000	1.018118 
4430.000000	1.019310 
4429.000000	1.020431 
4428.000000	1.021289 
4427.000000	1.021909 
4426.000000	1.022076 
4425.000000	1.021790 
4424.000000	1.021194 
4423.000000	1.020455 
4422.000000	1.019620 
4421.000000	1.018810 
4420.000000	1.018285 
4419.000000	1.018142 
4418.000000	1.018404 
4417.000000	1.018977 
4416.000000	1.019525 
4415.000000	1.019740 
4414.000000	1.019334 
4413.000000	1.018071 
4412.000000	1.015830 
4411.000000	1.012730 
4410.000000	1.009178 
4409.000000	1.005625 
4408.000000	1.002573 
4407.000000	1.000690 
4406.000000	1.000428 
4405.000000	1.002264 
4404.000000	1.006293 
4403.000000	1.012468 
4402.000000	1.019859 
4401.000000	1.027154 
4400.000000	1.031780 
4399.000000	1.031017 
4398.000000	1.021742 
4397.000000	1.001310 
4396.000000	0.968313 
4395.000000	0.923061 
4394.000000	0.868272 
4393.000000	0.808930 
4392.000000	0.751614 
4391.000000	0.703573 
4390.000000	0.671339 
4389.000000	0.659465 
4388.000000	0.669622 
4387.000000	0.700187 
4386.000000	0.746774 
4385.000000	0.803303 
4384.000000	0.862956 
4383.000000	0.919699 
4382.000000	0.968980 
4381.000000	1.008439 
4380.000000	1.037526 
4379.000000	1.057291 
4378.000000	1.069617 
4377.000000	1.076459 
4376.000000	1.079678 
4375.000000	1.080393 
4374.000000	1.079487 
4373.000000	1.077222 
4372.000000	1.074171 
4371.000000	1.070690 
4370.000000	1.067399 
4369.000000	1.064610 
4368.000000	1.062750 
4367.000000	1.061892 
4366.000000	1.061916 
4365.000000	1.062583 
4364.000000	1.063680 
4363.000000	1.064920 
4362.000000	1.066112 
4361.000000	1.067209 
4360.000000	1.068234 
4359.000000	1.069164 
4358.000000	1.069927 
4357.000000	1.070475 
4356.000000	1.070666 
4355.000000	1.070618 
4354.000000	1.070332 
4353.000000	1.069903 
4352.000000	1.069355 
4351.000000	1.068925 
4350.000000	1.068925 
4349.000000	1.069307 
4348.000000	1.070022 
4347.000000	1.071023 
4346.000000	1.072144 
4345.000000	1.073312 
4344.000000	1.074361 
4343.000000	1.075363 
4342.000000	1.076292 
4341.000000	1.077198 
4340.000000	1.078200 
4339.000000	1.079320 
4338.000000	1.080608 
4337.000000	1.082038 
4336.000000	1.083564 
4335.000000	1.085138 
4334.000000	1.086688 
4333.000000	1.088166 
4332.000000	1.089572 
4331.000000	1.090860 
4330.000000	1.092100 
4329.000000	1.093363 
4328.000000	1.094627 
4327.000000	1.095914 
4326.000000	1.097273 
4325.000000	1.098585 
4324.000000	1.099896 
4323.000000	1.101088 
4322.000000	1.102137 
4321.000000	1.103019 
4320.000000	1.103782 
4319.000000	1.104450 
4318.000000	1.105070 
4317.000000	1.105713 
4316.000000	1.106429 
4315.000000	1.107263 
4314.000000	1.108193 
4313.000000	1.109218 
4312.000000	1.110291 
4311.000000	1.111412 
4310.000000	1.112532 
4309.000000	1.113557 
4308.000000	1.114511 
4307.000000	1.115441 
4306.000000	1.116347 
4305.000000	1.117324 
4304.000000	1.118373 
4303.000000	1.119589 
4302.000000	1.120901 
4301.000000	1.122355 
4300.000000	1.123809 
4299.000000	1.125288 
4298.000000	1.126718 
4297.000000	1.128053 
4296.000000	1.129317 
4295.000000	1.130533 
4294.000000	1.131749 
4293.000000	1.132917 
4292.000000	1.134133 
4291.000000	1.135349 
4290.000000	1.136541 
4289.000000	1.137709 
4288.000000	1.138758 
4287.000000	1.139664 
4286.000000	1.140451 
4285.000000	1.141119 
4284.000000	1.141643 
4283.000000	1.142072 
4282.000000	1.142430 
4281.000000	1.142764 
4280.000000	1.143097 
4279.000000	1.143503 
4278.000000	1.144027 
4277.000000	1.144695 
4276.000000	1.145648 
4275.000000	1.146793 
4274.000000	1.148200 
4273.000000	1.149821 
4272.000000	1.151514 
4271.000000	1.153206 
4270.000000	1.154828 
4269.000000	1.156258 
4268.000000	1.157426 
4267.000000	1.158332 
4266.000000	1.159000 
4265.000000	1.159453 
4264.000000	1.159691 
4263.000000	1.159882 
4262.000000	1.160097 
4261.000000	1.160335 
4260.000000	1.160645 
4259.000000	1.161074 
4258.000000	1.161646 
4257.000000	1.162362 
4256.000000	1.163220 
4255.000000	1.164197 
4254.000000	1.165246 
4253.000000	1.166343 
4252.000000	1.167440 
4251.000000	1.168489 
4250.000000	1.169466 
4249.000000	1.170372 
4248.000000	1.171159 
4247.000000	1.171875 
4246.000000	1.172542 
4245.000000	1.173210 
4244.000000	1.173925 
4243.000000	1.174712 
4242.000000	1.175618 
4241.000000	1.176571 
4240.000000	1.177573 
4239.000000	1.178598 
4238.000000	1.179599 
4237.000000	1.180577 
4236.000000	1.181435 
4235.000000	1.182198 
4234.000000	1.182842 
4233.000000	1.183319 
4232.000000	1.183724 
4231.000000	1.184058 
4230.000000	1.184296 
4229.000000	1.184511 
4228.000000	1.184678 
4227.000000	1.184868 
4226.000000	1.185035 
4225.000000	1.185250 
4224.000000	1.185512 
4223.000000	1.185846 
4222.000000	1.186299 
4221.000000	1.186895 
4220.000000	1.187634 
4219.000000	1.188540 
4218.000000	1.189613 
4217.000000	1.190733 
4216.000000	1.191854 
4215.000000	1.192951 
4214.000000	1.193928 
4213.000000	1.194715 
4212.000000	1.195240 
4211.000000	1.195597 
4210.000000	1.195788 
4209.000000	1.195883 
4208.000000	1.195979 
4207.000000	1.196146 
4206.000000	1.196432 
4205.000000	1.196837 
4204.000000	1.197314 
4203.000000	1.197862 
4202.000000	1.198434 
4201.000000	1.198935 
4200.000000	1.199293 
4199.000000	1.199579 
4198.000000	1.199746 
4197.000000	1.199841 
4196.000000	1.199913 
4195.000000	1.199960 
4194.000000	1.200079 
4193.000000	1.200270 
4192.000000	1.200556 
4191.000000	1.200938 
4190.000000	1.201438 
4189.000000	1.202011 
4188.000000	1.202678 
4187.000000	1.203346 
4186.000000	1.204037 
4185.000000	1.204729 
4184.000000	1.205325 
4183.000000	1.205873 
4182.000000	1.206326 
4181.000000	1.206684 
4180.000000	1.206946 
4179.000000	1.207137 
4178.000000	1.207304 
4177.000000	1.207494 
4176.000000	1.207709 
4175.000000	1.208019 
4174.000000	1.208424 
4173.000000	1.208972 
4172.000000	1.209616 
4171.000000	1.210355 
4170.000000	1.211166 
4169.000000	1.212000 
4168.000000	1.212835 
4167.000000	1.213645 
4166.000000	1.214456 
4165.000000	1.215243 
4164.000000	1.215982 
4163.000000	1.216721 
4162.000000	1.217341 
4161.000000	1.217889 
4160.000000	1.218366 
4159.000000	1.218724 
4158.000000	1.219034 
4157.000000	1.219248 
4156.000000	1.219439 
4155.000000	1.219677 
4154.000000	1.219964 
4153.000000	1.220369 
4152.000000	1.220870 
4151.000000	1.221489 
4150.000000	1.222229 
4149.000000	1.223063 
4148.000000	1.223945 
4147.000000	1.224875 
4146.000000	1.225781 
4145.000000	1.226687 
4144.000000	1.227593 
4143.000000	1.228451 
4142.000000	1.229262 
4141.000000	1.229977 
4140.000000	1.230669 
4139.000000	1.231288 
4138.000000	1.231884 
4137.000000	1.232481 
4136.000000	1.233100 
4135.000000	1.233744 
4134.000000	1.234459 
4133.000000	1.235270 
4132.000000	1.236176 
4131.000000	1.237201 
4130.000000	1.238298 
4129.000000	1.239371 
4128.000000	1.240491 
4127.000000	1.241469 
4126.000000	1.242375 
4125.000000	1.243162 
4124.000000	1.243853 
4123.000000	1.244473 
4122.000000	1.245045 
4121.000000	1.245617 
4120.000000	1.246166 
4119.000000	1.246690 
4118.000000	1.247167 
4117.000000	1.247620 
4116.000000	1.248025 
4115.000000	1.248383 
4114.000000	1.248717 
4113.000000	1.249074 
4112.000000	1.249551 
4111.000000	1.250123 
4110.000000	1.250910 
4109.000000	1.251912 
4108.000000	1.253056 
4107.000000	1.254320 
4106.000000	1.255631 
4105.000000	1.256942 
4104.000000	1.258134 
4103.000000	1.259255 
4102.000000	1.260256 
4101.000000	1.261162 
4100.000000	1.262021 
4099.000000	1.262927 
4098.000000	1.263904 
4097.000000	1.265001 
4096.000000	1.266193 
4095.000000	1.267552 
4094.000000	1.269030 
4093.000000	1.270604 
4092.000000	1.272273 
4091.000000	1.273965 
4090.000000	1.275658 
4089.000000	1.277327 
4088.000000	1.278877 
4087.000000	1.280331 
4086.000000	1.281666 
4085.000000	1.282858 
4084.000000	1.284003 
4083.000000	1.285171 
4082.000000	1.286387 
4081.000000	1.287674 
4080.000000	1.289105 
4079.000000	1.290702 
4078.000000	1.292443 
4077.000000	1.294350 
4076.000000	1.296329 
4075.000000	1.298284 
4074.000000	1.300144 
4073.000000	1.301860 
4072.000000	1.303386 
4071.000000	1.304674 
4070.000000	1.305747 
4069.000000	1.306605 
4068.000000	1.307296 
4067.000000	1.307916 
4066.000000	1.308536 
4065.000000	1.309251 
4064.000000	1.310086 
4063.000000	1.311111 
4062.000000	1.312279 
4061.000000	1.313638 
4060.000000	1.315093 
4059.000000	1.316547 
4058.000000	1.317977 
4057.000000	1.319336 
4056.000000	1.320600 
4055.000000	1.321792 
4054.000000	1.322913 
4053.000000	1.324057 
4052.000000	1.325201 
4051.000000	1.326417 
4050.000000	1.327753 
4049.000000	1.329183 
4048.000000	1.330661 
4047.000000	1.332163 
4046.000000	1.333642 
4045.000000	1.335048 
4044.000000	1.336407 
4043.000000	1.337671 
4042.000000	1.338887 
4041.000000	1.340055 
4040.000000	1.341247 
4039.000000	1.342439 
4038.000000	1.343655 
4037.000000	1.344895 
4036.000000	1.346135 
4035.000000	1.347374 
4034.000000	1.348590 
4033.000000	1.349806 
4032.000000	1.351022 
4031.000000	1.352262 
4030.000000	1.353478 
4029.000000	1.354694 
4028.000000	1.355910 
4027.000000	1.357102 
4026.000000	1.358246 
4025.000000	1.359367 
4024.000000	1.360392 
4023.000000	1.361393 
4022.000000	1.362347 
4021.000000	1.363325 
4020.000000	1.364278 
4019.000000	1.365280 
4018.000000	1.366281 
4017.000000	1.367330 
4016.000000	1.368427 
4015.000000	1.369571 
4014.000000	1.370739 
4013.000000	1.371932 
4012.000000	1.373147 
4011.000000	1.374411 
4010.000000	1.375627 
4009.000000	1.376795 
4008.000000	1.377940 
4007.000000	1.379013 
4006.000000	1.380062 
4005.000000	1.381063 
4004.000000	1.382088 
4003.000000	1.383137 
4002.000000	1.384234 
4001.000000	1.385378 
4000.000000	1.386594 
3999.000000	1.387834 
3998.000000	1.389074 
3997.000000	1.390266 
3996.000000	1.391458 
3995.000000	1.392579 
3994.000000	1.393604 
3993.000000	1.394557 
3992.000000	1.395463 
3991.000000	1.396346 
3990.000000	1.397228 
3989.000000	1.398134 
3988.000000	1.399016 
3987.000000	1.399874 
3986.000000	1.400709 
3985.000000	1.401472 
3984.000000	1.402115 
3983.000000	1.402664 
3982.000000	1.403069 
3981.000000	1.403403 
3980.000000	1.403617 
3979.000000	1.403808 
3978.000000	1.403951 
3977.000000	1.404094 
3976.000000	1.404285 
3975.000000	1.404500 
3974.000000	1.404833 
3973.000000	1.405286 
3972.000000	1.405835 
3971.000000	1.406478 
3970.000000	1.407194 
3969.000000	1.407933 
3968.000000	1.408672 
3967.000000	1.409339 
3966.000000	1.409888 
3965.000000	1.410388 
3964.000000	1.410818 
3963.000000	1.411294 
3962.000000	1.411843 
3961.000000	1.412463 
3960.000000	1.413249 
3959.000000	1.414084 
3958.000000	1.415014 
3957.000000	1.415920 
3956.000000	1.416802 
3955.000000	1.417541 
3954.000000	1.418161 
3953.000000	1.418662 
3952.000000	1.419043 
3951.000000	1.419401 
3950.000000	1.419663 
3949.000000	1.419901 
3948.000000	1.420140 
3947.000000	1.420307 
3946.000000	1.420426 
3945.000000	1.420450 
3944.000000	1.420426 
3943.000000	1.420378 
3942.000000	1.420283 
3941.000000	1.420259 
3940.000000	1.420307 
3939.000000	1.420497 
3938.000000	1.420807 
3937.000000	1.421308 
3936.000000	1.421928 
3935.000000	1.422595 
3934.000000	1.423287 
3933.000000	1.423954 
3932.000000	1.424527 
3931.000000	1.425027 
3930.000000	1.425385 
3929.000000	1.425671 
3928.000000	1.425909 
3927.000000	1.426148 
3926.000000	1.426410 
3925.000000	1.426696 
3924.000000	1.427078 
3923.000000	1.427555 
3922.000000	1.428127 
3921.000000	1.428771 
3920.000000	1.429462 
3919.000000	1.430201 
3918.000000	1.430940 
3917.000000	1.431679 
3916.000000	1.432371 
3915.000000	1.432943 
3914.000000	1.433467 
3913.000000	1.433849 
3912.000000	1.434063 
3911.000000	1.434206 
3910.000000	1.434230 
3909.000000	1.434159 
3908.000000	1.434111 
3907.000000	1.434111 
3906.000000	1.434206 
3905.000000	1.434397 
3904.000000	1.434755 
3903.000000	1.435208 
3902.000000	1.435708 
3901.000000	1.436209 
3900.000000	1.436686 
3899.000000	1.437115 
3898.000000	1.437401 
3897.000000	1.437640 
3896.000000	1.437711 
3895.000000	1.437759 
3894.000000	1.437759 
3893.000000	1.437783 
3892.000000	1.437878 
3891.000000	1.438021 
3890.000000	1.438236 
3889.000000	1.438498 
3888.000000	1.438832 
3887.000000	1.439213 
3886.000000	1.439666 
3885.000000	1.440215 
3884.000000	1.440930 
3883.000000	1.441764 
3882.000000	1.442766 
3881.000000	1.443910 
3880.000000	1.445126 
3879.000000	1.446318 
3878.000000	1.447439 
3877.000000	1.448440 
3876.000000	1.449275 
3875.000000	1.449918 
3874.000000	1.450443 
3873.000000	1.450920 
3872.000000	1.451396 
3871.000000	1.451969 
3870.000000	1.452684 
3869.000000	1.453566 
3868.000000	1.454567 
3867.000000	1.455736 
3866.000000	1.456880 
3865.000000	1.458024 
3864.000000	1.458978 
3863.000000	1.459717 
3862.000000	1.460027 
3861.000000	1.459884 
3860.000000	1.459288 
3859.000000	1.458215 
3858.000000	1.456904 
3857.000000	1.455569 
3856.000000	1.454448 
3855.000000	1.453852 
3854.000000	1.453995 
3853.000000	1.454997 
3852.000000	1.456832 
3851.000000	1.459312 
3850.000000	1.462221 
3849.000000	1.465201 
3848.000000	1.467967 
3847.000000	1.470255 
3846.000000	1.471924 
3845.000000	1.472997 
3844.000000	1.473450 
3843.000000	1.473546 
3842.000000	1.473498 
3841.000000	1.473426 
3840.000000	1.473569 
3839.000000	1.473975 
3838.000000	1.474714 
3837.000000	1.475858 
3836.000000	1.477265 
3835.000000	1.478934 
3834.000000	1.480793 
3833.000000	1.482725 
3832.000000	1.484632 
3831.000000	1.486420 
3830.000000	1.488041 
3829.000000	1.489400 
3828.000000	1.490449 
3827.000000	1.491189 
3826.000000	1.491689 
3825.000000	1.491975 
3824.000000	1.492166 
3823.000000	1.492404 
3822.000000	1.492810 
3821.000000	1.493501 
3820.000000	1.494550 
3819.000000	1.496028 
3818.000000	1.497936 
3817.000000	1.500105 
3816.000000	1.502490 
3815.000000	1.504898 
3814.000000	1.507210 
3813.000000	1.509308 
3812.000000	1.511049 
3811.000000	1.512384 
3810.000000	1.513314 
3809.000000	1.513957 
3808.000000	1.514291 
3807.000000	1.514530 
3806.000000	1.514673 
3805.000000	1.514863 
3804.000000	1.515126 
3803.000000	1.515579 
3802.000000	1.516246 
3801.000000	1.517152 
3800.000000	1.518273 
3799.000000	1.519584 
3798.000000	1.521086 
3797.000000	1.522684 
3796.000000	1.524329 
3795.000000	1.525950 
3794.000000	1.527547 
3793.000000	1.529097 
3792.000000	1.530599 
3791.000000	1.532077 
3790.000000	1.533460 
3789.000000	1.534795 
3788.000000	1.535987 
3787.000000	1.537084 
3786.000000	1.537966 
3785.000000	1.538729 
3784.000000	1.539397 
3783.000000	1.540017 
3782.000000	1.540684 
3781.000000	1.541447 
3780.000000	1.542329 
3779.000000	1.543331 
3778.000000	1.544451 
3777.000000	1.545548 
3776.000000	1.546478 
3775.000000	1.547241 
3774.000000	1.547789 
3773.000000	1.548147 
3772.000000	1.548409 
3771.000000	1.548624 
3770.000000	1.548886 
3769.000000	1.549315 
3768.000000	1.549959 
3767.000000	1.550769 
3766.000000	1.551723 
3765.000000	1.552772 
3764.000000	1.553797 
3763.000000	1.554679 
3762.000000	1.555371 
3761.000000	1.555728 
3760.000000	1.555705 
3759.000000	1.555180 
3758.000000	1.554203 
3757.000000	1.552867 
3756.000000	1.551103 
3755.000000	1.549148 
3754.000000	1.547098 
3753.000000	1.545119 
3752.000000	1.543426 
3751.000000	1.542139 
3750.000000	1.541376 
3749.000000	1.541233 
3748.000000	1.541709 
3747.000000	1.542854 
3746.000000	1.544547 
3745.000000	1.546645 
3744.000000	1.549053 
3743.000000	1.551508 
3742.000000	1.553773 
3741.000000	1.555776 
3740.000000	1.557302 
3739.000000	1.558351 
3738.000000	1.558947 
3737.000000	1.559257 
3736.000000	1.559472 
3735.000000	1.559758 
3734.000000	1.560306 
3733.000000	1.561212 
3732.000000	1.562428 
3731.000000	1.563930 
3730.000000	1.565575 
3729.000000	1.567244 
3728.000000	1.568794 
3727.000000	1.570129 
3726.000000	1.571202 
3725.000000	1.572012 
3724.000000	1.572608 
3723.000000	1.572990 
3722.000000	1.573181 
3721.000000	1.573228 
3720.000000	1.573038 
3719.000000	1.572728 
3718.000000	1.572227 
3717.000000	1.571631 
3716.000000	1.570940 
3715.000000	1.570343 
3714.000000	1.569890 
3713.000000	1.569676 
3712.000000	1.569747 
3711.000000	1.570153 
3710.000000	1.570773 
3709.000000	1.571607 
3708.000000	1.572513 
3707.000000	1.573467 
3706.000000	1.574349 
3705.000000	1.575183 
3704.000000	1.575899 
3703.000000	1.576519 
3702.000000	1.577067 
3701.000000	1.577520 
3700.000000	1.577854 
3699.000000	1.577997 
3698.000000	1.577901 
3697.000000	1.577496 
3696.000000	1.576757 
3695.000000	1.575732 
3694.000000	1.574492 
3693.000000	1.573181 
3692.000000	1.571965 
3691.000000	1.570987 
3690.000000	1.570439 
3689.000000	1.570320 
3688.000000	1.570677 
3687.000000	1.571393 
3686.000000	1.572322 
3685.000000	1.573228 
3684.000000	1.573967 
3683.000000	1.574397 
3682.000000	1.574373 
3681.000000	1.573848 
3680.000000	1.572895 
3679.000000	1.571702 
3678.000000	1.570296 
3677.000000	1.568937 
3676.000000	1.567745 
3675.000000	1.566910 
3674.000000	1.566600 
3673.000000	1.566839 
3672.000000	1.567649 
3671.000000	1.568961 
3670.000000	1.570749 
3669.000000	1.572823 
3668.000000	1.575016 
3667.000000	1.577162 
3666.000000	1.579093 
3665.000000	1.580691 
3664.000000	1.581883 
3663.000000	1.582622 
3662.000000	1.582956 
3661.000000	1.582932 
3660.000000	1.582574 
3659.000000	1.582026 
3658.000000	1.581287 
3657.000000	1.580405 
3656.000000	1.579332 
3655.000000	1.578140 
3654.000000	1.576828 
3653.000000	1.575541 
3652.000000	1.574325 
3651.000000	1.573371 
3650.000000	1.572775 
3649.000000	1.572608 
3648.000000	1.572918 
3647.000000	1.573634 
3646.000000	1.574707 
3645.000000	1.576042 
3644.000000	1.577448 
3643.000000	1.578807 
3642.000000	1.580023 
3641.000000	1.581048 
3640.000000	1.581835 
3639.000000	1.582360 
3638.000000	1.582598 
3637.000000	1.582551 
3636.000000	1.582264 
3635.000000	1.581692 
3634.000000	1.580953 
3633.000000	1.580142 
3632.000000	1.579332 
3631.000000	1.578712 
3630.000000	1.578378 
3629.000000	1.578402 
3628.000000	1.578736 
3627.000000	1.579380 
3626.000000	1.580142 
3625.000000	1.580905 
3624.000000	1.581573 
3623.000000	1.582074 
3622.000000	1.582264 
3621.000000	1.582312 
3620.000000	1.582288 
3619.000000	1.582241 
3618.000000	1.582288 
3617.000000	1.582503 
3616.000000	1.582884 
3615.000000	1.583409 
3614.000000	1.584005 
3613.000000	1.584649 
3612.000000	1.585292 
3611.000000	1.585912 
3610.000000	1.586556 
3609.000000	1.587247 
3608.000000	1.588010 
3607.000000	1.588869 
3606.000000	1.589822 
3605.000000	1.590824 
3604.000000	1.591849 
3603.000000	1.592874 
3602.000000	1.593828 
3601.000000	1.594662 
3600.000000	1.595354 
3599.000000	1.595926 
3598.000000	1.596307 
3597.000000	1.596641 
3596.000000	1.596903 
3595.000000	1.597118 
3594.000000	1.597356 
3593.000000	1.597595 
3592.000000	1.597881 
3591.000000	1.598215 
3590.000000	1.598668 
3589.000000	1.599192 
3588.000000	1.599788 
3587.000000	1.600503 
3586.000000	1.601243 
3585.000000	1.602029 
3584.000000	1.602768 
3583.000000	1.603436 
3582.000000	1.604008 
3581.000000	1.604461 
3580.000000	1.604771 
3579.000000	1.604986 
3578.000000	1.605129 
3577.000000	1.605248 
3576.000000	1.605391 
3575.000000	1.605558 
3574.000000	1.605796 
3573.000000	1.606106 
3572.000000	1.606583 
3571.000000	1.607203 
3570.000000	1.607966 
3569.000000	1.608943 
3568.000000	1.610040 
3567.000000	1.611280 
3566.000000	1.612591 
3565.000000	1.613903 
3564.000000	1.615142 
3563.000000	1.616191 
3562.000000	1.616978 
3561.000000	1.617503 
3560.000000	1.617717 
3559.000000	1.617717 
3558.000000	1.617574 
3557.000000	1.617360 
3556.000000	1.617121 
3555.000000	1.616978 
3554.000000	1.616883 
3553.000000	1.616930 
3552.000000	1.617097 
3551.000000	1.617288 
3550.000000	1.617527 
3549.000000	1.617789 
3548.000000	1.618099 
3547.000000	1.618456 
3546.000000	1.618790 
3545.000000	1.619172 
3544.000000	1.619577 
3543.000000	1.620006 
3542.000000	1.620435 
3541.000000	1.620841 
3540.000000	1.621174 
3539.000000	1.621508 
3538.000000	1.621747 
3537.000000	1.621913 
3536.000000	1.622009 
3535.000000	1.622080 
3534.000000	1.622080 
3533.000000	1.622033 
3532.000000	1.621985 
3531.000000	1.621961 
3530.000000	1.622033 
3529.000000	1.622247 
3528.000000	1.622629 
3527.000000	1.623153 
3526.000000	1.623868 
3525.000000	1.624727 
3524.000000	1.625585 
3523.000000	1.626443 
3522.000000	1.627135 
3521.000000	1.627588 
3520.000000	1.627826 
3519.000000	1.627826 
3518.000000	1.627588 
3517.000000	1.627230 
3516.000000	1.626801 
3515.000000	1.626324 
3514.000000	1.625919 
3513.000000	1.625561 
3512.000000	1.625275 
3511.000000	1.625084 
3510.000000	1.624965 
3509.000000	1.624917 
3508.000000	1.624917 
3507.000000	1.624989 
3506.000000	1.625084 
3505.000000	1.625204 
3504.000000	1.625323 
3503.000000	1.625370 
3502.000000	1.625227 
3501.000000	1.624941 
3500.000000	1.624441 
3499.000000	1.623654 
3498.000000	1.622653 
3497.000000	1.621437 
3496.000000	1.620054 
3495.000000	1.618647 
3494.000000	1.617240 
3493.000000	1.615953 
3492.000000	1.614856 
3491.000000	1.613974 
3490.000000	1.613354 
3489.000000	1.612973 
3488.000000	1.612877 
3487.000000	1.612877 
3486.000000	1.613020 
3485.000000	1.613187 
3484.000000	1.613330 
3483.000000	1.613402 
3482.000000	1.613354 
3481.000000	1.613187 
3480.000000	1.612806 
3479.000000	1.612305 
3478.000000	1.611661 
3477.000000	1.610946 
3476.000000	1.610183 
3475.000000	1.609468 
3474.000000	1.608777 
3473.000000	1.608180 
3472.000000	1.607632 
3471.000000	1.607179 
3470.000000	1.606726 
3469.000000	1.606273 
3468.000000	1.605844 
3467.000000	1.605391 
3466.000000	1.604962 
3465.000000	1.604580 
3464.000000	1.604270 
3463.000000	1.604032 
3462.000000	1.603865 
3461.000000	1.603770 
3460.000000	1.603698 
3459.000000	1.603603 
3458.000000	1.603412 
3457.000000	1.603078 
3456.000000	1.602482 
3455.000000	1.601648 
3454.000000	1.600551 
3453.000000	1.599216 
3452.000000	1.597619 
3451.000000	1.595830 
3450.000000	1.594066 
3449.000000	1.592302 
3448.000000	1.590728 
3447.000000	1.589322 
3446.000000	1.588225 
3445.000000	1.587390 
3444.000000	1.586723 
3443.000000	1.586246 
3442.000000	1.585817 
3441.000000	1.585388 
3440.000000	1.584887 
3439.000000	1.584315 
3438.000000	1.583695 
3437.000000	1.583099 
3436.000000	1.582527 
3435.000000	1.582121 
3434.000000	1.581859 
3433.000000	1.581835 
3432.000000	1.582002 
3431.000000	1.582312 
3430.000000	1.582765 
3429.000000	1.583266 
3428.000000	1.583790 
3427.000000	1.584291 
3426.000000	1.584744 
3425.000000	1.585173 
3424.000000	1.585578 
3423.000000	1.585984 
3422.000000	1.586461 
3421.000000	1.587009 
3420.000000	1.587605 
3419.000000	1.588225 
3418.000000	1.588892 
3417.000000	1.589536 
3416.000000	1.590132 
3415.000000	1.590681 
3414.000000	1.591181 
3413.000000	1.591658 
3412.000000	1.592087 
3411.000000	1.592516 
3410.000000	1.592969 
3409.000000	1.593399 
3408.000000	1.593875 
3407.000000	1.594352 
3406.000000	1.594853 
3405.000000	1.595354 
3404.000000	1.595807 
3403.000000	1.596236 
3402.000000	1.596713 
3401.000000	1.597166 
3400.000000	1.597642 
3399.000000	1.598167 
3398.000000	1.598668 
3397.000000	1.599264 
3396.000000	1.599979 
3395.000000	1.600766 
3394.000000	1.601600 
3393.000000	1.602506 
3392.000000	1.603412 
3391.000000	1.604318 
3390.000000	1.605153 
3389.000000	1.605868 
3388.000000	1.606488 
3387.000000	1.606988 
3386.000000	1.607418 
3385.000000	1.607823 
3384.000000	1.608252 
3383.000000	1.608705 
3382.000000	1.609253 
3381.000000	1.609849 
3380.000000	1.610565 
3379.000000	1.611328 
3378.000000	1.612162 
3377.000000	1.613068 
3376.000000	1.614046 
3375.000000	1.615166 
3374.000000	1.616334 
3373.000000	1.617622 
3372.000000	1.619029 
3371.000000	1.620507 
3370.000000	1.622033 
3369.000000	1.623511 
3368.000000	1.624941 
3367.000000	1.626276 
3366.000000	1.627540 
3365.000000	1.628708 
3364.000000	1.629781 
3363.000000	1.630878 
3362.000000	1.631927 
3361.000000	1.633000 
3360.000000	1.634120 
3359.000000	1.635217 
3358.000000	1.636362 
3357.000000	1.637482 
3356.000000	1.638650 
3355.000000	1.639819 
3354.000000	1.641035 
3353.000000	1.642322 
3352.000000	1.643681 
3351.000000	1.645135 
3350.000000	1.646733 
3349.000000	1.648354 
3348.000000	1.650047 
3347.000000	1.651716 
3346.000000	1.653409 
3345.000000	1.655030 
3344.000000	1.656532 
3343.000000	1.657986 
3342.000000	1.659345 
3341.000000	1.660633 
3340.000000	1.661849 
3339.000000	1.663064 
3338.000000	1.664233 
3337.000000	1.665472 
3336.000000	1.666784 
3335.000000	1.668143 
3334.000000	1.669621 
3333.000000	1.671171 
3332.000000	1.672792 
3331.000000	1.674485 
3330.000000	1.676177 
3329.000000	1.677846 
3328.000000	1.679396 
3327.000000	1.680874 
3326.000000	1.682209 
3325.000000	1.683402 
3324.000000	1.684451 
3323.000000	1.685404 
3322.000000	1.686334 
3321.000000	1.687288 
3320.000000	1.688313 
3319.000000	1.689386 
3318.000000	1.690626 
3317.000000	1.691985 
3316.000000	1.693487 
3315.000000	1.695132 
3314.000000	1.696801 
3313.000000	1.698517 
3312.000000	1.700234 
3311.000000	1.701927 
3310.000000	1.703524 
3309.000000	1.705074 
3308.000000	1.706576 
3307.000000	1.708006 
3306.000000	1.709437 
3305.000000	1.710867 
3304.000000	1.712298 
3303.000000	1.713752 
3302.000000	1.715302 
3301.000000	1.716876 
3300.000000	1.718449 
3299.000000	1.720023 
3298.000000	1.721549 
3297.000000	1.723027 
3296.000000	1.724386 
3295.000000	1.725602 
3294.000000	1.726722 
3293.000000	1.727747 
3292.000000	1.728701 
3291.000000	1.729607 
3290.000000	1.730489 
3289.000000	1.731419 
3288.000000	1.732373 
3287.000000	1.733398 
3286.000000	1.734447 
3285.000000	1.735591 
3284.000000	1.736783 
3283.000000	1.738047 
3282.000000	1.739311 
3281.000000	1.740574 
3280.000000	1.741862 
3279.000000	1.743125 
3278.000000	1.744318 
3277.000000	1.745414 
3276.000000	1.746392 
3275.000000	1.747298 
3274.000000	1.748108 
3273.000000	1.748847 
3272.000000	1.749539 
3271.000000	1.750230 
3270.000000	1.750946 
3269.000000	1.751708 
3268.000000	1.752567 
3267.000000	1.753425 
3266.000000	1.754403 
3265.000000	1.755404 
3264.000000	1.756477 
3263.000000	1.757550 
3262.000000	1.758623 
3261.000000	1.759648 
3260.000000	1.760649 
3259.000000	1.761627 
3258.000000	1.762557 
3257.000000	1.763463 
3256.000000	1.764345 
3255.000000	1.765227 
3254.000000	1.766133 
3253.000000	1.767039 
3252.000000	1.767921 
3251.000000	1.768755 
3250.000000	1.769495 
3249.000000	1.770138 
3248.000000	1.770663 
3247.000000	1.771116 
3246.000000	1.771473 
3245.000000	1.771783 
3244.000000	1.772093 
3243.000000	1.772379 
3242.000000	1.772713 
3241.000000	1.773047 
3240.000000	1.773428 
3239.000000	1.773834 
3238.000000	1.774215 
3237.000000	1.774644 
3236.000000	1.775074 
3235.000000	1.775550 
3234.000000	1.776099 
3233.000000	1.776742 
3232.000000	1.777482 
3231.000000	1.778292 
3230.000000	1.779127 
3229.000000	1.780009 
3228.000000	1.780867 
3227.000000	1.781630 
3226.000000	1.782298 
3225.000000	1.782822 
3224.000000	1.783299 
3223.000000	1.783657 
3222.000000	1.783967 
3221.000000	1.784229 
3220.000000	1.784491 
3219.000000	1.784706 
3218.000000	1.784873 
3217.000000	1.784944 
3216.000000	1.784896 
3215.000000	1.784777 
3214.000000	1.784610 
3213.000000	1.784443 
3212.000000	1.784300 
3211.000000	1.784205 
3210.000000	1.784205 
3209.000000	1.784324 
3208.000000	1.784515 
3207.000000	1.784753 
3206.000000	1.785039 
3205.000000	1.785373 
3204.000000	1.785731 
3203.000000	1.786136 
3202.000000	1.786589 
3201.000000	1.787114 
3200.000000	1.787686 
3199.000000	1.788234 
3198.000000	1.788806 
3197.000000	1.789355 
3196.000000	1.789855 
3195.000000	1.790308 
3194.000000	1.790690 
3193.000000	1.791000 
3192.000000	1.791286 
3191.000000	1.791524 
3190.000000	1.791715 
3189.000000	1.791882 
3188.000000	1.791977 
3187.000000	1.792025 
3186.000000	1.792097 
3185.000000	1.792144 
3184.000000	1.792216 
3183.000000	1.792287 
3182.000000	1.792407 
3181.000000	1.792550 
3180.000000	1.792693 
3179.000000	1.792860 
3178.000000	1.793026 
3177.000000	1.793241 
3176.000000	1.793432 
3175.000000	1.793670 
3174.000000	1.793932 
3173.000000	1.794219 
3172.000000	1.794552 
3171.000000	1.794934 
3170.000000	1.795339 
3169.000000	1.795840 
3168.000000	1.796412 
3167.000000	1.797008 
3166.000000	1.797652 
3165.000000	1.798415 
3164.000000	1.799178 
3163.000000	1.799964 
3162.000000	1.800775 
3161.000000	1.801562 
3160.000000	1.802325 
3159.000000	1.803040 
3158.000000	1.803731 
3157.000000	1.804399 
3156.000000	1.805067 
3155.000000	1.805782 
3154.000000	1.806497 
3153.000000	1.807260 
3152.000000	1.808047 
3151.000000	1.808881 
3150.000000	1.809763 
3149.000000	1.810622 
3148.000000	1.811504 
3147.000000	1.812362 
3146.000000	1.813244 
3145.000000	1.814055 
3144.000000	1.814842 
3143.000000	1.815581 
3142.000000	1.816296 
3141.000000	1.816964 
3140.000000	1.817631 
3139.000000	1.818323 
3138.000000	1.818990 
3137.000000	1.819682 
3136.000000	1.820349 
3135.000000	1.821017 
3134.000000	1.821684 
3133.000000	1.822376 
3132.000000	1.823139 
3131.000000	1.823949 
3130.000000	1.824903 
3129.000000	1.826000 
3128.000000	1.827263 
3127.000000	1.828670 
3126.000000	1.830267 
3125.000000	1.831984 
3124.000000	1.833724 
3123.000000	1.835465 
3122.000000	1.837134 
3121.000000	1.838755 
3120.000000	1.840281 
3119.000000	1.841711 
3118.000000	1.843118 
3117.000000	1.844477 
3116.000000	1.845836 
3115.000000	1.847195 
3114.000000	1.848554 
3113.000000	1.850056 
3112.000000	1.851606 
3111.000000	1.853179 
3110.000000	1.854801 
3109.000000	1.856446 
3108.000000	1.858067 
3107.000000	1.859712 
3106.000000	1.861286 
3105.000000	1.862812 
3104.000000	1.864290 
3103.000000	1.865744 
3102.000000	1.867151 
3101.000000	1.868557 
3100.000000	1.869988 
3099.000000	1.871514 
3098.000000	1.873135 
3097.000000	1.874828 
3096.000000	1.876640 
3095.000000	1.878523 
3094.000000	1.880478 
3093.000000	1.882457 
3092.000000	1.884460 
3091.000000	1.886463 
3090.000000	1.888394 
3089.000000	1.890325 
3088.000000	1.892209 
3087.000000	1.894092 
3086.000000	1.895976 
3085.000000	1.897883 
3084.000000	1.899838 
3083.000000	1.901793 
3082.000000	1.903796 
3081.000000	1.905798 
3080.000000	1.907777 
3079.000000	1.909732 
3078.000000	1.911592 
3077.000000	1.913380 
3076.000000	1.915073 
3075.000000	1.916670 
3074.000000	1.918101 
3073.000000	1.919388 
3072.000000	1.920533 
3071.000000	1.921534 
3070.000000	1.922464 
3069.000000	1.923274 
3068.000000	1.924085 
3067.000000	1.924872 
3066.000000	1.925730 
3065.000000	1.926684 
3064.000000	1.927781 
3063.000000	1.929068 
3062.000000	1.930570 
3061.000000	1.932215 
3060.000000	1.933979 
3059.000000	1.935911 
3058.000000	1.937913 
3057.000000	1.939988 
3056.000000	1.942086 
3055.000000	1.944184 
3054.000000	1.946258 
3053.000000	1.948308 
3052.000000	1.950311 
3051.000000	1.952242 
3050.000000	1.954078 
3049.000000	1.955866 
3048.000000	1.957488 
3047.000000	1.959013 
3046.000000	1.960372 
3045.000000	1.961684 
3044.000000	1.962924 
3043.000000	1.964139 
3042.000000	1.965308 
3041.000000	1.966547 
3040.000000	1.967835 
3039.000000	1.969099 
3038.000000	1.970338 
3037.000000	1.971507 
3036.000000	1.972508 
3035.000000	1.973223 
3034.000000	1.973652 
3033.000000	1.973676 
3032.000000	1.973342 
3031.000000	1.972579 
3030.000000	1.971387 
3029.000000	1.969838 
3028.000000	1.967930 
3027.000000	1.965808 
3026.000000	1.963496 
3025.000000	1.961112 
3024.000000	1.958799 
3023.000000	1.956677 
3022.000000	1.954913 
3021.000000	1.953601 
3020.000000	1.952934 
3019.000000	1.953053 
3018.000000	1.953983 
3017.000000	1.955795 
3016.000000	1.958489 
3015.000000	1.962018 
3014.000000	1.966261 
3013.000000	1.971030 
3012.000000	1.976156 
3011.000000	1.981472 
3010.000000	1.986765 
3009.000000	1.991868 
3008.000000	1.996707 
3007.000000	2.001142 
3006.000000	2.005147 
3005.000000	2.008724 
3004.000000	2.011919 
3003.000000	2.014636 
3002.000000	2.016973 
3001.000000	2.018952 
3000.000000	2.020597 
2999.000000	2.021956 
2998.000000	2.023053 
2997.000000	2.023959 
2996.000000	2.024650 
2995.000000	2.025270 
2994.000000	2.025723 
2993.000000	2.026009 
2992.000000	2.026152 
2991.000000	2.026152 
2990.000000	2.025961 
2989.000000	2.025628 
2988.000000	2.025151 
2987.000000	2.024507 
2986.000000	2.023673 
2985.000000	2.022743 
2984.000000	2.021646 
2983.000000	2.020311 
2982.000000	2.018737 
2981.000000	2.016878 
2980.000000	2.014684 
2979.000000	2.012038 
2978.000000	2.008986 
2977.000000	2.005481 
2976.000000	2.001500 
2975.000000	1.996994 
2974.000000	1.992058 
2973.000000	1.986694 
2972.000000	1.980996 
2971.000000	1.975035 
2970.000000	1.968908 
2969.000000	1.962780 
2968.000000	1.956748 
2967.000000	1.950931 
2966.000000	1.945471 
2965.000000	1.940512 
2964.000000	1.936125 
2963.000000	1.932382 
2962.000000	1.929306 
2961.000000	1.926922 
2960.000000	1.925134 
2959.000000	1.923871 
2958.000000	1.923084 
2957.000000	1.922583 
2956.000000	1.922297 
2955.000000	1.922059 
2954.000000	1.921701 
2953.000000	1.921105 
2952.000000	1.920151 
2951.000000	1.918673 
2950.000000	1.916503 
2949.000000	1.913547 
2948.000000	1.909685 
2947.000000	1.904988 
2946.000000	1.899290 
2945.000000	1.892662 
2944.000000	1.885294 
2943.000000	1.877188 
2942.000000	1.868557 
2941.000000	1.859521 
2940.000000	1.850342 
2939.000000	1.841139 
2938.000000	1.832008 
2937.000000	1.823091 
2936.000000	1.814460 
2935.000000	1.806211 
2934.000000	1.798319 
2933.000000	1.790928 
2932.000000	1.784086 
2931.000000	1.777935 
2930.000000	1.772642 
2929.000000	1.768422 
2928.000000	1.765489 
2927.000000	1.764011 
2926.000000	1.764202 
2925.000000	1.766228 
2924.000000	1.770162 
2923.000000	1.776003 
2922.000000	1.783609 
2921.000000	1.792860 
2920.000000	1.803421 
2919.000000	1.814985 
2918.000000	1.827216 
2917.000000	1.839733 
2916.000000	1.852202 
2915.000000	1.864266 
2914.000000	1.875805 
2913.000000	1.886606 
2912.000000	1.896500 
2911.000000	1.905512 
2910.000000	1.913690 
2909.000000	1.921033 
2908.000000	1.927614 
2907.000000	1.933503 
2906.000000	1.938796 
2905.000000	1.943564 
2904.000000	1.947927 
2903.000000	1.951932 
2902.000000	1.955652 
2901.000000	1.959156 
2900.000000	1.962494 
2899.000000	1.965689 
2898.000000	1.968717 
2897.000000	1.971697 
2896.000000	1.974654 
2895.000000	1.977586 
2894.000000	1.980471 
2893.000000	1.983428 
2892.000000	1.986408 
2891.000000	1.989412 
2890.000000	1.992392 
2889.000000	1.995325 
2888.000000	1.998114 
2887.000000	2.000713 
2886.000000	2.003026 
2885.000000	2.004957 
2884.000000	2.006530 
2883.000000	2.007603 
2882.000000	2.008223 
2881.000000	2.008342 
2880.000000	2.007961 
2879.000000	2.007079 
2878.000000	2.005600 
2877.000000	2.003502 
2876.000000	2.000761 
2875.000000	1.997280 
2874.000000	1.993036 
2873.000000	1.987957 
2872.000000	1.981997 
2871.000000	1.975154 
2870.000000	1.967477 
2869.000000	1.959085 
2868.000000	1.950168 
2867.000000	1.941037 
2866.000000	1.932024 
2865.000000	1.923608 
2864.000000	1.916170 
2863.000000	1.910233 
2862.000000	1.906132 
2861.000000	1.904177 
2860.000000	1.904392 
2859.000000	1.906895 
2858.000000	1.911473 
2857.000000	1.917910 
2856.000000	1.925849 
2855.000000	1.934957 
2854.000000	1.944851 
2853.000000	1.955246 
2852.000000	1.965856 
2851.000000	1.976513 
2850.000000	1.986956 
2849.000000	1.997160 
2848.000000	2.007031 
2847.000000	2.016496 
2846.000000	2.025485 
2845.000000	2.033925 
2844.000000	2.041864 
2843.000000	2.049255 
2842.000000	2.056026 
2841.000000	2.062273 
2840.000000	2.068042 
2839.000000	2.073335 
2838.000000	2.078127 
2837.000000	2.082562 
2836.000000	2.086687 
2835.000000	2.090525 
2834.000000	2.094101 
2833.000000	2.097439 
2832.000000	2.100634 
2831.000000	2.103734 
2830.000000	2.106714 
2829.000000	2.109646 
2828.000000	2.112555 
2827.000000	2.115440 
2826.000000	2.118396 
2825.000000	2.121376 
2824.000000	2.124381 
2823.000000	2.127408 
2822.000000	2.130413 
2821.000000	2.133369 
2820.000000	2.136182 
2819.000000	2.138805 
2818.000000	2.141237 
2817.000000	2.143430 
2816.000000	2.145409 
2815.000000	2.147197 
2814.000000	2.148890 
2813.000000	2.150583 
2812.000000	2.152252 
2811.000000	2.154016 
2810.000000	2.155923 
2809.000000	2.157950 
2808.000000	2.160000 
2807.000000	2.162122 
2806.000000	2.164316 
2805.000000	2.166461 
2804.000000	2.168536 
2803.000000	2.170610 
2802.000000	2.172613 
2801.000000	2.174544 
2800.000000	2.176403 
2799.000000	2.178215 
2798.000000	2.179980 
2797.000000	2.181673 
2796.000000	2.183318 
2795.000000	2.184939 
2794.000000	2.186560 
2793.000000	2.188205 
2792.000000	2.189898 
2791.000000	2.191615 
2790.000000	2.193450 
2789.000000	2.195382 
2788.000000	2.197360 
2787.000000	2.199411 
2786.000000	2.201557 
2785.000000	2.203702 
2784.000000	2.205872 
2783.000000	2.208018 
2782.000000	2.210092 
2781.000000	2.212095 
2780.000000	2.213931 
2779.000000	2.215671 
2778.000000	2.217292 
2777.000000	2.218866 
2776.000000	2.220344 
2775.000000	2.221775 
2774.000000	2.223205 
2773.000000	2.224636 
2772.000000	2.226018 
2771.000000	2.227401 
2770.000000	2.228760 
2769.000000	2.230072 
2768.000000	2.231359 
2767.000000	2.232599 
2766.000000	2.233767 
2765.000000	2.234911 
2764.000000	2.236008 
2763.000000	2.237081 
2762.000000	2.238154 
2761.000000	2.239251 
2760.000000	2.240347 
2759.000000	2.241468 
2758.000000	2.242565 
2757.000000	2.243638 
2756.000000	2.244639 
2755.000000	2.245497 
2754.000000	2.246284 
2753.000000	2.246928 
2752.000000	2.247476 
2751.000000	2.247929 
2750.000000	2.248334 
2749.000000	2.248716 
2748.000000	2.249073 
2747.000000	2.249455 
2746.000000	2.249836 
2745.000000	2.250242 
2744.000000	2.250671 
2743.000000	2.251052 
2742.000000	2.251362 
2741.000000	2.251625 
2740.000000	2.251863 
2739.000000	2.252030 
2738.000000	2.252149 
2737.000000	2.252221 
2736.000000	2.252268 
2735.000000	2.252316 
2734.000000	2.252364 
2733.000000	2.252411 
2732.000000	2.252483 
2731.000000	2.252578 
2730.000000	2.252769 
2729.000000	2.252984 
2728.000000	2.253198 
2727.000000	2.253413 
2726.000000	2.253603 
2725.000000	2.253699 
2724.000000	2.253723 
2723.000000	2.253651 
2722.000000	2.253508 
2721.000000	2.253317 
2720.000000	2.253079 
2719.000000	2.252840 
2718.000000	2.252602 
2717.000000	2.252411 
2716.000000	2.252244 
2715.000000	2.252054 
2714.000000	2.251839 
2713.000000	2.251601 
2712.000000	2.251291 
2711.000000	2.250838 
2710.000000	2.250313 
2709.000000	2.249717 
2708.000000	2.249097 
2707.000000	2.248430 
2706.000000	2.247786 
2705.000000	2.247238 
2704.000000	2.246785 
2703.000000	2.246403 
2702.000000	2.246141 
2701.000000	2.245950 
2700.000000	2.245831 
2699.000000	2.245712 
2698.000000	2.245593 
2697.000000	2.245473 
2696.000000	2.245330 
2695.000000	2.245116 
2694.000000	2.244901 
2693.000000	2.244663 
2692.000000	2.244400 
2691.000000	2.244067 
2690.000000	2.243781 
2689.000000	2.243399 
2688.000000	2.242970 
2687.000000	2.242493 
2686.000000	2.241992 
2685.000000	2.241492 
2684.000000	2.240967 
2683.000000	2.240443 
2682.000000	2.239942 
2681.000000	2.239441 
2680.000000	2.238965 
2679.000000	2.238488 
2678.000000	2.238011 
2677.000000	2.237510 
2676.000000	2.237010 
2675.000000	2.236485 
2674.000000	2.235913 
2673.000000	2.235317 
2672.000000	2.234697 
2671.000000	2.234053 
2670.000000	2.233409 
2669.000000	2.232789 
2668.000000	2.232170 
2667.000000	2.231550 
2666.000000	2.230930 
2665.000000	2.230358 
2664.000000	2.229762 
2663.000000	2.229189 
2662.000000	2.228665 
2661.000000	2.228164 
2660.000000	2.227663 
2659.000000	2.227187 
2658.000000	2.226686 
2657.000000	2.226161 
2656.000000	2.225589 
2655.000000	2.224946 
2654.000000	2.224278 
2653.000000	2.223587 
2652.000000	2.222943 
2651.000000	2.222394 
2650.000000	2.221965 
2649.000000	2.221679 
2648.000000	2.221536 
2647.000000	2.221536 
2646.000000	2.221584 
2645.000000	2.221655 
2644.000000	2.221703 
2643.000000	2.221632 
2642.000000	2.221512 
2641.000000	2.221298 
2640.000000	2.221035 
2639.000000	2.220797 
2638.000000	2.220535 
2637.000000	2.220320 
2636.000000	2.220177 
2635.000000	2.220034 
2634.000000	2.219939 
2633.000000	2.219867 
2632.000000	2.219796 
2631.000000	2.219772 
2630.000000	2.219843 
2629.000000	2.220010 
2628.000000	2.220296 
2627.000000	2.220702 
2626.000000	2.221250 
2625.000000	2.221870 
2624.000000	2.222466 
2623.000000	2.222990 
2622.000000	2.223420 
2621.000000	2.223682 
2620.000000	2.223801 
2619.000000	2.223825 
2618.000000	2.223825 
2617.000000	2.223873 
2616.000000	2.224040 
2615.000000	2.224373 
2614.000000	2.224802 
2613.000000	2.225351 
2612.000000	2.225875 
2611.000000	2.226352 
2610.000000	2.226686 
2609.000000	2.226805 
2608.000000	2.226758 
2607.000000	2.226591 
2606.000000	2.226328 
2605.000000	2.226066 
2604.000000	2.225875 
2603.000000	2.225780 
2602.000000	2.225828 
2601.000000	2.226018 
2600.000000	2.226352 
2599.000000	2.226758 
2598.000000	2.227258 
2597.000000	2.227830 
2596.000000	2.228426 
2595.000000	2.228999 
2594.000000	2.229571 
2593.000000	2.230143 
2592.000000	2.230715 
2591.000000	2.231311 
2590.000000	2.231955 
2589.000000	2.232718 
2588.000000	2.233672 
2587.000000	2.234792 
2586.000000	2.236104 
2585.000000	2.237606 
2584.000000	2.239274 
2583.000000	2.241039 
2582.000000	2.242827 
2581.000000	2.244591 
2580.000000	2.246284 
2579.000000	2.247858 
2578.000000	2.249336 
2577.000000	2.250695 
2576.000000	2.252006 
2575.000000	2.253270 
2574.000000	2.254533 
2573.000000	2.255773 
2572.000000	2.257084 
2571.000000	2.258467 
2570.000000	2.259945 
2569.000000	2.261495 
2568.000000	2.263164 
2567.000000	2.264904 
2566.000000	2.266645 
2565.000000	2.268314 
2564.000000	2.269864 
2563.000000	2.271199 
2562.000000	2.272343 
2561.000000	2.273321 
2560.000000	2.274155 
2559.000000	2.274823 
2558.000000	2.275466 
2557.000000	2.276086 
2556.000000	2.276778 
2555.000000	2.277588 
2554.000000	2.278518 
2553.000000	2.279567 
2552.000000	2.280783 
2551.000000	2.282071 
2550.000000	2.283477 
2549.000000	2.284932 
2548.000000	2.286434 
2547.000000	2.287936 
2546.000000	2.289438 
2545.000000	2.290964 
2544.000000	2.292442 
2543.000000	2.293896 
2542.000000	2.295303 
2541.000000	2.296614 
2540.000000	2.297878 
2539.000000	2.299046 
2538.000000	2.300119 
2537.000000	2.301025 
2536.000000	2.301764 
2535.000000	2.302408 
2534.000000	2.302932 
2533.000000	2.303385 
2532.000000	2.303814 
2531.000000	2.304291 
2530.000000	2.304911 
2529.000000	2.305698 
2528.000000	2.306652 
2527.000000	2.307748 
2526.000000	2.308988 
2525.000000	2.310371 
2524.000000	2.311849 
2523.000000	2.313303 
2522.000000	2.314758 
2521.000000	2.316117 
2520.000000	2.317357 
2519.000000	2.318358 
2518.000000	2.319145 
2517.000000	2.319693 
2516.000000	2.319979 
2515.000000	2.320146 
2514.000000	2.320241 
2513.000000	2.320265 
2512.000000	2.320313 
2511.000000	2.320432 
2510.000000	2.320623 
2509.000000	2.320885 
2508.000000	2.321195 
2507.000000	2.321434 
2506.000000	2.321672 
2505.000000	2.321815 
2504.000000	2.321910 
2503.000000	2.322006 
2502.000000	2.322101 
2501.000000	2.322268 
2500.000000	2.322530 
2499.000000	2.322864 
2498.000000	2.323341 
2497.000000	2.323913 
2496.000000	2.324485 
2495.000000	2.325010 
2494.000000	2.325439 
2493.000000	2.325677 
2492.000000	2.325725 
2491.000000	2.325606 
2490.000000	2.325248 
2489.000000	2.324700 
2488.000000	2.324080 
2487.000000	2.323436 
2486.000000	2.322793 
2485.000000	2.322220 
2484.000000	2.321743 
2483.000000	2.321386 
2482.000000	2.321147 
2481.000000	2.320957 
2480.000000	2.320814 
2479.000000	2.320623 
2478.000000	2.320432 
2477.000000	2.320146 
2476.000000	2.319765 
2475.000000	2.319264 
2474.000000	2.318644 
2473.000000	2.317953 
2472.000000	2.317142 
2471.000000	2.316260 
2470.000000	2.315330 
2469.000000	2.314352 
2468.000000	2.313327 
2467.000000	2.312278 
2466.000000	2.311205 
2465.000000	2.310085 
2464.000000	2.309012 
2463.000000	2.307939 
2462.000000	2.306938 
2461.000000	2.306056 
2460.000000	2.305293 
2459.000000	2.304697 
2458.000000	2.304196 
2457.000000	2.303814 
2456.000000	2.303481 
2455.000000	2.303147 
2454.000000	2.302742 
2453.000000	2.302193 
2452.000000	2.301526 
2451.000000	2.300667 
2450.000000	2.299666 
2449.000000	2.298545 
2448.000000	2.297353 
2447.000000	2.296090 
2446.000000	2.294826 
2445.000000	2.293539 
2444.000000	2.292299 
2443.000000	2.291083 
2442.000000	2.289891 
2441.000000	2.288746 
2440.000000	2.287697 
2439.000000	2.286696 
2438.000000	2.285742 
2437.000000	2.284812 
2436.000000	2.283930 
2435.000000	2.283072 
2434.000000	2.282190 
2433.000000	2.281284 
2432.000000	2.280330 
2431.000000	2.279376 
2430.000000	2.278399 
2429.000000	2.277469 
2428.000000	2.276587 
2427.000000	2.275776 
2426.000000	2.275085 
2425.000000	2.274489 
2424.000000	2.273917 
2423.000000	2.273344 
2422.000000	2.272701 
2421.000000	2.271962 
2420.000000	2.271056 
2419.000000	2.270007 
2418.000000	2.268791 
2417.000000	2.267503 
2416.000000	2.266216 
2415.000000	2.265024 
2414.000000	2.263951 
2413.000000	2.263140 
2412.000000	2.262520 
2411.000000	2.262067 
2410.000000	2.261805 
2409.000000	2.261590 
2408.000000	2.261424 
2407.000000	2.261209 
2406.000000	2.260923 
2405.000000	2.260565 
2404.000000	2.260160 
2403.000000	2.259683 
2402.000000	2.259159 
2401.000000	2.258634 
2400.000000	2.258086 
2399.000000	2.257490 
2398.000000	2.256917 
2397.000000	2.256321 
2396.000000	2.255725 
2395.000000	2.255153 
2394.000000	2.254605 
2393.000000	2.254128 
2392.000000	2.253651 
2391.000000	2.253222 
2390.000000	2.252817 
2389.000000	2.252411 
2388.000000	2.252006 
2387.000000	2.251625 
2386.000000	2.251195 
2385.000000	2.250742 
2384.000000	2.250242 
2383.000000	2.249693 
2382.000000	2.249097 
2381.000000	2.248382 
2380.000000	2.247595 
2379.000000	2.246737 
2378.000000	2.245759 
2377.000000	2.244734 
2376.000000	2.243590 
2375.000000	2.242398 
2374.000000	2.241253 
2373.000000	2.240061 
2372.000000	2.238965 
2371.000000	2.237892 
2370.000000	2.236914 
2369.000000	2.236056 
2368.000000	2.235364 
2367.000000	2.234816 
2366.000000	2.234482 
2365.000000	2.234363 
2364.000000	2.234458 
2363.000000	2.234840 
2362.000000	2.235531 
2361.000000	2.236533 
2360.000000	2.237844 
2359.000000	2.239465 
2358.000000	2.241373 
2357.000000	2.243494 
2356.000000	2.245807 
2355.000000	2.248167 
2354.000000	2.250504 
2353.000000	2.252721 
2352.000000	2.254772 
2351.000000	2.256608 
2350.000000	2.258181 
2349.000000	2.259469 
2348.000000	2.260494 
2347.000000	2.261281 
2346.000000	2.261877 
2345.000000	2.262306 
2344.000000	2.262616 
2343.000000	2.262902 
2342.000000	2.263164 
2341.000000	2.263498 
2340.000000	2.263927 
2339.000000	2.264547 
2338.000000	2.265381 
2337.000000	2.266430 
2336.000000	2.267742 
2335.000000	2.269291 
2334.000000	2.271080 
2333.000000	2.273082 
2332.000000	2.275204 
2331.000000	2.277421 
2330.000000	2.279734 
2329.000000	2.282023 
2328.000000	2.284240 
2327.000000	2.286338 
2326.000000	2.288293 
2325.000000	2.290105 
2324.000000	2.291750 
2323.000000	2.293252 
2322.000000	2.294707 
2321.000000	2.296161 
2320.000000	2.297687 
2319.000000	2.299308 
2318.000000	2.301049 
2317.000000	2.302932 
2316.000000	2.304935 
2315.000000	2.307057 
2314.000000	2.309274 
2313.000000	2.311515 
2312.000000	2.313733 
2311.000000	2.315950 
2310.000000	2.318096 
2309.000000	2.320170 
2308.000000	2.322220 
2307.000000	2.324151 
2306.000000	2.325940 
2305.000000	2.327632 
2304.000000	2.329182 
2303.000000	2.330565 
2302.000000	2.331757 
2301.000000	2.332901 
2300.000000	2.333950 
2299.000000	2.334976 
2298.000000	2.336025 
2297.000000	2.337169 
2296.000000	2.338433 
2295.000000	2.339792 
2294.000000	2.341294 
2293.000000	2.342867 
2292.000000	2.344489 
2291.000000	2.346062 
2290.000000	2.347636 
2289.000000	2.349090 
2288.000000	2.350449 
2287.000000	2.351689 
2286.000000	2.352809 
2285.000000	2.353835 
2284.000000	2.354764 
2283.000000	2.355647 
2282.000000	2.356433 
2281.000000	2.357196 
2280.000000	2.357935 
2279.000000	2.358675 
2278.000000	2.359390 
2277.000000	2.360081 
2276.000000	2.360749 
2275.000000	2.361440 
2274.000000	2.362108 
2273.000000	2.362728 
2272.000000	2.363371 
2271.000000	2.364015 
2270.000000	2.364659 
2269.000000	2.365303 
2268.000000	2.365970 
2267.000000	2.366662 
2266.000000	2.367377 
2265.000000	2.368116 
2264.000000	2.368903 
2263.000000	2.369666 
2262.000000	2.370405 
2261.000000	2.371072 
2260.000000	2.371692 
2259.000000	2.372193 
2258.000000	2.372598 
2257.000000	2.372860 
2256.000000	2.373051 
2255.000000	2.373170 
2254.000000	2.373266 
2253.000000	2.373337 
2252.000000	2.373456 
2251.000000	2.373600 
2250.000000	2.373790 
2249.000000	2.374005 
2248.000000	2.374267 
2247.000000	2.374482 
2246.000000	2.374672 
2245.000000	2.374792 
2244.000000	2.374839 
2243.000000	2.374792 
2242.000000	2.374696 
2241.000000	2.374529 
2240.000000	2.374291 
2239.000000	2.374100 
2238.000000	2.373933 
2237.000000	2.373814 
2236.000000	2.373766 
2235.000000	2.373766 
2234.000000	2.373838 
2233.000000	2.373981 
2232.000000	2.374076 
2231.000000	2.374172 
2230.000000	2.374196 
2229.000000	2.374124 
2228.000000	2.373933 
2227.000000	2.373623 
2226.000000	2.373170 
2225.000000	2.372598 
2224.000000	2.371907 
2223.000000	2.371072 
2222.000000	2.370190 
2221.000000	2.369260 
2220.000000	2.368307 
2219.000000	2.367377 
2218.000000	2.366495 
2217.000000	2.365684 
2216.000000	2.364969 
2215.000000	2.364349 
2214.000000	2.363777 
2213.000000	2.363300 
2212.000000	2.362847 
2211.000000	2.362418 
2210.000000	2.362036 
2209.000000	2.361607 
2208.000000	2.361178 
2207.000000	2.360701 
2206.000000	2.360177 
2205.000000	2.359557 
2204.000000	2.358865 
2203.000000	2.358102 
2202.000000	2.357244 
2201.000000	2.356290 
2200.000000	2.355337 
2199.000000	2.354311 
2198.000000	2.353239 
2197.000000	2.352166 
2196.000000	2.351045 
2195.000000	2.349948 
2194.000000	2.348828 
2193.000000	2.347683 
2192.000000	2.346491 
2191.000000	2.345275 
2190.000000	2.344107 
2189.000000	2.343010 
2188.000000	2.341961 
2187.000000	2.341079 
2186.000000	2.340364 
2185.000000	2.339816 
2184.000000	2.339434 
2183.000000	2.339220 
2182.000000	2.339100 
2181.000000	2.339029 
2180.000000	2.338981 
2179.000000	2.338933 
2178.000000	2.338767 
2177.000000	2.338504 
2176.000000	2.338147 
2175.000000	2.337670 
2174.000000	2.337121 
2173.000000	2.336502 
2172.000000	2.335882 
2171.000000	2.335238 
2170.000000	2.334618 
2169.000000	2.333998 
2168.000000	2.333426 
2167.000000	2.332854 
2166.000000	2.332258 
2165.000000	2.331686 
2164.000000	2.331137 
2163.000000	2.330565 
2162.000000	2.329993 
2161.000000	2.329468 
2160.000000	2.329039 
2159.000000	2.328705 
2158.000000	2.328491 
2157.000000	2.328467 
2156.000000	2.328586 
2155.000000	2.328872 
2154.000000	2.329277 
2153.000000	2.329778 
2152.000000	2.330303 
2151.000000	2.330803 
2150.000000	2.331256 
2149.000000	2.331590 
2148.000000	2.331781 
2147.000000	2.331900 
2146.000000	2.331972 
2145.000000	2.331948 
2144.000000	2.331900 
2143.000000	2.331900 
2142.000000	2.331924 
2141.000000	2.331995 
2140.000000	2.332115 
2139.000000	2.332282 
2138.000000	2.332425 
2137.000000	2.332568 
2136.000000	2.332687 
2135.000000	2.332782 
2134.000000	2.332830 
2133.000000	2.332878 
2132.000000	2.332901 
2131.000000	2.332901 
2130.000000	2.332878 
2129.000000	2.332806 
2128.000000	2.332735 
2127.000000	2.332663 
2126.000000	2.332568 
2125.000000	2.332425 
2124.000000	2.332353 
2123.000000	2.332234 
2122.000000	2.332186 
2121.000000	2.332186 
2120.000000	2.332162 
2119.000000	2.332162 
2118.000000	2.332139 
2117.000000	2.332115 
2116.000000	2.332091 
2115.000000	2.332043 
2114.000000	2.332019 
2113.000000	2.332067 
2112.000000	2.332115 
2111.000000	2.332258 
2110.000000	2.332496 
2109.000000	2.332782 
2108.000000	2.333116 
2107.000000	2.333474 
2106.000000	2.333855 
2105.000000	2.334213 
2104.000000	2.334523 
2103.000000	2.334809 
2102.000000	2.335023 
2101.000000	2.335166 
2100.000000	2.335143 
2099.000000	2.335023 
2098.000000	2.334833 
2097.000000	2.334523 
2096.000000	2.334141 
2095.000000	2.333760 
2094.000000	2.333450 
2093.000000	2.333235 
2092.000000	2.333164 
2091.000000	2.333235 
2090.000000	2.333450 
2089.000000	2.333784 
2088.000000	2.334189 
2087.000000	2.334713 
2086.000000	2.335357 
2085.000000	2.336025 
2084.000000	2.336764 
2083.000000	2.337551 
2082.000000	2.338433 
2081.000000	2.339363 
2080.000000	2.340364 
2079.000000	2.341485 
2078.000000	2.342653 
2077.000000	2.343916 
2076.000000	2.345228 
2075.000000	2.346587 
2074.000000	2.348065 
2073.000000	2.349567 
2072.000000	2.351140 
2071.000000	2.352833 
2070.000000	2.354621 
2069.000000	2.356529 
2068.000000	2.358531 
2067.000000	2.360653 
2066.000000	2.362871 
2065.000000	2.365088 
2064.000000	2.367329 
2063.000000	2.369523 
2062.000000	2.371644 
2061.000000	2.373647 
2060.000000	2.375602 
2059.000000	2.377414 
2058.000000	2.379202 
2057.000000	2.380990 
2056.000000	2.382850 
2055.000000	2.384829 
2054.000000	2.386951 
2053.000000	2.389144 
2052.000000	2.391433 
2051.000000	2.393794 
2050.000000	2.396154 
2049.000000	2.398538 
2048.000000	2.400779 
2047.000000	2.402973 
2046.000000	2.405071 
2045.000000	2.407050 
2044.000000	2.408885 
2043.000000	2.410578 
2042.000000	2.412176 
2041.000000	2.413654 
2040.000000	2.415060 
2039.000000	2.416419 
2038.000000	2.417778 
2037.000000	2.419137 
2036.000000	2.420473 
2035.000000	2.421832 
2034.000000	2.423167 
2033.000000	2.424478 
2032.000000	2.425765 
2031.000000	2.426958 
2030.000000	2.428102 
2029.000000	2.429175 
2028.000000	2.430224 
2027.000000	2.431249 
2026.000000	2.432250 
2025.000000	2.433252 
2024.000000	2.434229 
2023.000000	2.435135 
2022.000000	2.435994 
2021.000000	2.436852 
2020.000000	2.437639 
2019.000000	2.438426 
2018.000000	2.439188 
2017.000000	2.439975 
2016.000000	2.440762 
2015.000000	2.441549 
2014.000000	2.442288 
2013.000000	2.443003 
2012.000000	2.443695 
2011.000000	2.444338 
2010.000000	2.444911 
2009.000000	2.445411 
2008.000000	2.445864 
2007.000000	2.446293 
2006.000000	2.446699 
2005.000000	2.447080 
2004.000000	2.447485 
2003.000000	2.447891 
2002.000000	2.448272 
2001.000000	2.448654 
2000.000000	2.448964 
1999.000000	2.449226 
1998.000000	2.449440 
1997.000000	2.449584 
1996.000000	2.449655 
1995.000000	2.449631 
1994.000000	2.449560 
1993.000000	2.449393 
1992.000000	2.449178 
1991.000000	2.448868 
1990.000000	2.448511 
1989.000000	2.448058 
1988.000000	2.447533 
1987.000000	2.446937 
1986.000000	2.446269 
1985.000000	2.445530 
1984.000000	2.444791 
1983.000000	2.443933 
1982.000000	2.443003 
1981.000000	2.442073 
1980.000000	2.441072 
1979.000000	2.440094 
1978.000000	2.439117 
1977.000000	2.438187 
1976.000000	2.437305 
1975.000000	2.436494 
1974.000000	2.435708 
1973.000000	2.435016 
1972.000000	2.434349 
1971.000000	2.433681 
1970.000000	2.433013 
1969.000000	2.432322 
1968.000000	2.431583 
1967.000000	2.430772 
1966.000000	2.429890 
1965.000000	2.428913 
1964.000000	2.427887 
1963.000000	2.426838 
1962.000000	2.425765 
1961.000000	2.424740 
1960.000000	2.423715 
1959.000000	2.422761 
1958.000000	2.421855 
1957.000000	2.420997 
1956.000000	2.420234 
1955.000000	2.419519 
1954.000000	2.418828 
1953.000000	2.418112 
1952.000000	2.417325 
1951.000000	2.416467 
1950.000000	2.415490 
1949.000000	2.414393 
1948.000000	2.413225 
1947.000000	2.412056 
1946.000000	2.410888 
1945.000000	2.409768 
1944.000000	2.408790 
1943.000000	2.407932 
1942.000000	2.407240 
1941.000000	2.406716 
1940.000000	2.406263 
1939.000000	2.405929 
1938.000000	2.405619 
1937.000000	2.405238 
1936.000000	2.404785 
1935.000000	2.404165 
1934.000000	2.403354 
1933.000000	2.402377 
1932.000000	2.401232 
1931.000000	2.399921 
1930.000000	2.398586 
1929.000000	2.397203 
1928.000000	2.395844 
1927.000000	2.394580 
1926.000000	2.393412 
1925.000000	2.392339 
1924.000000	2.391362 
1923.000000	2.390360 
1922.000000	2.389311 
1921.000000	2.388238 
1920.000000	2.387070 
1919.000000	2.385854 
1918.000000	2.384614 
1917.000000	2.383375 
1916.000000	2.382206 
1915.000000	2.381157 
1914.000000	2.380180 
1913.000000	2.379298 
1912.000000	2.378463 
1911.000000	2.377605 
1910.000000	2.376747 
1909.000000	2.375841 
1908.000000	2.374839 
1907.000000	2.373790 
1906.000000	2.372717 
1905.000000	2.371644 
1904.000000	2.370572 
1903.000000	2.369546 
1902.000000	2.368569 
1901.000000	2.367687 
1900.000000	2.366828 
1899.000000	2.366089 
1898.000000	2.365374 
1897.000000	2.364683 
1896.000000	2.364039 
1895.000000	2.363443 
1894.000000	2.362895 
1893.000000	2.362442 
1892.000000	2.362132 
1891.000000	2.361917 
1890.000000	2.361869 
1889.000000	2.361941 
1888.000000	2.362108 
1887.000000	2.362370 
1886.000000	2.362656 
1885.000000	2.363038 
1884.000000	2.363443 
1883.000000	2.363920 
1882.000000	2.364420 
1881.000000	2.364945 
1880.000000	2.365493 
1879.000000	2.366018 
1878.000000	2.366471 
1877.000000	2.366828 
1876.000000	2.367067 
1875.000000	2.367186 
1874.000000	2.367210 
1873.000000	2.367186 
1872.000000	2.367210 
1871.000000	2.367353 
1870.000000	2.367711 
1869.000000	2.368330 
1868.000000	2.369236 
1867.000000	2.370429 
1866.000000	2.371811 
1865.000000	2.373361 
1864.000000	2.374982 
1863.000000	2.376556 
1862.000000	2.378010 
1861.000000	2.379298 
1860.000000	2.380323 
1859.000000	2.381134 
1858.000000	2.381730 
1857.000000	2.382111 
1856.000000	2.382373 
1855.000000	2.382540 
1854.000000	2.382707 
1853.000000	2.382898 
1852.000000	2.383089 
1851.000000	2.383303 
1850.000000	2.383542 
1849.000000	2.383780 
1848.000000	2.384042 
1847.000000	2.384400 
1846.000000	2.384829 
1845.000000	2.385401 
1844.000000	2.386260 
1843.000000	2.387380 
1842.000000	2.388715 
1841.000000	2.390265 
1840.000000	2.391910 
1839.000000	2.393531 
1838.000000	2.394986 
1837.000000	2.396225 
1836.000000	2.397108 
1835.000000	2.397680 
1834.000000	2.398014 
1833.000000	2.398133 
1832.000000	2.398204 
1831.000000	2.398324 
1830.000000	2.398610 
1829.000000	2.399110 
1828.000000	2.399873 
1827.000000	2.400898 
1826.000000	2.402114 
1825.000000	2.403497 
1824.000000	2.404975 
1823.000000	2.406406 
1822.000000	2.407813 
1821.000000	2.409076 
1820.000000	2.410221 
1819.000000	2.411222 
1818.000000	2.412033 
1817.000000	2.412676 
1816.000000	2.413177 
1815.000000	2.413630 
1814.000000	2.414035 
1813.000000	2.414488 
1812.000000	2.415013 
1811.000000	2.415633 
1810.000000	2.416348 
1809.000000	2.417135 
1808.000000	2.417922 
1807.000000	2.418732 
1806.000000	2.419495 
1805.000000	2.420139 
1804.000000	2.420663 
1803.000000	2.421069 
1802.000000	2.421307 
1801.000000	2.421355 
1800.000000	2.421164 
1799.000000	2.420759 
1798.000000	2.420139 
1797.000000	2.419328 
1796.000000	2.418470 
1795.000000	2.417588 
1794.000000	2.416849 
1793.000000	2.416348 
1792.000000	2.416110 
1791.000000	2.416181 
1790.000000	2.416515 
1789.000000	2.416992 
1788.000000	2.417492 
1787.000000	2.417922 
1786.000000	2.418184 
1785.000000	2.418255 
1784.000000	2.418088 
1783.000000	2.417707 
1782.000000	2.417111 
1781.000000	2.416300 
1780.000000	2.415227 
1779.000000	2.413892 
1778.000000	2.412319 
1777.000000	2.410554 
1776.000000	2.408719 
1775.000000	2.406907 
1774.000000	2.405285 
1773.000000	2.404022 
1772.000000	2.403163 
1771.000000	2.402734 
1770.000000	2.402710 
1769.000000	2.402973 
1768.000000	2.403259 
1767.000000	2.403426 
1766.000000	2.403330 
1765.000000	2.402901 
1764.000000	2.402162 
1763.000000	2.401065 
1762.000000	2.399754 
1761.000000	2.398252 
1760.000000	2.396583 
1759.000000	2.394819 
1758.000000	2.392888 
1757.000000	2.390861 
1756.000000	2.388596 
1755.000000	2.386140 
1754.000000	2.383494 
1753.000000	2.380704 
1752.000000	2.377796 
1751.000000	2.374863 
1750.000000	2.371907 
1749.000000	2.368950 
1748.000000	2.365946 
1747.000000	2.362871 
1746.000000	2.359628 
1745.000000	2.356171 
1744.000000	2.352428 
1743.000000	2.348399 
1742.000000	2.344059 
1741.000000	2.339506 
1740.000000	2.334833 
1739.000000	2.330160 
1738.000000	2.325773 
1737.000000	2.321815 
1736.000000	2.318549 
1735.000000	2.316141 
1734.000000	2.314662 
1733.000000	2.314066 
1732.000000	2.314257 
1731.000000	2.314996 
1730.000000	2.316117 
1729.000000	2.317214 
1728.000000	2.317953 
1727.000000	2.318072 
1726.000000	2.317452 
1725.000000	2.315974 
1724.000000	2.313661 
1723.000000	2.310705 
1722.000000	2.307319 
1721.000000	2.303838 
1720.000000	2.300500 
1719.000000	2.297616 
1718.000000	2.295398 
1717.000000	2.293872 
1716.000000	2.293086 
1715.000000	2.292799 
1714.000000	2.292799 
1713.000000	2.292847 
1712.000000	2.292656 
1711.000000	2.291941 
1710.000000	2.290606 
1709.000000	2.288556 
1708.000000	2.285790 
1707.000000	2.282333 
1706.000000	2.278351 
1705.000000	2.273964 
1704.000000	2.269315 
1703.000000	2.264595 
1702.000000	2.260041 
1701.000000	2.255988 
1700.000000	2.252602 
1699.000000	2.250123 
1698.000000	2.248644 
1697.000000	2.248263 
1696.000000	2.248740 
1695.000000	2.249813 
1694.000000	2.251076 
1693.000000	2.252101 
1692.000000	2.252435 
1691.000000	2.251839 
1690.000000	2.250218 
1689.000000	2.247667 
1688.000000	2.244520 
1687.000000	2.241158 
1686.000000	2.237987 
1685.000000	2.235436 
1684.000000	2.233695 
1683.000000	2.232766 
1682.000000	2.232551 
1681.000000	2.232742 
1680.000000	2.232956 
1679.000000	2.232885 
1678.000000	2.232313 
1677.000000	2.231144 
1676.000000	2.229380 
1675.000000	2.227234 
1674.000000	2.224802 
1673.000000	2.222323 
1672.000000	2.219939 
1671.000000	2.217769 
1670.000000	2.215862 
1669.000000	2.214145 
1668.000000	2.212643 
1667.000000	2.211308 
1666.000000	2.210021 
1665.000000	2.208733 
1664.000000	2.207303 
1663.000000	2.205514 
1662.000000	2.203178 
1661.000000	2.200126 
1660.000000	2.196288 
1659.000000	2.191591 
1658.000000	2.186179 
1657.000000	2.180290 
1656.000000	2.174377 
1655.000000	2.168774 
1654.000000	2.163910 
1653.000000	2.160048 
1652.000000	2.157258 
1651.000000	2.155518 
1650.000000	2.154731 
1649.000000	2.154660 
1648.000000	2.154946 
1647.000000	2.155375 
1646.000000	2.155733 
1645.000000	2.155733 
1644.000000	2.155280 
1643.000000	2.154278 
1642.000000	2.152657 
1641.000000	2.150440 
1640.000000	2.147746 
1639.000000	2.144694 
1638.000000	2.141475 
1637.000000	2.138304 
1636.000000	2.135396 
1635.000000	2.132797 
1634.000000	2.130579 
1633.000000	2.128601 
1632.000000	2.126741 
1631.000000	2.124762 
1630.000000	2.122449 
1629.000000	2.119660 
1628.000000	2.116274 
1627.000000	2.112245 
1626.000000	2.107548 
1625.000000	2.102208 
1624.000000	2.096223 
1623.000000	2.089643 
1622.000000	2.082467 
1621.000000	2.074646 
1620.000000	2.066326 
1619.000000	2.057480 
1618.000000	2.048158 
1617.000000	2.038478 
1616.000000	2.028536 
1615.000000	2.018451 
1614.000000	2.008390 
1613.000000	1.998615 
1612.000000	1.989388 
1611.000000	1.981019 
1610.000000	1.973867 
1609.000000	1.968216 
1608.000000	1.964306 
1607.000000	1.962256 
1606.000000	1.962018 
1605.000000	1.963472 
1604.000000	1.966261 
1603.000000	1.970076 
1602.000000	1.974511 
1601.000000	1.979255 
1600.000000	1.984000 
1599.000000	1.988482 
1598.000000	1.992607 
1597.000000	1.996278 
1596.000000	1.999425 
1595.000000	2.001976 
1594.000000	2.003931 
1593.000000	2.005314 
1592.000000	2.006101 
1591.000000	2.006340 
1590.000000	2.006125 
1589.000000	2.005481 
1588.000000	2.004432 
1587.000000	2.003002 
1586.000000	2.001237 
1585.000000	1.999115 
1584.000000	1.996588 
1583.000000	1.993751 
1582.000000	1.990652 
1581.000000	1.987433 
1580.000000	1.984238 
1579.000000	1.981282 
1578.000000	1.978731 
1577.000000	1.976680 
1576.000000	1.975154 
1575.000000	1.974129 
1574.000000	1.973485 
1573.000000	1.973080 
1572.000000	1.972746 
1571.000000	1.972198 
1570.000000	1.971244 
1569.000000	1.969575 
1568.000000	1.967072 
1567.000000	1.963543 
1566.000000	1.958942 
1565.000000	1.953387 
1564.000000	1.947093 
1563.000000	1.940512 
1562.000000	1.934170 
1561.000000	1.928615 
1560.000000	1.924371 
1559.000000	1.921892 
1558.000000	1.921343 
1557.000000	1.922678 
1556.000000	1.925611 
1555.000000	1.929664 
1554.000000	1.934289 
1553.000000	1.938867 
1552.000000	1.942896 
1551.000000	1.945996 
1550.000000	1.948070 
1549.000000	1.949048 
1548.000000	1.949143 
1547.000000	1.948714 
1546.000000	1.948285 
1545.000000	1.948356 
1544.000000	1.949548 
1543.000000	1.952362 
1542.000000	1.957273 
1541.000000	1.964378 
1540.000000	1.973676 
1539.000000	1.984906 
1538.000000	1.997637 
1537.000000	2.011227 
1536.000000	2.025032 
1535.000000	2.038526 
1534.000000	2.051138 
1533.000000	2.062416 
1532.000000	2.072167 
1531.000000	2.080345 
1530.000000	2.086973 
1529.000000	2.092170 
1528.000000	2.096009 
1527.000000	2.098774 
1526.000000	2.100682 
1525.000000	2.101826 
1524.000000	2.102446 
1523.000000	2.102661 
1522.000000	2.102589 
1521.000000	2.102279 
1520.000000	2.101707 
1519.000000	2.100849 
1518.000000	2.099680 
1517.000000	2.098131 
1516.000000	2.096128 
1515.000000	2.093577 
1514.000000	2.090454 
1513.000000	2.086639 
1512.000000	2.082228 
1511.000000	2.076959 
1510.000000	2.070808 
1509.000000	2.063393 
1508.000000	2.054309 
1507.000000	2.042794 
1506.000000	2.028131 
1505.000000	2.009272 
1504.000000	1.985573 
1503.000000	1.956534 
1502.000000	1.922225 
1501.000000	1.883482 
1500.000000	1.841783 
1499.000000	1.799321 
1498.000000	1.758694 
1497.000000	1.722669 
1496.000000	1.693820 
1495.000000	1.674151 
1494.000000	1.664805 
1493.000000	1.665949 
1492.000000	1.677012 
1491.000000	1.696419 
1490.000000	1.722121 
1489.000000	1.751923 
1488.000000	1.783657 
1487.000000	1.815271 
1486.000000	1.845169 
1485.000000	1.872205 
1484.000000	1.895713 
1483.000000	1.915431 
1482.000000	1.931357 
1481.000000	1.943731 
1480.000000	1.952910 
1479.000000	1.959466 
1478.000000	1.963901 
1477.000000	1.966643 
1476.000000	1.968097 
1475.000000	1.968669 
1474.000000	1.968622 
1473.000000	1.968050 
1472.000000	1.966905 
1471.000000	1.965260 
1470.000000	1.963067 
1469.000000	1.960134 
1468.000000	1.956248 
1467.000000	1.951360 
1466.000000	1.945304 
1465.000000	1.937747 
1464.000000	1.928567 
1463.000000	1.917576 
1462.000000	1.904749 
1461.000000	1.889991 
1460.000000	1.873517 
1459.000000	1.855635 
1458.000000	1.836895 
1457.000000	1.818203 
1456.000000	1.800346 
1455.000000	1.784348 
1454.000000	1.771235 
1453.000000	1.761913 
1452.000000	1.756930 
1451.000000	1.756453 
1450.000000	1.760315 
1449.000000	1.767992 
1448.000000	1.778554 
1447.000000	1.790857 
1446.000000	1.803731 
1445.000000	1.816129 
1444.000000	1.827192 
1443.000000	1.836395 
1442.000000	1.843571 
1441.000000	1.848840 
1440.000000	1.852488 
1439.000000	1.854968 
1438.000000	1.856708 
1437.000000	1.858043 
1436.000000	1.859140 
1435.000000	1.860189 
1434.000000	1.861119 
1433.000000	1.861858 
1432.000000	1.862406 
1431.000000	1.862740 
1430.000000	1.862859 
1429.000000	1.862716 
1428.000000	1.862454 
1427.000000	1.862025 
1426.000000	1.861381 
1425.000000	1.860547 
1424.000000	1.859426 
1423.000000	1.858043 
1422.000000	1.856327 
1421.000000	1.854300 
1420.000000	1.852011 
1419.000000	1.849460 
1418.000000	1.846528 
1417.000000	1.843118 
1416.000000	1.839017 
1415.000000	1.833963 
1414.000000	1.827692 
1413.000000	1.820015 
1412.000000	1.810765 
1411.000000	1.799964 
1410.000000	1.787948 
1409.000000	1.775145 
1408.000000	1.762127 
1407.000000	1.749706 
1406.000000	1.738595 
1405.000000	1.729536 
1404.000000	1.723027 
1403.000000	1.719450 
1402.000000	1.718807 
1401.000000	1.721000 
1400.000000	1.725602 
1399.000000	1.732230 
1398.000000	1.740169 
1397.000000	1.748847 
1396.000000	1.757621 
1395.000000	1.765847 
1394.000000	1.773023 
1393.000000	1.778721 
1392.000000	1.782703 
1391.000000	1.784920 
1390.000000	1.785445 
1389.000000	1.784658 
1388.000000	1.782989 
1387.000000	1.781034 
1386.000000	1.779365 
1385.000000	1.778388 
1384.000000	1.778507 
1383.000000	1.779818 
1382.000000	1.782226 
1381.000000	1.785445 
1380.000000	1.789164 
1379.000000	1.792931 
1378.000000	1.796531 
1377.000000	1.799702 
1376.000000	1.802325 
1375.000000	1.804375 
1374.000000	1.805973 
1373.000000	1.807212 
1372.000000	1.808118 
1371.000000	1.808810 
1370.000000	1.809310 
1369.000000	1.809620 
1368.000000	1.809787 
1367.000000	1.809787 
1366.000000	1.809644 
1365.000000	1.809453 
1364.000000	1.809215 
1363.000000	1.808977 
1362.000000	1.808786 
1361.000000	1.808643 
1360.000000	1.808547 
1359.000000	1.808500 
1358.000000	1.808452 
1357.000000	1.808404 
1356.000000	1.808285 
1355.000000	1.808142 
1354.000000	1.807928 
1353.000000	1.807665 
1352.000000	1.807332 
1351.000000	1.806950 
1350.000000	1.806592 
1349.000000	1.806187 
1348.000000	1.805782 
1347.000000	1.805424 
1346.000000	1.805114 
1345.000000	1.804947 
1344.000000	1.804995 
1343.000000	1.805377 
1342.000000	1.806139 
1341.000000	1.807332 
1340.000000	1.808977 
1339.000000	1.811051 
1338.000000	1.813507 
1337.000000	1.816248 
1336.000000	1.819133 
1335.000000	1.822066 
1334.000000	1.824951 
1333.000000	1.827740 
1332.000000	1.830363 
1331.000000	1.832795 
1330.000000	1.834964 
1329.000000	1.836919 
1328.000000	1.838636 
1327.000000	1.840114 
1326.000000	1.841378 
1325.000000	1.842427 
1324.000000	1.843285 
1323.000000	1.844048 
1322.000000	1.844620 
1321.000000	1.845121 
1320.000000	1.845502 
1319.000000	1.845765 
1318.000000	1.845908 
1317.000000	1.845955 
1316.000000	1.845908 
1315.000000	1.845860 
1314.000000	1.845741 
1313.000000	1.845598 
1312.000000	1.845502 
1311.000000	1.845479 
1310.000000	1.845431 
1309.000000	1.845383 
1308.000000	1.845383 
1307.000000	1.845383 
1306.000000	1.845383 
1305.000000	1.845407 
1304.000000	1.845455 
1303.000000	1.845645 
1302.000000	1.845908 
1301.000000	1.846218 
1300.000000	1.846599 
1299.000000	1.847004 
1298.000000	1.847338 
1297.000000	1.847600 
1296.000000	1.847696 
1295.000000	1.847720 
1294.000000	1.847600 
1293.000000	1.847386 
1292.000000	1.847100 
1291.000000	1.846766 
1290.000000	1.846456 
1289.000000	1.846146 
1288.000000	1.845860 
1287.000000	1.845479 
1286.000000	1.845026 
1285.000000	1.844453 
1284.000000	1.843667 
1283.000000	1.842617 
1282.000000	1.841306 
1281.000000	1.839685 
1280.000000	1.837658 
1279.000000	1.835227 
1278.000000	1.832270 
1277.000000	1.828765 
1276.000000	1.824522 
1275.000000	1.819467 
1274.000000	1.813435 
1273.000000	1.806330 
1272.000000	1.798033 
1271.000000	1.788568 
1270.000000	1.778030 
1269.000000	1.766681 
1268.000000	1.754856 
1267.000000	1.743030 
1266.000000	1.731872 
1265.000000	1.722025 
1264.000000	1.714205 
1263.000000	1.708936 
1262.000000	1.706624 
1261.000000	1.707482 
1260.000000	1.711463 
1259.000000	1.718187 
1258.000000	1.727175 
1257.000000	1.737737 
1256.000000	1.749157 
1255.000000	1.760792 
1254.000000	1.771998 
1253.000000	1.782298 
1252.000000	1.791501 
1251.000000	1.799345 
1250.000000	1.805949 
1249.000000	1.811265 
1248.000000	1.815509 
1247.000000	1.818823 
1246.000000	1.821303 
1245.000000	1.823115 
1244.000000	1.824378 
1243.000000	1.825261 
1242.000000	1.825785 
1241.000000	1.826047 
1240.000000	1.826143 
1239.000000	1.826095 
1238.000000	1.825928 
1237.000000	1.825618 
1236.000000	1.825237 
1235.000000	1.824736 
1234.000000	1.824116 
1233.000000	1.823329 
1232.000000	1.822376 
1231.000000	1.821208 
1230.000000	1.819801 
1229.000000	1.818108 
1228.000000	1.816153 
1227.000000	1.813912 
1226.000000	1.811385 
1225.000000	1.808595 
1224.000000	1.805591 
1223.000000	1.802372 
1222.000000	1.798963 
1221.000000	1.795363 
1220.000000	1.791477 
1219.000000	1.787304 
1218.000000	1.782846 
1217.000000	1.778078 
1216.000000	1.773095 
1215.000000	1.767992 
1214.000000	1.762914 
1213.000000	1.758027 
1212.000000	1.753497 
1211.000000	1.749515 
1210.000000	1.746153 
1209.000000	1.743507 
1208.000000	1.741576 
1207.000000	1.740264 
1206.000000	1.739549 
1205.000000	1.739287 
1204.000000	1.739358 
1203.000000	1.739621 
1202.000000	1.739978 
1201.000000	1.740360 
1200.000000	1.740646 
1199.000000	1.740765 
1198.000000	1.740670 
1197.000000	1.740288 
1196.000000	1.739621 
1195.000000	1.738691 
1194.000000	1.737523 
1193.000000	1.736116 
1192.000000	1.734542 
1191.000000	1.732826 
1190.000000	1.731014 
1189.000000	1.729083 
1188.000000	1.727104 
1187.000000	1.724982 
1186.000000	1.722693 
1185.000000	1.720261 
1184.000000	1.717662 
1183.000000	1.714897 
1182.000000	1.712012 
1181.000000	1.709032 
1180.000000	1.705932 
1179.000000	1.702761 
1178.000000	1.699519 
1177.000000	1.696205 
1176.000000	1.692771 
1175.000000	1.689195 
1174.000000	1.685452 
1173.000000	1.681542 
1172.000000	1.677441 
1171.000000	1.673197 
1170.000000	1.668810 
1169.000000	1.664304 
1168.000000	1.659655 
1167.000000	1.655006 
1166.000000	1.650333 
1165.000000	1.645684 
1164.000000	1.641082 
1163.000000	1.636648 
1162.000000	1.632380 
1161.000000	1.628375 
1160.000000	1.624679 
1159.000000	1.621341 
1158.000000	1.618361 
1157.000000	1.615738 
1156.000000	1.613450 
1155.000000	1.611399 
1154.000000	1.609563 
1153.000000	1.607942 
1152.000000	1.606416 
1151.000000	1.604938 
1150.000000	1.603507 
1149.000000	1.602077 
1148.000000	1.600527 
1147.000000	1.598882 
1146.000000	1.597118 
1145.000000	1.595187 
1144.000000	1.593089 
1143.000000	1.590847 
1142.000000	1.588439 
1141.000000	1.585888 
1140.000000	1.583242 
1139.000000	1.580476 
1138.000000	1.577591 
1137.000000	1.574492 
1136.000000	1.571178 
1135.000000	1.567649 
1134.000000	1.563811 
1133.000000	1.559662 
1132.000000	1.555299 
1131.000000	1.550650 
1130.000000	1.545882 
1129.000000	1.540946 
1128.000000	1.535987 
1127.000000	1.530957 
1126.000000	1.525878 
1125.000000	1.520800 
1124.000000	1.515722 
1123.000000	1.510620 
1122.000000	1.505517 
1121.000000	1.500320 
1120.000000	1.495146 
1119.000000	1.489901 
1118.000000	1.484608 
1117.000000	1.479291 
1116.000000	1.473975 
1115.000000	1.468682 
1114.000000	1.463460 
1113.000000	1.458358 
1112.000000	1.453423 
1111.000000	1.448726 
1110.000000	1.444315 
1109.000000	1.440286 
1108.000000	1.436662 
1107.000000	1.433420 
1106.000000	1.430630 
1105.000000	1.428270 
1104.000000	1.426339 
1103.000000	1.424813 
1102.000000	1.423597 
1101.000000	1.422643 
1100.000000	1.421904 
1099.000000	1.421356 
1098.000000	1.420879 
1097.000000	1.420474 
1096.000000	1.420164 
1095.000000	1.419949 
1094.000000	1.419854 
1093.000000	1.419878 
1092.000000	1.420044 
1091.000000	1.420354 
1090.000000	1.420783 
1089.000000	1.421332 
1088.000000	1.421904 
1087.000000	1.422476 
1086.000000	1.422953 
1085.000000	1.423287 
1084.000000	1.423382 
1083.000000	1.423335 
1082.000000	1.423144 
1081.000000	1.422905 
1080.000000	1.422691 
1079.000000	1.422595 
1078.000000	1.422739 
1077.000000	1.423168 
1076.000000	1.423835 
1075.000000	1.424765 
1074.000000	1.425814 
1073.000000	1.426959 
1072.000000	1.428031 
1071.000000	1.428985 
1070.000000	1.429700 
1069.000000	1.430201 
1068.000000	1.430439 
1067.000000	1.430416 
1066.000000	1.430106 
1065.000000	1.429462 
1064.000000	1.428318 
1063.000000	1.426410 
1062.000000	1.423430 
1061.000000	1.418924 
1060.000000	1.412463 
1059.000000	1.403713 
1058.000000	1.392531 
1057.000000	1.379132 
1056.000000	1.363992 
1055.000000	1.347970 
1054.000000	1.332092 
1053.000000	1.317739 
1052.000000	1.306056 
1051.000000	1.297998 
1050.000000	1.294231 
1049.000000	1.294827 
1048.000000	1.299452 
1047.000000	1.307320 
1046.000000	1.317429 
1045.000000	1.328611 
1044.000000	1.339817 
1043.000000	1.350140 
1042.000000	1.358985 
1041.000000	1.366043 
1040.000000	1.371312 
1039.000000	1.374840 
1038.000000	1.376914 
1037.000000	1.377773 
1036.000000	1.377677 
1035.000000	1.376891 
1034.000000	1.375579 
1033.000000	1.373839 
1032.000000	1.371812 
1031.000000	1.369619 
1030.000000	1.367259 
1029.000000	1.364827 
1028.000000	1.362466 
1027.000000	1.360273 
1026.000000	1.358222 
1025.000000	1.356458 
1024.000000	1.355075 
1023.000000	1.354122 
1022.000000	1.353621 
1021.000000	1.353621 
1020.000000	1.354098 
1019.000000	1.355075 
1018.000000	1.356506 
1017.000000	1.358318 
1016.000000	1.360487 
1015.000000	1.362872 
1014.000000	1.365447 
1013.000000	1.368165 
1012.000000	1.370954 
1011.000000	1.373696 
1010.000000	1.376390 
1009.000000	1.379013 
1008.000000	1.381492 
1007.000000	1.383781 
1006.000000	1.385879 
1005.000000	1.387739 
1004.000000	1.389336 
1003.000000	1.390647 
1002.000000	1.391673 
1001.000000	1.392364 
1000.000000	1.392793 
999.000000	 1.392912 
998.000000	 1.392722 
997.000000	 1.392364 
996.000000	 1.391744 
995.000000	 1.390886 
994.000000	 1.389837 
993.000000	 1.388621 
992.000000	 1.387238 
991.000000	 1.385760 
990.000000	 1.384210 
989.000000	 1.382684 
988.000000	 1.381182 
987.000000	 1.379752 
986.000000	 1.378417 
985.000000	 1.377153 
984.000000	 1.375865 
983.000000	 1.374554 
982.000000	 1.373100 
981.000000	 1.371479 
980.000000	 1.369667 
979.000000	 1.367640 
978.000000	 1.365375 
977.000000	 1.362919 
976.000000	 1.360273 
975.000000	 1.357507 
974.000000	 1.354646 
973.000000	 1.351690 
972.000000	 1.348662 
971.000000	 1.345562 
970.000000	 1.342344 
969.000000	 1.339030 
968.000000	 1.335573 
967.000000	 1.332020 
966.000000	 1.328372 
965.000000	 1.324677 
964.000000	 1.320958 
963.000000	 1.317286 
962.000000	 1.313686 
961.000000	 1.310157 
960.000000	 1.306748 
959.000000	 1.303434 
958.000000	 1.300191 
957.000000	 1.296949 
956.000000	 1.293706 
955.000000	 1.290392 
954.000000	 1.287031 
953.000000	 1.283645 
952.000000	 1.280236 
951.000000	 1.276850 
950.000000	 1.273512 
949.000000	 1.270365 
948.000000	 1.267409 
947.000000	 1.264786 
946.000000	 1.262426 
945.000000	 1.260423 
944.000000	 1.258659 
943.000000	 1.257205 
942.000000	 1.255917 
941.000000	 1.254725 
940.000000	 1.253557 
939.000000	 1.252341 
938.000000	 1.251006 
937.000000	 1.249504 
936.000000	 1.247811 
935.000000	 1.245927 
934.000000	 1.243877 
933.000000	 1.241660 
932.000000	 1.239371 
931.000000	 1.237034 
930.000000	 1.234722 
929.000000	 1.232457 
928.000000	 1.230216 
927.000000	 1.227974 
926.000000	 1.225733 
925.000000	 1.223349 
924.000000	 1.220822 
923.000000	 1.218199 
922.000000	 1.215338 
921.000000	 1.212358 
920.000000	 1.209187 
919.000000	 1.205897 
918.000000	 1.202440 
917.000000	 1.198816 
916.000000	 1.195001 
915.000000	 1.190996 
914.000000	 1.186871 
913.000000	 1.182675 
912.000000	 1.178479 
911.000000	 1.174426 
910.000000	 1.170611 
909.000000	 1.167154 
908.000000	 1.164078 
907.000000	 1.161408 
906.000000	 1.159119 
905.000000	 1.157116 
904.000000	 1.155376 
903.000000	 1.153826 
902.000000	 1.152396 
901.000000	 1.151084 
900.000000	 1.149868 
899.000000	 1.148772 
898.000000	 1.147699 
897.000000	 1.146650 
896.000000	 1.145553 
895.000000	 1.144289 
894.000000	 1.142692 
893.000000	 1.140618 
892.000000	 1.137852 
891.000000	 1.134347 
890.000000	 1.129794 
889.000000	 1.124191 
888.000000	 1.117491 
887.000000	 1.109743 
886.000000	 1.101064 
885.000000	 1.091623 
884.000000	 1.081705 
883.000000	 1.071596 
882.000000	 1.061677 
881.000000	 1.052260 
880.000000	 1.043701 
879.000000	 1.036262 
878.000000	 1.030278 
877.000000	 1.025915 
876.000000	 1.023268 
875.000000	 1.022362 
874.000000	 1.023125 
873.000000	 1.025414 
872.000000	 1.028990 
871.000000	 1.033616 
870.000000	 1.038980 
869.000000	 1.044774 
868.000000	 1.050734 
867.000000	 1.056623 
866.000000	 1.062273 
865.000000	 1.067471 
864.000000	 1.072192 
863.000000	 1.076364 
862.000000	 1.080012 
861.000000	 1.083135 
860.000000	 1.085710 
859.000000	 1.087784 
858.000000	 1.089334 
857.000000	 1.090312 
856.000000	 1.090717 
855.000000	 1.090502 
854.000000	 1.089715 
853.000000	 1.088380 
852.000000	 1.086568 
851.000000	 1.084470 
850.000000	 1.082205 
849.000000	 1.079940 
848.000000	 1.077747 
847.000000	 1.075720 
846.000000	 1.073861 
845.000000	 1.072049 
844.000000	 1.070117 
843.000000	 1.067972 
842.000000	 1.065325 
841.000000	 1.061964 
840.000000	 1.057577 
839.000000	 1.052045 
838.000000	 1.044940 
837.000000	 1.036047 
836.000000	 1.025176 
835.000000	 1.012253 
834.000000	 0.997161 
833.000000	 0.980019 
832.000000	 0.961184 
831.000000	 0.941157 
830.000000	 0.920772 
829.000000	 0.900888 
828.000000	 0.882625 
827.000000	 0.867056 
826.000000	 0.855016 
825.000000	 0.847196 
824.000000	 0.844001 
823.000000	 0.845313 
822.000000	 0.850605 
821.000000	 0.859117 
820.000000	 0.869894 
819.000000	 0.881814 
818.000000	 0.893902 
817.000000	 0.905370 
816.000000	 0.915551 
815.000000	 0.924229 
814.000000	 0.931286 
813.000000	 0.936770 
812.000000	 0.940823 
811.000000	 0.943708 
810.000000	 0.945639 
809.000000	 0.946664 
808.000000	 0.946998 
807.000000	 0.946784 
806.000000	 0.946116 
805.000000	 0.945162 
804.000000	 0.944089 
803.000000	 0.943088 
802.000000	 0.942277 
801.000000	 0.941753 
800.000000	 0.941610 
799.000000	 0.941944 
798.000000	 0.942683 
797.000000	 0.943827 
796.000000	 0.945401 
795.000000	 0.947332 
794.000000	 0.949501 
793.000000	 0.951910 
792.000000	 0.954461 
791.000000	 0.957036 
790.000000	 0.959610 
789.000000	 0.962138 
788.000000	 0.964426 
787.000000	 0.966548 
786.000000	 0.968408 
785.000000	 0.969934 
784.000000	 0.971221 
783.000000	 0.972151 
782.000000	 0.972819 
781.000000	 0.973224 
780.000000	 0.973343 
779.000000	 0.973272 
778.000000	 0.972962 
777.000000	 0.972509 
776.000000	 0.971913 
775.000000	 0.971245 
774.000000	 0.970482 
773.000000	 0.969648 
772.000000	 0.968742 
771.000000	 0.967788 
770.000000	 0.966787 
769.000000	 0.965714 
768.000000	 0.964665 
767.000000	 0.963687 
766.000000	 0.962829 
765.000000	 0.962066 
764.000000	 0.961446 
763.000000	 0.960969 
762.000000	 0.960588 
761.000000	 0.960230 
760.000000	 0.959801 
759.000000	 0.959277 
758.000000	 0.958585 
757.000000	 0.957679 
756.000000	 0.956535 
755.000000	 0.955247 
754.000000	 0.953841 
753.000000	 0.952386 
752.000000	 0.950860 
751.000000	 0.949335 
750.000000	 0.947809 
749.000000	 0.946283 
748.000000	 0.944638 
747.000000	 0.942921 
746.000000	 0.941085 
745.000000	 0.939130 
744.000000	 0.937056 
743.000000	 0.934886 
742.000000	 0.932645 
741.000000	 0.930380 
740.000000	 0.928092 
739.000000	 0.925803 
738.000000	 0.923466 
737.000000	 0.921106 
736.000000	 0.918650 
735.000000	 0.916147 
734.000000	 0.913524 
733.000000	 0.910854 
732.000000	 0.908088 
731.000000	 0.905299 
730.000000	 0.902485 
729.000000	 0.899672 
728.000000	 0.896859 
727.000000	 0.894069 
726.000000	 0.891351 
725.000000	 0.888657 
724.000000	 0.885963 
723.000000	 0.883269 
722.000000	 0.880527 
721.000000	 0.877761 
720.000000	 0.874924 
719.000000	 0.872063 
718.000000	 0.869178 
717.000000	 0.866341 
716.000000	 0.863552 
715.000000	 0.860834 
714.000000	 0.858116 
713.000000	 0.855398 
712.000000	 0.852632 
711.000000	 0.849819 
710.000000	 0.846886 
709.000000	 0.843787 
708.000000	 0.840520 
707.000000	 0.837135 
706.000000	 0.833630 
705.000000	 0.830030 
704.000000	 0.826334 
703.000000	 0.822520 
702.000000	 0.818562 
701.000000	 0.814342 
700.000000	 0.809860 
699.000000	 0.804948 
698.000000	 0.799536 
697.000000	 0.793528 
696.000000	 0.786828 
695.000000	 0.779581 
694.000000	 0.771832 
693.000000	 0.763797 
692.000000	 0.755834 
691.000000	 0.748348 
690.000000	 0.741648 
689.000000	 0.736117 
688.000000	 0.731968 
687.000000	 0.729298 
686.000000	 0.728034 
685.000000	 0.727915 
684.000000	 0.728631 
683.000000	 0.729799 
682.000000	 0.731062 
681.000000	 0.732135 
680.000000	 0.732779 
679.000000	 0.732898 
678.000000	 0.732493 
677.000000	 0.731563 
676.000000	 0.730180 
675.000000	 0.728487 
674.000000	 0.726485 
673.000000	 0.724315 
672.000000	 0.722002 
671.000000	 0.719642 
670.000000	 0.717234 
669.000000	 0.714826 
668.000000	 0.712490 
667.000000	 0.710177 
666.000000	 0.707960 
665.000000	 0.705814 
664.000000	 0.703692 
663.000000	 0.701570 
662.000000	 0.699424 
661.000000	 0.697183 
660.000000	 0.694918 
659.000000	 0.692582 
658.000000	 0.690174 
657.000000	 0.687670 
656.000000	 0.685095 
655.000000	 0.682449 
654.000000	 0.679707 
653.000000	 0.676918 
652.000000	 0.674057 
651.000000	 0.671172 
650.000000	 0.668239 
649.000000	 0.665354 
648.000000	 0.662493 
647.000000	 0.659704 
646.000000	 0.657010 
645.000000	 0.654363 
644.000000	 0.651764 
643.000000	 0.649237 
642.000000	 0.646710 
641.000000	 0.644135 
640.000000	 0.641536 
639.000000	 0.638890 
638.000000	 0.636196 
637.000000	 0.633478 
636.000000	 0.630784 
635.000000	 0.628089 
634.000000	 0.625419 
633.000000	 0.622749 
632.000000	 0.620079 
631.000000	 0.617384 
630.000000	 0.614666 
629.000000	 0.611877 
628.000000	 0.609064 
627.000000	 0.606226 
626.000000	 0.603389 
625.000000	 0.600576 
624.000000	 0.597810 
623.000000	 0.595164 
622.000000	 0.592541 
621.000000	 0.589942 
620.000000	 0.587296 
619.000000	 0.584506 
618.000000	 0.581550 
617.000000	 0.578284 
616.000000	 0.574660 
615.000000	 0.570607 
614.000000	 0.566101 
613.000000	 0.561165 
612.000000	 0.555896 
611.000000	 0.550389 
610.000000	 0.544857 
609.000000	 0.539565 
608.000000	 0.534749 
607.000000	 0.530600 
606.000000	 0.527310 
605.000000	 0.524926 
604.000000	 0.523424 
603.000000	 0.522613 
602.000000	 0.522375 
601.000000	 0.522446 
600.000000	 0.522541 
599.000000	 0.522541 
598.000000	 0.522279 
597.000000	 0.521683 
596.000000	 0.520777 
595.000000	 0.519633 
594.000000	 0.518321 
593.000000	 0.516939 
592.000000	 0.515556 
591.000000	 0.514268 
590.000000	 0.513100 
589.000000	 0.512051 
588.000000	 0.511074 
587.000000	 0.510191 
586.000000	 0.509309 
585.000000	 0.508427 
584.000000	 0.507473 
583.000000	 0.506424 
582.000000	 0.505352 
581.000000	 0.504183 
580.000000	 0.503039 
579.000000	 0.501918 
578.000000	 0.500798 
577.000000	 0.499796 
576.000000	 0.498867 
575.000000	 0.498032 
574.000000	 0.497174 
573.000000	 0.496292 
572.000000	 0.495362 
571.000000	 0.494313 
570.000000	 0.493168 
569.000000	 0.491905 
568.000000	 0.490522 
567.000000	 0.488948 
566.000000	 0.487303 
565.000000	 0.485515 
564.000000	 0.483679 
563.000000	 0.481772 
562.000000	 0.479888 
561.000000	 0.478005 
560.000000	 0.476145 
559.000000	 0.474333 
558.000000	 0.472545 
557.000000	 0.470805 
556.000000	 0.469064 
555.000000	 0.467371 
554.000000	 0.465679 
553.000000	 0.463986 
552.000000	 0.462293 
551.000000	 0.460624 
550.000000	 0.458979 
549.000000	 0.457358 
548.000000	 0.455760 
547.000000	 0.454211 
546.000000	 0.452637 
545.000000	 0.451016 
544.000000	 0.449347 
543.000000	 0.447607 
542.000000	 0.445795 
541.000000	 0.443887 
540.000000	 0.441980 
539.000000	 0.440025 
538.000000	 0.438070 
537.000000	 0.436091 
536.000000	 0.434112 
535.000000	 0.432109 
534.000000	 0.430059 
533.000000	 0.427937 
532.000000	 0.425767 
531.000000	 0.423550 
530.000000	 0.421237 
529.000000	 0.418877 
528.000000	 0.416421 
527.000000	 0.413942 
526.000000	 0.411462 
525.000000	 0.408959 
524.000000	 0.406455 
523.000000	 0.403928 
522.000000	 0.401377 
521.000000	 0.398826 
520.000000	 0.396251 
519.000000	 0.393676 
518.000000	 0.391125 
517.000000	 0.388622 
516.000000	 0.386142 
515.000000	 0.383734 
514.000000	 0.381398 
513.000000	 0.379037 
512.000000	 0.376701 
511.000000	 0.374341 
510.000000	 0.371932 
509.000000	 0.369501 
508.000000	 0.367021 
507.000000	 0.364494 
506.000000	 0.361871 
505.000000	 0.359177 
504.000000	 0.356411 
503.000000	 0.353550 
502.000000	 0.350618 
501.000000	 0.347590 
500.000000	 0.344514 
499.000000	 0.341343 
498.000000	 0.338125 
497.000000	 0.334882 
496.000000	 0.331568 
495.000000	 0.328254 
494.000000	 0.324892 
493.000000	 0.321531 
492.000000	 0.318098 
491.000000	 0.314617 
490.000000	 0.311112 
489.000000	 0.307536 
488.000000	 0.303912 
487.000000	 0.300240 
486.000000	 0.296568 
485.000000	 0.292873 
484.000000	 0.289273 
483.000000	 0.285720 
482.000000	 0.282192 
481.000000	 0.278711 
480.000000	 0.275301 
479.000000	 0.271987 
478.000000	 0.268697 
477.000000	 0.265431 
476.000000	 0.262260 
475.000000	 0.259113 
474.000000	 0.255990 
473.000000	 0.252962 
472.000000	 0.249981 
471.000000	 0.247073 
470.000000	 0.244164 
469.000000	 0.241255 
468.000000	 0.238347 
467.000000	 0.235342 
466.000000	 0.232243 
465.000000	 0.229001 
464.000000	 0.225687 
463.000000	 0.222134 
462.000000	 0.218462 
461.000000	 0.214695 
460.000000	 0.210809 
459.000000	 0.206851 
458.000000	 0.202822 
457.000000	 0.198841 
456.000000	 0.194883 
455.000000	 0.191044 
454.000000	 0.187373 
453.000000	 0.183939 
452.000000	 0.180745 
451.000000	 0.177812 
450.000000	 0.175118 
449.000000	 0.172638 
448.000000	 0.170350 
447.000000	 0.168108 
446.000000	 0.165915 
445.000000	 0.163650 
444.000000	 0.161337 
443.000000	 0.158858 
442.000000	 0.156307 
441.000000	 0.153636 
440.000000	 0.150918 
439.000000	 0.148177 
438.000000	 0.145459 
437.000000	 0.142788 
436.000000	 0.140070 
435.000000	 0.137329 
434.000000	 0.134468 
433.000000	 0.131487 
432.000000	 0.128293 
431.000000	 0.124907 
430.000000	 0.121355 
429.000000	 0.117683 
428.000000	 0.113940 
427.000000	 0.110220 
426.000000	 0.106549 
425.000000	 0.103044 
424.000000	 0.099754 
423.000000	 0.096654 
422.000000	 0.093746 
421.000000	 0.090980 
420.000000	 0.088381 
419.000000	 0.085878 
418.000000	 0.083494 
417.000000	 0.081133 
416.000000	 0.078773 
415.000000	 0.076413 
414.000000	 0.073981 
413.000000	 0.071501 
412.000000	 0.068879 
411.000000	 0.066089 
410.000000	 0.063228 
409.000000	 0.060248 
408.000000	 0.057268 
407.000000	 0.054287 
406.000000	 0.051450 
405.000000	 0.048804 
404.000000	 0.046372 
403.000000	 0.044155 
402.000000	 0.042152 
401.000000	 0.040292 
400.000000	 0.038504 
399.000000	 0.036764 
398.000000	 0.035023 
397.000000	 0.033307 
396.000000	 0.031638 
395.000000	 0.029993 
394.000000	 0.028467 
393.000000	 0.027060 
392.000000	 0.025796 
391.000000	 0.024676 
390.000000	 0.023674 
389.000000	 0.022792 
388.000000	 0.021934 
387.000000	 0.021123 
386.000000	 0.020241 
385.000000	 0.019335 
384.000000	 0.018382 
383.000000	 0.017309 
382.000000	 0.016188 
381.000000	 0.015068 
380.000000	 0.013971 
379.000000	 0.012969 
378.000000	 0.012063 
377.000000	 0.011324 
376.000000	 0.010728 
375.000000	 0.010323 
374.000000	 0.010013 
373.000000	 0.009751 
372.000000	 0.009465 
371.000000	 0.009107 
370.000000	 0.008630 

