PE IR       SPECTRUM    SPECTRUM    ASCII       PEDS        1.60        
  -1
LPE454~1.ASC
17/05/19
14:23:25.00
17/05/19
14:23:25.00
tln
$LPE454_e0122$<ebV0>[-23.3,12.1,10.0,0.0,27,1,0]
370.000000
64









2002,4.07    
MIRTGS : RIGHTBACK : INTERNAL 2
MIR : ON : INTERNAL 2
OPTKBR

0.200000
8
8.000000
FILLER
SINGLE
SPECTRUM
UNLOCKED 256

DOUBLE

COMBINED
1
0
0


1.000000
BACKG


1
0
TRUE
51149
0
LEFT NOT FITTED RIGHT NOT FITTED 0
NONE
NONE
15600
12.000000
4.427000
51148
TRUE
1 0 8 72 0 0 0 0 

15798.010000






#HDR
-1
-1
#GR
CM-1
EGY
0.00002384185791015625
0.0
5000.000000
-1.000000
4631
8
2.423286
0.004696
#DATA
5000.000000	0.765895 
4999.000000	0.767040 
4998.000000	0.768303 
4997.000000	0.769567 
4996.000000	0.770735 
4995.000000	0.771808 
4994.000000	0.772666 
4993.000000	0.773310 
4992.000000	0.773692 
4991.000000	0.773787 
4990.000000	0.773739 
4989.000000	0.773572 
4988.000000	0.773334 
4987.000000	0.773143 
4986.000000	0.773000 
4985.000000	0.773000 
4984.000000	0.773143 
4983.000000	0.773453 
4982.000000	0.773859 
4981.000000	0.774359 
4980.000000	0.774931 
4979.000000	0.775599 
4978.000000	0.776362 
4977.000000	0.777244 
4976.000000	0.778150 
4975.000000	0.779104 
4974.000000	0.780081 
4973.000000	0.781035 
4972.000000	0.781869 
4971.000000	0.782561 
4970.000000	0.783061 
4969.000000	0.783371 
4968.000000	0.783491 
4967.000000	0.783491 
4966.000000	0.783300 
4965.000000	0.783061 
4964.000000	0.782775 
4963.000000	0.782561 
4962.000000	0.782442 
4961.000000	0.782418 
4960.000000	0.782513 
4959.000000	0.782728 
4958.000000	0.783014 
4957.000000	0.783324 
4956.000000	0.783586 
4955.000000	0.783705 
4954.000000	0.783681 
4953.000000	0.783514 
4952.000000	0.783205 
4951.000000	0.782871 
4950.000000	0.782608 
4949.000000	0.782489 
4948.000000	0.782632 
4947.000000	0.783085 
4946.000000	0.783920 
4945.000000	0.785112 
4944.000000	0.786542 
4943.000000	0.788259 
4942.000000	0.789999 
4941.000000	0.791788 
4940.000000	0.793457 
4939.000000	0.794863 
4938.000000	0.796031 
4937.000000	0.796961 
4936.000000	0.797605 
4935.000000	0.798058 
4934.000000	0.798416 
4933.000000	0.798702 
4932.000000	0.798988 
4931.000000	0.799250 
4930.000000	0.799441 
4929.000000	0.799536 
4928.000000	0.799489 
4927.000000	0.799274 
4926.000000	0.798916 
4925.000000	0.798535 
4924.000000	0.798225 
4923.000000	0.798130 
4922.000000	0.798296 
4921.000000	0.798773 
4920.000000	0.799512 
4919.000000	0.800442 
4918.000000	0.801324 
4917.000000	0.802040 
4916.000000	0.802469 
4915.000000	0.802540 
4914.000000	0.802254 
4913.000000	0.801682 
4912.000000	0.800919 
4911.000000	0.800156 
4910.000000	0.799536 
4909.000000	0.799155 
4908.000000	0.799107 
4907.000000	0.799465 
4906.000000	0.800251 
4905.000000	0.801491 
4904.000000	0.803184 
4903.000000	0.805258 
4902.000000	0.807595 
4901.000000	0.810050 
4900.000000	0.812339 
4899.000000	0.814199 
4898.000000	0.815343 
4897.000000	0.815510 
4896.000000	0.814580 
4895.000000	0.812625 
4894.000000	0.809741 
4893.000000	0.806307 
4892.000000	0.802707 
4891.000000	0.799345 
4890.000000	0.796580 
4889.000000	0.794720 
4888.000000	0.793814 
4887.000000	0.793790 
4886.000000	0.794410 
4885.000000	0.795316 
4884.000000	0.796270 
4883.000000	0.797009 
4882.000000	0.797438 
4881.000000	0.797557 
4880.000000	0.797605 
4879.000000	0.797820 
4878.000000	0.798606 
4877.000000	0.800204 
4876.000000	0.802683 
4875.000000	0.806045 
4874.000000	0.810074 
4873.000000	0.814437 
4872.000000	0.818753 
4871.000000	0.822639 
4870.000000	0.825834 
4869.000000	0.828242 
4868.000000	0.829815 
4867.000000	0.830698 
4866.000000	0.831007 
4865.000000	0.831055 
4864.000000	0.830984 
4863.000000	0.830984 
4862.000000	0.831127 
4861.000000	0.831532 
4860.000000	0.832152 
4859.000000	0.833010 
4858.000000	0.833988 
4857.000000	0.835061 
4856.000000	0.836086 
4855.000000	0.836944 
4854.000000	0.837492 
4853.000000	0.837707 
4852.000000	0.837516 
4851.000000	0.836944 
4850.000000	0.836038 
4849.000000	0.834846 
4848.000000	0.833487 
4847.000000	0.832009 
4846.000000	0.830507 
4845.000000	0.829100 
4844.000000	0.827908 
4843.000000	0.827026 
4842.000000	0.826573 
4841.000000	0.826692 
4840.000000	0.827383 
4839.000000	0.828599 
4838.000000	0.830197 
4837.000000	0.832080 
4836.000000	0.833964 
4835.000000	0.835657 
4834.000000	0.837063 
4833.000000	0.838255 
4832.000000	0.839233 
4831.000000	0.840139 
4830.000000	0.841212 
4829.000000	0.842475 
4828.000000	0.844049 
4827.000000	0.845837 
4826.000000	0.847673 
4825.000000	0.849390 
4824.000000	0.850892 
4823.000000	0.852036 
4822.000000	0.852870 
4821.000000	0.853395 
4820.000000	0.853753 
4819.000000	0.854086 
4818.000000	0.854492 
4817.000000	0.854921 
4816.000000	0.855469 
4815.000000	0.856018 
4814.000000	0.856614 
4813.000000	0.857138 
4812.000000	0.857686 
4811.000000	0.858235 
4810.000000	0.858855 
4809.000000	0.859570 
4808.000000	0.860381 
4807.000000	0.861310 
4806.000000	0.862216 
4805.000000	0.863075 
4804.000000	0.863766 
4803.000000	0.864291 
4802.000000	0.864577 
4801.000000	0.864648 
4800.000000	0.864624 
4799.000000	0.864505 
4798.000000	0.864434 
4797.000000	0.864505 
4796.000000	0.864720 
4795.000000	0.865173 
4794.000000	0.865888 
4793.000000	0.866818 
4792.000000	0.867867 
4791.000000	0.869059 
4790.000000	0.870227 
4789.000000	0.871372 
4788.000000	0.872397 
4787.000000	0.873255 
4786.000000	0.873970 
4785.000000	0.874567 
4784.000000	0.875043 
4783.000000	0.875473 
4782.000000	0.875878 
4781.000000	0.876331 
4780.000000	0.876879 
4779.000000	0.877594 
4778.000000	0.878477 
4777.000000	0.879621 
4776.000000	0.880932 
4775.000000	0.882387 
4774.000000	0.883841 
4773.000000	0.885224 
4772.000000	0.886368 
4771.000000	0.887179 
4770.000000	0.887608 
4769.000000	0.887680 
4768.000000	0.887465 
4767.000000	0.887060 
4766.000000	0.886631 
4765.000000	0.886273 
4764.000000	0.886034 
4763.000000	0.885939 
4762.000000	0.885939 
4761.000000	0.886034 
4760.000000	0.886178 
4759.000000	0.886321 
4758.000000	0.886487 
4757.000000	0.886702 
4756.000000	0.887012 
4755.000000	0.887417 
4754.000000	0.887918 
4753.000000	0.888466 
4752.000000	0.888991 
4751.000000	0.889468 
4750.000000	0.889825 
4749.000000	0.890016 
4748.000000	0.890159 
4747.000000	0.890231 
4746.000000	0.890302 
4745.000000	0.890421 
4744.000000	0.890660 
4743.000000	0.890994 
4742.000000	0.891447 
4741.000000	0.891995 
4740.000000	0.892639 
4739.000000	0.893306 
4738.000000	0.893950 
4737.000000	0.894594 
4736.000000	0.895237 
4735.000000	0.895881 
4734.000000	0.896573 
4733.000000	0.897288 
4732.000000	0.898027 
4731.000000	0.898814 
4730.000000	0.899648 
4729.000000	0.900483 
4728.000000	0.901293 
4727.000000	0.902032 
4726.000000	0.902700 
4725.000000	0.903248 
4724.000000	0.903630 
4723.000000	0.903844 
4722.000000	0.903892 
4721.000000	0.903725 
4720.000000	0.903391 
4719.000000	0.902938 
4718.000000	0.902438 
4717.000000	0.901937 
4716.000000	0.901579 
4715.000000	0.901412 
4714.000000	0.901508 
4713.000000	0.901889 
4712.000000	0.902509 
4711.000000	0.903320 
4710.000000	0.904178 
4709.000000	0.905013 
4708.000000	0.905704 
4707.000000	0.906205 
4706.000000	0.906515 
4705.000000	0.906634 
4704.000000	0.906586 
4703.000000	0.906491 
4702.000000	0.906300 
4701.000000	0.906062 
4700.000000	0.905823 
4699.000000	0.905585 
4698.000000	0.905323 
4697.000000	0.905108 
4696.000000	0.904941 
4695.000000	0.904870 
4694.000000	0.904893 
4693.000000	0.905036 
4692.000000	0.905346 
4691.000000	0.905704 
4690.000000	0.906085 
4689.000000	0.906443 
4688.000000	0.906753 
4687.000000	0.906968 
4686.000000	0.907111 
4685.000000	0.907158 
4684.000000	0.907135 
4683.000000	0.907087 
4682.000000	0.907015 
4681.000000	0.906920 
4680.000000	0.906825 
4679.000000	0.906753 
4678.000000	0.906658 
4677.000000	0.906562 
4676.000000	0.906515 
4675.000000	0.906515 
4674.000000	0.906610 
4673.000000	0.906801 
4672.000000	0.907135 
4671.000000	0.907564 
4670.000000	0.908112 
4669.000000	0.908637 
4668.000000	0.909209 
4667.000000	0.909781 
4666.000000	0.910258 
4665.000000	0.910639 
4664.000000	0.910949 
4663.000000	0.911235 
4662.000000	0.911450 
4661.000000	0.911664 
4660.000000	0.911831 
4659.000000	0.911927 
4658.000000	0.911998 
4657.000000	0.912046 
4656.000000	0.912070 
4655.000000	0.912117 
4654.000000	0.912165 
4653.000000	0.912261 
4652.000000	0.912451 
4651.000000	0.912714 
4650.000000	0.913023 
4649.000000	0.913357 
4648.000000	0.913691 
4647.000000	0.914025 
4646.000000	0.914335 
4645.000000	0.914669 
4644.000000	0.915002 
4643.000000	0.915408 
4642.000000	0.915861 
4641.000000	0.916385 
4640.000000	0.916934 
4639.000000	0.917482 
4638.000000	0.917983 
4637.000000	0.918388 
4636.000000	0.918650 
4635.000000	0.918817 
4634.000000	0.918793 
4633.000000	0.918698 
4632.000000	0.918507 
4631.000000	0.918316 
4630.000000	0.918173 
4629.000000	0.918173 
4628.000000	0.918316 
4627.000000	0.918602 
4626.000000	0.919032 
4625.000000	0.919556 
4624.000000	0.920081 
4623.000000	0.920534 
4622.000000	0.920891 
4621.000000	0.921082 
4620.000000	0.921082 
4619.000000	0.921034 
4618.000000	0.920939 
4617.000000	0.920963 
4616.000000	0.921177 
4615.000000	0.921630 
4614.000000	0.922322 
4613.000000	0.923323 
4612.000000	0.924539 
4611.000000	0.925898 
4610.000000	0.927352 
4609.000000	0.928807 
4608.000000	0.930213 
4607.000000	0.931501 
4606.000000	0.932621 
4605.000000	0.933551 
4604.000000	0.934267 
4603.000000	0.934720 
4602.000000	0.934958 
4601.000000	0.935006 
4600.000000	0.934863 
4599.000000	0.934624 
4598.000000	0.934219 
4597.000000	0.933861 
4596.000000	0.933480 
4595.000000	0.933170 
4594.000000	0.932979 
4593.000000	0.932884 
4592.000000	0.932931 
4591.000000	0.933170 
4590.000000	0.933623 
4589.000000	0.934195 
4588.000000	0.934982 
4587.000000	0.935864 
4586.000000	0.936841 
4585.000000	0.937891 
4584.000000	0.938963 
4583.000000	0.940036 
4582.000000	0.941157 
4581.000000	0.942301 
4580.000000	0.943517 
4579.000000	0.944805 
4578.000000	0.946164 
4577.000000	0.947475 
4576.000000	0.948739 
4575.000000	0.949859 
4574.000000	0.950813 
4573.000000	0.951576 
4572.000000	0.952172 
4571.000000	0.952696 
4570.000000	0.953197 
4569.000000	0.953769 
4568.000000	0.954437 
4567.000000	0.955224 
4566.000000	0.956130 
4565.000000	0.957131 
4564.000000	0.958180 
4563.000000	0.959324 
4562.000000	0.960445 
4561.000000	0.961637 
4560.000000	0.962853 
4559.000000	0.964069 
4558.000000	0.965309 
4557.000000	0.966501 
4556.000000	0.967621 
4555.000000	0.968647 
4554.000000	0.969505 
4553.000000	0.970196 
4552.000000	0.970697 
4551.000000	0.971078 
4550.000000	0.971388 
4549.000000	0.971627 
4548.000000	0.971817 
4547.000000	0.971984 
4546.000000	0.972127 
4545.000000	0.972223 
4544.000000	0.972270 
4543.000000	0.972270 
4542.000000	0.972270 
4541.000000	0.972318 
4540.000000	0.972461 
4539.000000	0.972747 
4538.000000	0.973272 
4537.000000	0.973987 
4536.000000	0.974941 
4535.000000	0.976037 
4534.000000	0.977253 
4533.000000	0.978446 
4532.000000	0.979661 
4531.000000	0.980782 
4530.000000	0.981855 
4529.000000	0.982904 
4528.000000	0.983929 
4527.000000	0.985002 
4526.000000	0.986099 
4525.000000	0.987100 
4524.000000	0.988006 
4523.000000	0.988721 
4522.000000	0.989127 
4521.000000	0.989222 
4520.000000	0.988936 
4519.000000	0.988340 
4518.000000	0.987482 
4517.000000	0.986576 
4516.000000	0.985693 
4515.000000	0.985050 
4514.000000	0.984692 
4513.000000	0.984787 
4512.000000	0.985312 
4511.000000	0.986242 
4510.000000	0.987505 
4509.000000	0.988960 
4508.000000	0.990414 
4507.000000	0.991725 
4506.000000	0.992798 
4505.000000	0.993537 
4504.000000	0.993895 
4503.000000	0.993943 
4502.000000	0.993752 
4501.000000	0.993394 
4500.000000	0.992965 
4499.000000	0.992608 
4498.000000	0.992321 
4497.000000	0.992107 
4496.000000	0.991964 
4495.000000	0.991868 
4494.000000	0.991749 
4493.000000	0.991678 
4492.000000	0.991702 
4491.000000	0.991821 
4490.000000	0.992035 
4489.000000	0.992441 
4488.000000	0.993013 
4487.000000	0.993824 
4486.000000	0.994682 
4485.000000	0.995612 
4484.000000	0.996494 
4483.000000	0.997352 
4482.000000	0.998139 
4481.000000	0.998902 
4480.000000	0.999689 
4479.000000	1.000595 
4478.000000	1.001596 
4477.000000	1.002717 
4476.000000	1.003885 
4475.000000	1.004981 
4474.000000	1.005935 
4473.000000	1.006507 
4472.000000	1.006579 
4471.000000	1.005911 
4470.000000	1.004219 
4469.000000	1.001191 
4468.000000	0.996518 
4467.000000	0.990152 
4466.000000	0.982141 
4465.000000	0.972962 
4464.000000	0.963330 
4463.000000	0.954270 
4462.000000	0.946855 
4461.000000	0.942277 
4460.000000	0.941371 
4459.000000	0.944614 
4458.000000	0.952124 
4457.000000	0.963521 
4456.000000	0.977945 
4455.000000	0.994277 
4454.000000	1.011180 
4453.000000	1.027369 
4452.000000	1.041674 
4451.000000	1.053166 
4450.000000	1.061344 
4449.000000	1.065969 
4448.000000	1.067304 
4447.000000	1.065778 
4446.000000	1.062178 
4445.000000	1.057291 
4444.000000	1.051878 
4443.000000	1.046657 
4442.000000	1.042079 
4441.000000	1.038432 
4440.000000	1.035761 
4439.000000	1.033902 
4438.000000	1.032662 
4437.000000	1.031780 
4436.000000	1.031088 
4435.000000	1.030421 
4434.000000	1.029706 
4433.000000	1.028943 
4432.000000	1.028156 
4431.000000	1.027369 
4430.000000	1.026582 
4429.000000	1.025843 
4428.000000	1.025152 
4427.000000	1.024532 
4426.000000	1.024055 
4425.000000	1.023721 
4424.000000	1.023602 
4423.000000	1.023626 
4422.000000	1.023721 
4421.000000	1.023817 
4420.000000	1.023721 
4419.000000	1.023364 
4418.000000	1.022624 
4417.000000	1.021528 
4416.000000	1.020121 
4415.000000	1.018595 
4414.000000	1.017069 
4413.000000	1.015782 
4412.000000	1.014900 
4411.000000	1.014447 
4410.000000	1.014494 
4409.000000	1.014971 
4408.000000	1.015758 
4407.000000	1.016759 
4406.000000	1.017761 
4405.000000	1.018786 
4404.000000	1.019692 
4403.000000	1.020503 
4402.000000	1.021242 
4401.000000	1.021933 
4400.000000	1.022624 
4399.000000	1.023268 
4398.000000	1.023817 
4397.000000	1.024317 
4396.000000	1.024603 
4395.000000	1.024699 
4394.000000	1.024556 
4393.000000	1.024270 
4392.000000	1.023864 
4391.000000	1.023459 
4390.000000	1.023125 
4389.000000	1.022958 
4388.000000	1.023030 
4387.000000	1.023364 
4386.000000	1.023936 
4385.000000	1.024746 
4384.000000	1.025724 
4383.000000	1.026821 
4382.000000	1.028037 
4381.000000	1.029253 
4380.000000	1.030445 
4379.000000	1.031589 
4378.000000	1.032686 
4377.000000	1.033639 
4376.000000	1.034426 
4375.000000	1.035022 
4374.000000	1.035428 
4373.000000	1.035642 
4372.000000	1.035666 
4371.000000	1.035571 
4370.000000	1.035499 
4369.000000	1.035451 
4368.000000	1.035547 
4367.000000	1.035833 
4366.000000	1.036405 
4365.000000	1.037192 
4364.000000	1.038241 
4363.000000	1.039481 
4362.000000	1.040840 
4361.000000	1.042222 
4360.000000	1.043581 
4359.000000	1.044821 
4358.000000	1.045942 
4357.000000	1.046919 
4356.000000	1.047730 
4355.000000	1.048421 
4354.000000	1.049041 
4353.000000	1.049685 
4352.000000	1.050329 
4351.000000	1.051068 
4350.000000	1.051878 
4349.000000	1.052784 
4348.000000	1.053738 
4347.000000	1.054763 
4346.000000	1.055860 
4345.000000	1.056909 
4344.000000	1.058006 
4343.000000	1.059079 
4342.000000	1.060175 
4341.000000	1.061272 
4340.000000	1.062417 
4339.000000	1.063561 
4338.000000	1.064729 
4337.000000	1.065897 
4336.000000	1.067042 
4335.000000	1.068162 
4334.000000	1.069211 
4333.000000	1.070237 
4332.000000	1.071238 
4331.000000	1.072216 
4330.000000	1.073193 
4329.000000	1.074218 
4328.000000	1.075267 
4327.000000	1.076388 
4326.000000	1.077485 
4325.000000	1.078653 
4324.000000	1.079773 
4323.000000	1.080870 
4322.000000	1.081991 
4321.000000	1.083087 
4320.000000	1.084160 
4319.000000	1.085305 
4318.000000	1.086568 
4317.000000	1.087903 
4316.000000	1.089382 
4315.000000	1.090955 
4314.000000	1.092624 
4313.000000	1.094388 
4312.000000	1.096129 
4311.000000	1.097798 
4310.000000	1.099395 
4309.000000	1.100897 
4308.000000	1.102232 
4307.000000	1.103448 
4306.000000	1.104617 
4305.000000	1.105690 
4304.000000	1.106739 
4303.000000	1.107788 
4302.000000	1.108884 
4301.000000	1.109957 
4300.000000	1.111030 
4299.000000	1.112079 
4298.000000	1.113080 
4297.000000	1.114010 
4296.000000	1.114964 
4295.000000	1.115846 
4294.000000	1.116776 
4293.000000	1.117777 
4292.000000	1.118850 
4291.000000	1.119971 
4290.000000	1.121139 
4289.000000	1.122379 
4288.000000	1.123571 
4287.000000	1.124739 
4286.000000	1.125860 
4285.000000	1.126933 
4284.000000	1.128005 
4283.000000	1.129078 
4282.000000	1.130199 
4281.000000	1.131343 
4280.000000	1.132583 
4279.000000	1.133847 
4278.000000	1.135087 
4277.000000	1.136326 
4276.000000	1.137471 
4275.000000	1.138520 
4274.000000	1.139426 
4273.000000	1.140165 
4272.000000	1.140761 
4271.000000	1.141262 
4270.000000	1.141691 
4269.000000	1.142072 
4268.000000	1.142501 
4267.000000	1.142954 
4266.000000	1.143503 
4265.000000	1.144123 
4264.000000	1.144886 
4263.000000	1.145672 
4262.000000	1.146578 
4261.000000	1.147532 
4260.000000	1.148581 
4259.000000	1.149702 
4258.000000	1.150918 
4257.000000	1.152229 
4256.000000	1.153707 
4255.000000	1.155233 
4254.000000	1.156806 
4253.000000	1.158380 
4252.000000	1.159906 
4251.000000	1.161289 
4250.000000	1.162481 
4249.000000	1.163458 
4248.000000	1.164197 
4247.000000	1.164770 
4246.000000	1.165151 
4245.000000	1.165437 
4244.000000	1.165676 
4243.000000	1.165938 
4242.000000	1.166296 
4241.000000	1.166796 
4240.000000	1.167416 
4239.000000	1.168203 
4238.000000	1.169133 
4237.000000	1.170134 
4236.000000	1.171112 
4235.000000	1.172089 
4234.000000	1.172971 
4233.000000	1.173758 
4232.000000	1.174378 
4231.000000	1.174879 
4230.000000	1.175308 
4229.000000	1.175713 
4228.000000	1.176095 
4227.000000	1.176571 
4226.000000	1.177072 
4225.000000	1.177668 
4224.000000	1.178359 
4223.000000	1.179051 
4222.000000	1.179862 
4221.000000	1.180696 
4220.000000	1.181530 
4219.000000	1.182365 
4218.000000	1.183104 
4217.000000	1.183772 
4216.000000	1.184344 
4215.000000	1.184773 
4214.000000	1.185059 
4213.000000	1.185226 
4212.000000	1.185297 
4211.000000	1.185369 
4210.000000	1.185512 
4209.000000	1.185727 
4208.000000	1.186037 
4207.000000	1.186490 
4206.000000	1.187038 
4205.000000	1.187658 
4204.000000	1.188302 
4203.000000	1.188921 
4202.000000	1.189494 
4201.000000	1.190066 
4200.000000	1.190614 
4199.000000	1.191186 
4198.000000	1.191878 
4197.000000	1.192569 
4196.000000	1.193404 
4195.000000	1.194334 
4194.000000	1.195287 
4193.000000	1.196336 
4192.000000	1.197385 
4191.000000	1.198339 
4190.000000	1.199197 
4189.000000	1.199841 
4188.000000	1.200270 
4187.000000	1.200461 
4186.000000	1.200389 
4185.000000	1.200079 
4184.000000	1.199579 
4183.000000	1.199007 
4182.000000	1.198482 
4181.000000	1.198148 
4180.000000	1.198172 
4179.000000	1.198649 
4178.000000	1.199579 
4177.000000	1.200914 
4176.000000	1.202607 
4175.000000	1.204442 
4174.000000	1.206231 
4173.000000	1.207780 
4172.000000	1.208972 
4171.000000	1.209712 
4170.000000	1.209974 
4169.000000	1.209855 
4168.000000	1.209449 
4167.000000	1.208877 
4166.000000	1.208305 
4165.000000	1.207828 
4164.000000	1.207542 
4163.000000	1.207447 
4162.000000	1.207613 
4161.000000	1.207971 
4160.000000	1.208519 
4159.000000	1.209211 
4158.000000	1.210021 
4157.000000	1.210927 
4156.000000	1.211833 
4155.000000	1.212787 
4154.000000	1.213693 
4153.000000	1.214551 
4152.000000	1.215386 
4151.000000	1.216197 
4150.000000	1.216983 
4149.000000	1.217794 
4148.000000	1.218628 
4147.000000	1.219463 
4146.000000	1.220321 
4145.000000	1.221179 
4144.000000	1.221990 
4143.000000	1.222777 
4142.000000	1.223492 
4141.000000	1.224112 
4140.000000	1.224708 
4139.000000	1.225304 
4138.000000	1.225852 
4137.000000	1.226377 
4136.000000	1.226902 
4135.000000	1.227450 
4134.000000	1.228022 
4133.000000	1.228642 
4132.000000	1.229310 
4131.000000	1.229977 
4130.000000	1.230716 
4129.000000	1.231503 
4128.000000	1.232361 
4127.000000	1.233315 
4126.000000	1.234364 
4125.000000	1.235508 
4124.000000	1.236772 
4123.000000	1.238059 
4122.000000	1.239418 
4121.000000	1.240754 
4120.000000	1.241993 
4119.000000	1.243090 
4118.000000	1.244044 
4117.000000	1.244831 
4116.000000	1.245450 
4115.000000	1.245951 
4114.000000	1.246428 
4113.000000	1.246881 
4112.000000	1.247382 
4111.000000	1.248025 
4110.000000	1.248860 
4109.000000	1.249814 
4108.000000	1.250934 
4107.000000	1.252150 
4106.000000	1.253437 
4105.000000	1.254677 
4104.000000	1.255822 
4103.000000	1.256799 
4102.000000	1.257658 
4101.000000	1.258349 
4100.000000	1.258969 
4099.000000	1.259589 
4098.000000	1.260280 
4097.000000	1.261115 
4096.000000	1.262068 
4095.000000	1.263260 
4094.000000	1.264595 
4093.000000	1.266026 
4092.000000	1.267504 
4091.000000	1.268982 
4090.000000	1.270437 
4089.000000	1.271867 
4088.000000	1.273226 
4087.000000	1.274585 
4086.000000	1.275944 
4085.000000	1.277327 
4084.000000	1.278686 
4083.000000	1.279973 
4082.000000	1.281237 
4081.000000	1.282382 
4080.000000	1.283478 
4079.000000	1.284599 
4078.000000	1.285743 
4077.000000	1.286911 
4076.000000	1.288247 
4075.000000	1.289629 
4074.000000	1.291179 
4073.000000	1.292800 
4072.000000	1.294469 
4071.000000	1.296114 
4070.000000	1.297736 
4069.000000	1.299309 
4068.000000	1.300835 
4067.000000	1.302313 
4066.000000	1.303815 
4065.000000	1.305270 
4064.000000	1.306748 
4063.000000	1.308226 
4062.000000	1.309657 
4061.000000	1.311016 
4060.000000	1.312375 
4059.000000	1.313686 
4058.000000	1.314949 
4057.000000	1.316142 
4056.000000	1.317334 
4055.000000	1.318502 
4054.000000	1.319670 
4053.000000	1.320886 
4052.000000	1.322150 
4051.000000	1.323461 
4050.000000	1.324892 
4049.000000	1.326370 
4048.000000	1.327872 
4047.000000	1.329374 
4046.000000	1.330804 
4045.000000	1.332187 
4044.000000	1.333451 
4043.000000	1.334571 
4042.000000	1.335620 
4041.000000	1.336622 
4040.000000	1.337695 
4039.000000	1.338839 
4038.000000	1.340150 
4037.000000	1.341629 
4036.000000	1.343226 
4035.000000	1.344847 
4034.000000	1.346468 
4033.000000	1.347970 
4032.000000	1.349258 
4031.000000	1.350283 
4030.000000	1.351070 
4029.000000	1.351642 
4028.000000	1.352071 
4027.000000	1.352477 
4026.000000	1.352953 
4025.000000	1.353573 
4024.000000	1.354408 
4023.000000	1.355433 
4022.000000	1.356649 
4021.000000	1.357984 
4020.000000	1.359367 
4019.000000	1.360654 
4018.000000	1.361894 
4017.000000	1.363015 
4016.000000	1.364040 
4015.000000	1.365041 
4014.000000	1.366090 
4013.000000	1.367187 
4012.000000	1.368451 
4011.000000	1.369881 
4010.000000	1.371431 
4009.000000	1.372981 
4008.000000	1.374530 
4007.000000	1.375913 
4006.000000	1.377129 
4005.000000	1.378035 
4004.000000	1.378726 
4003.000000	1.379203 
4002.000000	1.379466 
4001.000000	1.379728 
4000.000000	1.380062 
3999.000000	1.380515 
3998.000000	1.381278 
3997.000000	1.382255 
3996.000000	1.383543 
3995.000000	1.384997 
3994.000000	1.386547 
3993.000000	1.388072 
3992.000000	1.389455 
3991.000000	1.390600 
3990.000000	1.391506 
3989.000000	1.392126 
3988.000000	1.392579 
3987.000000	1.392936 
3986.000000	1.393246 
3985.000000	1.393628 
3984.000000	1.394128 
3983.000000	1.394748 
3982.000000	1.395487 
3981.000000	1.396203 
3980.000000	1.396918 
3979.000000	1.397514 
3978.000000	1.398015 
3977.000000	1.398372 
3976.000000	1.398658 
3975.000000	1.398897 
3974.000000	1.399183 
3973.000000	1.399469 
3972.000000	1.399827 
3971.000000	1.400279 
3970.000000	1.400828 
3969.000000	1.401424 
3968.000000	1.402091 
3967.000000	1.402759 
3966.000000	1.403427 
3965.000000	1.404094 
3964.000000	1.404714 
3963.000000	1.405310 
3962.000000	1.405835 
3961.000000	1.406311 
3960.000000	1.406788 
3959.000000	1.407241 
3958.000000	1.407694 
3957.000000	1.408123 
3956.000000	1.408576 
3955.000000	1.409053 
3954.000000	1.409482 
3953.000000	1.409864 
3952.000000	1.410198 
3951.000000	1.410484 
3950.000000	1.410722 
3949.000000	1.410961 
3948.000000	1.411247 
3947.000000	1.411652 
3946.000000	1.412200 
3945.000000	1.412916 
3944.000000	1.413726 
3943.000000	1.414608 
3942.000000	1.415443 
3941.000000	1.416206 
3940.000000	1.416707 
3939.000000	1.417016 
3938.000000	1.417088 
3937.000000	1.416921 
3936.000000	1.416659 
3935.000000	1.416325 
3934.000000	1.416039 
3933.000000	1.415872 
3932.000000	1.415824 
3931.000000	1.415920 
3930.000000	1.416087 
3929.000000	1.416277 
3928.000000	1.416468 
3927.000000	1.416563 
3926.000000	1.416540 
3925.000000	1.416373 
3924.000000	1.416158 
3923.000000	1.415920 
3922.000000	1.415729 
3921.000000	1.415681 
3920.000000	1.415777 
3919.000000	1.416039 
3918.000000	1.416492 
3917.000000	1.417064 
3916.000000	1.417732 
3915.000000	1.418423 
3914.000000	1.419019 
3913.000000	1.419472 
3912.000000	1.419734 
3911.000000	1.419734 
3910.000000	1.419472 
3909.000000	1.419019 
3908.000000	1.418375 
3907.000000	1.417636 
3906.000000	1.416969 
3905.000000	1.416444 
3904.000000	1.416182 
3903.000000	1.416301 
3902.000000	1.416778 
3901.000000	1.417636 
3900.000000	1.418733 
3899.000000	1.420021 
3898.000000	1.421332 
3897.000000	1.422572 
3896.000000	1.423573 
3895.000000	1.424312 
3894.000000	1.424741 
3893.000000	1.424884 
3892.000000	1.424884 
3891.000000	1.424741 
3890.000000	1.424551 
3889.000000	1.424407 
3888.000000	1.424360 
3887.000000	1.424527 
3886.000000	1.424932 
3885.000000	1.425647 
3884.000000	1.426625 
3883.000000	1.427912 
3882.000000	1.429414 
3881.000000	1.430988 
3880.000000	1.432490 
3879.000000	1.433777 
3878.000000	1.434707 
3877.000000	1.435112 
3876.000000	1.435041 
3875.000000	1.434516 
3874.000000	1.433634 
3873.000000	1.432609 
3872.000000	1.431608 
3871.000000	1.430821 
3870.000000	1.430439 
3869.000000	1.430583 
3868.000000	1.431322 
3867.000000	1.432609 
3866.000000	1.434421 
3865.000000	1.436495 
3864.000000	1.438570 
3863.000000	1.440310 
3862.000000	1.441431 
3861.000000	1.441597 
3860.000000	1.440739 
3859.000000	1.438903 
3858.000000	1.436305 
3857.000000	1.433420 
3856.000000	1.430797 
3855.000000	1.429009 
3854.000000	1.428556 
3853.000000	1.429605 
3852.000000	1.432204 
3851.000000	1.436066 
3850.000000	1.440644 
3849.000000	1.445388 
3848.000000	1.449680 
3847.000000	1.453089 
3846.000000	1.455378 
3845.000000	1.456499 
3844.000000	1.456594 
3843.000000	1.456022 
3842.000000	1.455092 
3841.000000	1.454186 
3840.000000	1.453590 
3839.000000	1.453590 
3838.000000	1.454257 
3837.000000	1.455545 
3836.000000	1.457452 
3835.000000	1.459789 
3834.000000	1.462459 
3833.000000	1.465201 
3832.000000	1.467871 
3831.000000	1.470279 
3830.000000	1.472306 
3829.000000	1.473808 
3828.000000	1.474738 
3827.000000	1.475143 
3826.000000	1.475024 
3825.000000	1.474475 
3824.000000	1.473665 
3823.000000	1.472759 
3822.000000	1.471972 
3821.000000	1.471543 
3820.000000	1.471710 
3819.000000	1.472616 
3818.000000	1.474308 
3817.000000	1.476740 
3816.000000	1.479768 
3815.000000	1.483178 
3814.000000	1.486611 
3813.000000	1.489782 
3812.000000	1.492381 
3811.000000	1.494288 
3810.000000	1.495432 
3809.000000	1.495766 
3808.000000	1.495552 
3807.000000	1.494932 
3806.000000	1.494240 
3805.000000	1.493740 
3804.000000	1.493597 
3803.000000	1.494002 
3802.000000	1.494979 
3801.000000	1.496601 
3800.000000	1.498746 
3799.000000	1.501345 
3798.000000	1.504254 
3797.000000	1.507306 
3796.000000	1.510286 
3795.000000	1.513147 
3794.000000	1.515769 
3793.000000	1.518082 
3792.000000	1.520061 
3791.000000	1.521778 
3790.000000	1.523160 
3789.000000	1.524257 
3788.000000	1.525139 
3787.000000	1.525831 
3786.000000	1.526403 
3785.000000	1.526904 
3784.000000	1.527357 
3783.000000	1.527881 
3782.000000	1.528525 
3781.000000	1.529264 
3780.000000	1.530146 
3779.000000	1.531124 
3778.000000	1.532125 
3777.000000	1.533055 
3776.000000	1.533842 
3775.000000	1.534438 
3774.000000	1.534795 
3773.000000	1.535034 
3772.000000	1.535177 
3771.000000	1.535320 
3770.000000	1.535558 
3769.000000	1.535987 
3768.000000	1.536583 
3767.000000	1.537394 
3766.000000	1.538372 
3765.000000	1.539373 
3764.000000	1.540374 
3763.000000	1.541161 
3762.000000	1.541662 
3761.000000	1.541781 
3760.000000	1.541399 
3759.000000	1.540422 
3758.000000	1.538777 
3757.000000	1.536631 
3756.000000	1.533985 
3755.000000	1.531076 
3754.000000	1.528072 
3753.000000	1.525139 
3752.000000	1.522517 
3751.000000	1.520419 
3750.000000	1.518940 
3749.000000	1.518177 
3748.000000	1.518201 
3747.000000	1.519036 
3746.000000	1.520633 
3745.000000	1.522850 
3744.000000	1.525568 
3743.000000	1.528525 
3742.000000	1.531457 
3741.000000	1.534152 
3740.000000	1.536393 
3739.000000	1.538085 
3738.000000	1.539254 
3737.000000	1.540040 
3736.000000	1.540660 
3735.000000	1.541352 
3734.000000	1.542282 
3733.000000	1.543569 
3732.000000	1.545310 
3731.000000	1.547312 
3730.000000	1.549458 
3729.000000	1.551532 
3728.000000	1.553440 
3727.000000	1.555085 
3726.000000	1.556468 
3725.000000	1.557683 
3724.000000	1.558732 
3723.000000	1.559710 
3722.000000	1.560592 
3721.000000	1.561355 
3720.000000	1.561927 
3719.000000	1.562213 
3718.000000	1.562070 
3717.000000	1.561546 
3716.000000	1.560711 
3715.000000	1.559734 
3714.000000	1.558804 
3713.000000	1.558184 
3712.000000	1.558017 
3711.000000	1.558423 
3710.000000	1.559376 
3709.000000	1.560735 
3708.000000	1.562309 
3707.000000	1.563882 
3706.000000	1.565289 
3705.000000	1.566410 
3704.000000	1.567173 
3703.000000	1.567649 
3702.000000	1.567935 
3701.000000	1.568055 
3700.000000	1.568055 
3699.000000	1.567912 
3698.000000	1.567506 
3697.000000	1.566648 
3696.000000	1.565313 
3695.000000	1.563405 
3694.000000	1.561045 
3693.000000	1.558375 
3692.000000	1.555752 
3691.000000	1.553535 
3690.000000	1.552009 
3689.000000	1.551365 
3688.000000	1.551699 
3687.000000	1.552891 
3686.000000	1.554608 
3685.000000	1.556444 
3684.000000	1.558017 
3683.000000	1.558995 
3682.000000	1.559114 
3681.000000	1.558303 
3680.000000	1.556658 
3679.000000	1.554393 
3678.000000	1.551866 
3677.000000	1.549339 
3676.000000	1.547241 
3675.000000	1.545739 
3674.000000	1.545119 
3673.000000	1.545405 
3672.000000	1.546621 
3671.000000	1.548695 
3670.000000	1.551437 
3669.000000	1.554703 
3668.000000	1.558160 
3667.000000	1.561546 
3666.000000	1.564550 
3665.000000	1.566958 
3664.000000	1.568555 
3663.000000	1.569366 
3662.000000	1.569366 
3661.000000	1.568651 
3660.000000	1.567411 
3659.000000	1.565814 
3658.000000	1.564002 
3657.000000	1.562094 
3656.000000	1.560211 
3655.000000	1.558327 
3654.000000	1.556634 
3653.000000	1.555132 
3652.000000	1.554012 
3651.000000	1.553416 
3650.000000	1.553392 
3649.000000	1.554059 
3648.000000	1.555323 
3647.000000	1.557207 
3646.000000	1.559424 
3645.000000	1.561808 
3644.000000	1.564121 
3643.000000	1.566243 
3642.000000	1.567983 
3641.000000	1.569271 
3640.000000	1.570081 
3639.000000	1.570367 
3638.000000	1.570057 
3637.000000	1.569199 
3636.000000	1.567769 
3635.000000	1.565885 
3634.000000	1.563692 
3633.000000	1.561474 
3632.000000	1.559495 
3631.000000	1.558041 
3630.000000	1.557302 
3629.000000	1.557493 
3628.000000	1.558423 
3627.000000	1.559925 
3626.000000	1.561760 
3625.000000	1.563596 
3624.000000	1.565241 
3623.000000	1.566481 
3622.000000	1.567363 
3621.000000	1.567864 
3620.000000	1.568174 
3619.000000	1.568412 
3618.000000	1.568627 
3617.000000	1.568889 
3616.000000	1.569199 
3615.000000	1.569509 
3614.000000	1.569843 
3613.000000	1.570153 
3612.000000	1.570534 
3611.000000	1.570987 
3610.000000	1.571631 
3609.000000	1.572537 
3608.000000	1.573610 
3607.000000	1.574802 
3606.000000	1.576018 
3605.000000	1.577115 
3604.000000	1.577997 
3603.000000	1.578617 
3602.000000	1.578998 
3601.000000	1.579189 
3600.000000	1.579332 
3599.000000	1.579475 
3598.000000	1.579689 
3597.000000	1.579999 
3596.000000	1.580381 
3595.000000	1.580786 
3594.000000	1.581120 
3593.000000	1.581430 
3592.000000	1.581668 
3591.000000	1.581907 
3590.000000	1.582169 
3589.000000	1.582646 
3588.000000	1.583337 
3587.000000	1.584291 
3586.000000	1.585483 
3585.000000	1.586842 
3584.000000	1.588273 
3583.000000	1.589632 
3582.000000	1.590847 
3581.000000	1.591849 
3580.000000	1.592612 
3579.000000	1.593089 
3578.000000	1.593375 
3577.000000	1.593446 
3576.000000	1.593399 
3575.000000	1.593232 
3574.000000	1.592969 
3573.000000	1.592659 
3572.000000	1.592326 
3571.000000	1.592016 
3570.000000	1.591777 
3569.000000	1.591706 
3568.000000	1.591897 
3567.000000	1.592421 
3566.000000	1.593255 
3565.000000	1.594352 
3564.000000	1.595687 
3563.000000	1.597213 
3562.000000	1.598834 
3561.000000	1.600432 
3560.000000	1.601982 
3559.000000	1.603364 
3558.000000	1.604557 
3557.000000	1.605558 
3556.000000	1.606297 
3555.000000	1.606774 
3554.000000	1.607036 
3553.000000	1.607108 
3552.000000	1.606988 
3551.000000	1.606822 
3550.000000	1.606631 
3549.000000	1.606488 
3548.000000	1.606488 
3547.000000	1.606655 
3546.000000	1.606988 
3545.000000	1.607465 
3544.000000	1.608014 
3543.000000	1.608538 
3542.000000	1.609015 
3541.000000	1.609373 
3540.000000	1.609587 
3539.000000	1.609683 
3538.000000	1.609706 
3537.000000	1.609754 
3536.000000	1.609826 
3535.000000	1.609992 
3534.000000	1.610207 
3533.000000	1.610541 
3532.000000	1.610875 
3531.000000	1.611256 
3530.000000	1.611590 
3529.000000	1.611852 
3528.000000	1.612043 
3527.000000	1.612162 
3526.000000	1.612210 
3525.000000	1.612305 
3524.000000	1.612353 
3523.000000	1.612424 
3522.000000	1.612520 
3521.000000	1.612639 
3520.000000	1.612758 
3519.000000	1.612901 
3518.000000	1.612997 
3517.000000	1.613068 
3516.000000	1.613140 
3515.000000	1.613187 
3514.000000	1.613211 
3513.000000	1.613235 
3512.000000	1.613259 
3511.000000	1.613306 
3510.000000	1.613330 
3509.000000	1.613354 
3508.000000	1.613354 
3507.000000	1.613330 
3506.000000	1.613235 
3505.000000	1.613092 
3504.000000	1.612949 
3503.000000	1.612782 
3502.000000	1.612639 
3501.000000	1.612472 
3500.000000	1.612257 
3499.000000	1.612019 
3498.000000	1.611757 
3497.000000	1.611399 
3496.000000	1.610922 
3495.000000	1.610374 
3494.000000	1.609754 
3493.000000	1.609086 
3492.000000	1.608419 
3491.000000	1.607823 
3490.000000	1.607251 
3489.000000	1.606750 
3488.000000	1.606321 
3487.000000	1.605939 
3486.000000	1.605629 
3485.000000	1.605319 
3484.000000	1.605057 
3483.000000	1.604771 
3482.000000	1.604533 
3481.000000	1.604223 
3480.000000	1.603913 
3479.000000	1.603531 
3478.000000	1.603078 
3477.000000	1.602482 
3476.000000	1.601767 
3475.000000	1.600933 
3474.000000	1.600003 
3473.000000	1.599025 
3472.000000	1.598024 
3471.000000	1.597118 
3470.000000	1.596307 
3469.000000	1.595640 
3468.000000	1.595163 
3467.000000	1.594877 
3466.000000	1.594686 
3465.000000	1.594591 
3464.000000	1.594448 
3463.000000	1.594209 
3462.000000	1.593852 
3461.000000	1.593399 
3460.000000	1.592755 
3459.000000	1.592016 
3458.000000	1.591181 
3457.000000	1.590299 
3456.000000	1.589393 
3455.000000	1.588511 
3454.000000	1.587605 
3453.000000	1.586723 
3452.000000	1.585817 
3451.000000	1.584911 
3450.000000	1.583957 
3449.000000	1.583027 
3448.000000	1.582074 
3447.000000	1.581168 
3446.000000	1.580309 
3445.000000	1.579546 
3444.000000	1.578855 
3443.000000	1.578235 
3442.000000	1.577639 
3441.000000	1.577067 
3440.000000	1.576471 
3439.000000	1.575827 
3438.000000	1.575160 
3437.000000	1.574516 
3436.000000	1.573848 
3435.000000	1.573276 
3434.000000	1.572775 
3433.000000	1.572418 
3432.000000	1.572227 
3431.000000	1.572203 
3430.000000	1.572346 
3429.000000	1.572656 
3428.000000	1.573085 
3427.000000	1.573586 
3426.000000	1.574134 
3425.000000	1.574730 
3424.000000	1.575279 
3423.000000	1.575803 
3422.000000	1.576304 
3421.000000	1.576757 
3420.000000	1.577115 
3419.000000	1.577401 
3418.000000	1.577568 
3417.000000	1.577615 
3416.000000	1.577544 
3415.000000	1.577329 
3414.000000	1.577067 
3413.000000	1.576757 
3412.000000	1.576471 
3411.000000	1.576304 
3410.000000	1.576280 
3409.000000	1.576471 
3408.000000	1.576900 
3407.000000	1.577544 
3406.000000	1.578307 
3405.000000	1.579141 
3404.000000	1.580023 
3403.000000	1.580882 
3402.000000	1.581668 
3401.000000	1.582384 
3400.000000	1.583075 
3399.000000	1.583743 
3398.000000	1.584529 
3397.000000	1.585340 
3396.000000	1.586294 
3395.000000	1.587271 
3394.000000	1.588273 
3393.000000	1.589274 
3392.000000	1.590180 
3391.000000	1.590967 
3390.000000	1.591587 
3389.000000	1.592087 
3388.000000	1.592540 
3387.000000	1.592969 
3386.000000	1.593422 
3385.000000	1.593947 
3384.000000	1.594614 
3383.000000	1.595282 
3382.000000	1.596021 
3381.000000	1.596760 
3380.000000	1.597476 
3379.000000	1.598167 
3378.000000	1.598787 
3377.000000	1.599383 
3376.000000	1.599979 
3375.000000	1.600670 
3374.000000	1.601433 
3373.000000	1.602315 
3372.000000	1.603293 
3371.000000	1.604390 
3370.000000	1.605558 
3369.000000	1.606774 
3368.000000	1.608037 
3367.000000	1.609396 
3366.000000	1.610827 
3365.000000	1.612377 
3364.000000	1.613998 
3363.000000	1.615691 
3362.000000	1.617455 
3361.000000	1.619243 
3360.000000	1.621031 
3359.000000	1.622772 
3358.000000	1.624417 
3357.000000	1.625919 
3356.000000	1.627302 
3355.000000	1.628589 
3354.000000	1.629805 
3353.000000	1.630949 
3352.000000	1.632118 
3351.000000	1.633262 
3350.000000	1.634502 
3349.000000	1.635742 
3348.000000	1.637077 
3347.000000	1.638412 
3346.000000	1.639723 
3345.000000	1.640963 
3344.000000	1.642107 
3343.000000	1.643180 
3342.000000	1.644253 
3341.000000	1.645278 
3340.000000	1.646375 
3339.000000	1.647567 
3338.000000	1.648902 
3337.000000	1.650428 
3336.000000	1.652121 
3335.000000	1.653909 
3334.000000	1.655793 
3333.000000	1.657700 
3332.000000	1.659560 
3331.000000	1.661396 
3330.000000	1.663112 
3329.000000	1.664710 
3328.000000	1.666259 
3327.000000	1.667714 
3326.000000	1.669096 
3325.000000	1.670384 
3324.000000	1.671600 
3323.000000	1.672720 
3322.000000	1.673769 
3321.000000	1.674747 
3320.000000	1.675724 
3319.000000	1.676654 
3318.000000	1.677656 
3317.000000	1.678776 
3316.000000	1.680016 
3315.000000	1.681375 
3314.000000	1.682877 
3313.000000	1.684522 
3312.000000	1.686215 
3311.000000	1.687955 
3310.000000	1.689696 
3309.000000	1.691389 
3308.000000	1.693058 
3307.000000	1.694679 
3306.000000	1.696300 
3305.000000	1.697897 
3304.000000	1.699495 
3303.000000	1.701045 
3302.000000	1.702594 
3301.000000	1.704120 
3300.000000	1.705551 
3299.000000	1.706838 
3298.000000	1.708078 
3297.000000	1.709198 
3296.000000	1.710200 
3295.000000	1.711177 
3294.000000	1.712107 
3293.000000	1.713109 
3292.000000	1.714134 
3291.000000	1.715278 
3290.000000	1.716566 
3289.000000	1.717972 
3288.000000	1.719546 
3287.000000	1.721167 
3286.000000	1.722860 
3285.000000	1.724576 
3284.000000	1.726245 
3283.000000	1.727819 
3282.000000	1.729249 
3281.000000	1.730489 
3280.000000	1.731514 
3279.000000	1.732373 
3278.000000	1.733088 
3277.000000	1.733660 
3276.000000	1.734209 
3275.000000	1.734757 
3274.000000	1.735424 
3273.000000	1.736140 
3272.000000	1.736974 
3271.000000	1.737928 
3270.000000	1.739001 
3269.000000	1.740145 
3268.000000	1.741361 
3267.000000	1.742577 
3266.000000	1.743817 
3265.000000	1.745033 
3264.000000	1.746225 
3263.000000	1.747345 
3262.000000	1.748394 
3261.000000	1.749396 
3260.000000	1.750349 
3259.000000	1.751255 
3258.000000	1.752138 
3257.000000	1.753020 
3256.000000	1.753926 
3255.000000	1.754784 
3254.000000	1.755642 
3253.000000	1.756453 
3252.000000	1.757216 
3251.000000	1.757884 
3250.000000	1.758480 
3249.000000	1.759004 
3248.000000	1.759481 
3247.000000	1.759958 
3246.000000	1.760458 
3245.000000	1.761007 
3244.000000	1.761531 
3243.000000	1.762080 
3242.000000	1.762628 
3241.000000	1.763129 
3240.000000	1.763629 
3239.000000	1.764059 
3238.000000	1.764464 
3237.000000	1.764774 
3236.000000	1.765084 
3235.000000	1.765394 
3234.000000	1.765656 
3233.000000	1.765942 
3232.000000	1.766276 
3231.000000	1.766681 
3230.000000	1.767158 
3229.000000	1.767706 
3228.000000	1.768350 
3227.000000	1.769065 
3226.000000	1.769757 
3225.000000	1.770424 
3224.000000	1.771044 
3223.000000	1.771497 
3222.000000	1.771831 
3221.000000	1.771974 
3220.000000	1.771998 
3219.000000	1.771926 
3218.000000	1.771807 
3217.000000	1.771640 
3216.000000	1.771521 
3215.000000	1.771545 
3214.000000	1.771664 
3213.000000	1.771950 
3212.000000	1.772284 
3211.000000	1.772713 
3210.000000	1.773190 
3209.000000	1.773643 
3208.000000	1.774024 
3207.000000	1.774358 
3206.000000	1.774621 
3205.000000	1.774859 
3204.000000	1.775074 
3203.000000	1.775312 
3202.000000	1.775598 
3201.000000	1.775932 
3200.000000	1.776337 
3199.000000	1.776766 
3198.000000	1.777172 
3197.000000	1.777553 
3196.000000	1.777863 
3195.000000	1.778078 
3194.000000	1.778173 
3193.000000	1.778197 
3192.000000	1.778125 
3191.000000	1.777958 
3190.000000	1.777744 
3189.000000	1.777529 
3188.000000	1.777386 
3187.000000	1.777338 
3186.000000	1.777386 
3185.000000	1.777625 
3184.000000	1.777982 
3183.000000	1.778554 
3182.000000	1.779222 
3181.000000	1.779985 
3180.000000	1.780796 
3179.000000	1.781606 
3178.000000	1.782369 
3177.000000	1.783037 
3176.000000	1.783585 
3175.000000	1.783990 
3174.000000	1.784253 
3173.000000	1.784372 
3172.000000	1.784324 
3171.000000	1.784229 
3170.000000	1.784062 
3169.000000	1.783895 
3168.000000	1.783704 
3167.000000	1.783561 
3166.000000	1.783585 
3165.000000	1.783633 
3164.000000	1.783919 
3163.000000	1.784276 
3162.000000	1.784825 
3161.000000	1.785516 
3160.000000	1.786398 
3159.000000	1.787400 
3158.000000	1.788544 
3157.000000	1.789832 
3156.000000	1.791143 
3155.000000	1.792502 
3154.000000	1.793789 
3153.000000	1.795005 
3152.000000	1.796030 
3151.000000	1.796841 
3150.000000	1.797437 
3149.000000	1.797842 
3148.000000	1.798033 
3147.000000	1.798105 
3146.000000	1.798152 
3145.000000	1.798200 
3144.000000	1.798367 
3143.000000	1.798677 
3142.000000	1.799154 
3141.000000	1.799798 
3140.000000	1.800608 
3139.000000	1.801562 
3138.000000	1.802659 
3137.000000	1.803874 
3136.000000	1.805138 
3135.000000	1.806521 
3134.000000	1.807928 
3133.000000	1.809382 
3132.000000	1.810812 
3131.000000	1.812243 
3130.000000	1.813650 
3129.000000	1.815032 
3128.000000	1.816391 
3127.000000	1.817750 
3126.000000	1.819109 
3125.000000	1.820540 
3124.000000	1.821970 
3123.000000	1.823449 
3122.000000	1.824903 
3121.000000	1.826286 
3120.000000	1.827502 
3119.000000	1.828575 
3118.000000	1.829528 
3117.000000	1.830410 
3116.000000	1.831221 
3115.000000	1.832103 
3114.000000	1.833105 
3113.000000	1.834297 
3112.000000	1.835703 
3111.000000	1.837348 
3110.000000	1.839160 
3109.000000	1.841115 
3108.000000	1.843190 
3107.000000	1.845240 
3106.000000	1.847314 
3105.000000	1.849389 
3104.000000	1.851487 
3103.000000	1.853561 
3102.000000	1.855635 
3101.000000	1.857709 
3100.000000	1.859760 
3099.000000	1.861763 
3098.000000	1.863765 
3097.000000	1.865720 
3096.000000	1.867604 
3095.000000	1.869440 
3094.000000	1.871275 
3093.000000	1.873064 
3092.000000	1.874804 
3091.000000	1.876568 
3090.000000	1.878261 
3089.000000	1.879930 
3088.000000	1.881551 
3087.000000	1.883101 
3086.000000	1.884651 
3085.000000	1.886177 
3084.000000	1.887726 
3083.000000	1.889348 
3082.000000	1.891088 
3081.000000	1.892971 
3080.000000	1.894950 
3079.000000	1.897048 
3078.000000	1.899266 
3077.000000	1.901459 
3076.000000	1.903605 
3075.000000	1.905560 
3074.000000	1.907300 
3073.000000	1.908779 
3072.000000	1.909971 
3071.000000	1.910901 
3070.000000	1.911592 
3069.000000	1.912140 
3068.000000	1.912641 
3067.000000	1.913142 
3066.000000	1.913666 
3065.000000	1.914310 
3064.000000	1.915073 
3063.000000	1.916027 
3062.000000	1.917219 
3061.000000	1.918649 
3060.000000	1.920366 
3059.000000	1.922321 
3058.000000	1.924514 
3057.000000	1.926922 
3056.000000	1.929426 
3055.000000	1.931881 
3054.000000	1.934266 
3053.000000	1.936435 
3052.000000	1.938366 
3051.000000	1.940059 
3050.000000	1.941537 
3049.000000	1.942801 
3048.000000	1.944017 
3047.000000	1.945137 
3046.000000	1.946306 
3045.000000	1.947522 
3044.000000	1.948785 
3043.000000	1.950097 
3042.000000	1.951384 
3041.000000	1.952624 
3040.000000	1.953744 
3039.000000	1.954770 
3038.000000	1.955652 
3037.000000	1.956415 
3036.000000	1.957035 
3035.000000	1.957535 
3034.000000	1.957893 
3033.000000	1.958084 
3032.000000	1.958036 
3031.000000	1.957702 
3030.000000	1.957035 
3029.000000	1.956009 
3028.000000	1.954579 
3027.000000	1.952743 
3026.000000	1.950597 
3025.000000	1.948213 
3024.000000	1.945757 
3023.000000	1.943373 
3022.000000	1.941251 
3021.000000	1.939654 
3020.000000	1.938724 
3019.000000	1.938629 
3018.000000	1.939463 
3017.000000	1.941299 
3016.000000	1.944041 
3015.000000	1.947617 
3014.000000	1.951861 
3013.000000	1.956629 
3012.000000	1.961731 
3011.000000	1.966977 
3010.000000	1.972222 
3009.000000	1.977372 
3008.000000	1.982283 
3007.000000	1.986861 
3006.000000	1.991081 
3005.000000	1.994872 
3004.000000	1.998233 
3003.000000	2.001070 
3002.000000	2.003359 
3001.000000	2.005171 
3000.000000	2.006506 
2999.000000	2.007460 
2998.000000	2.008080 
2997.000000	2.008533 
2996.000000	2.008843 
2995.000000	2.009081 
2994.000000	2.009367 
2993.000000	2.009606 
2992.000000	2.009844 
2991.000000	2.010083 
2990.000000	2.010226 
2989.000000	2.010202 
2988.000000	2.010011 
2987.000000	2.009630 
2986.000000	2.009010 
2985.000000	2.008175 
2984.000000	2.007150 
2983.000000	2.005887 
2982.000000	2.004408 
2981.000000	2.002716 
2980.000000	2.000784 
2979.000000	1.998519 
2978.000000	1.995921 
2977.000000	1.992869 
2976.000000	1.989364 
2975.000000	1.985263 
2974.000000	1.980614 
2973.000000	1.975417 
2972.000000	1.969671 
2971.000000	1.963520 
2970.000000	1.957082 
2969.000000	1.950573 
2968.000000	1.944160 
2967.000000	1.938009 
2966.000000	1.932287 
2965.000000	1.927113 
2964.000000	1.922535 
2963.000000	1.918625 
2962.000000	1.915335 
2961.000000	1.912665 
2960.000000	1.910519 
2959.000000	1.908850 
2958.000000	1.907563 
2957.000000	1.906657 
2956.000000	1.906013 
2955.000000	1.905465 
2954.000000	1.904964 
2953.000000	1.904320 
2952.000000	1.903438 
2951.000000	1.902151 
2950.000000	1.900267 
2949.000000	1.897644 
2948.000000	1.894140 
2947.000000	1.889729 
2946.000000	1.884269 
2945.000000	1.877856 
2944.000000	1.870632 
2943.000000	1.862621 
2942.000000	1.854038 
2941.000000	1.845121 
2940.000000	1.836037 
2939.000000	1.826953 
2938.000000	1.818037 
2937.000000	1.809430 
2936.000000	1.801156 
2935.000000	1.793265 
2934.000000	1.785731 
2933.000000	1.778578 
2932.000000	1.771855 
2931.000000	1.765608 
2930.000000	1.759958 
2929.000000	1.755166 
2928.000000	1.751565 
2927.000000	1.749420 
2926.000000	1.749038 
2925.000000	1.750659 
2924.000000	1.754426 
2923.000000	1.760315 
2922.000000	1.768207 
2921.000000	1.777911 
2920.000000	1.788997 
2919.000000	1.801109 
2918.000000	1.813697 
2917.000000	1.826453 
2916.000000	1.838922 
2915.000000	1.850843 
2914.000000	1.861977 
2913.000000	1.872205 
2912.000000	1.881527 
2911.000000	1.889896 
2910.000000	1.897382 
2909.000000	1.904106 
2908.000000	1.910114 
2907.000000	1.915454 
2906.000000	1.920318 
2905.000000	1.924729 
2904.000000	1.928830 
2903.000000	1.932668 
2902.000000	1.936316 
2901.000000	1.939821 
2900.000000	1.943278 
2899.000000	1.946735 
2898.000000	1.950192 
2897.000000	1.953625 
2896.000000	1.957082 
2895.000000	1.960492 
2894.000000	1.963806 
2893.000000	1.966953 
2892.000000	1.969957 
2891.000000	1.972699 
2890.000000	1.975202 
2889.000000	1.977396 
2888.000000	1.979422 
2887.000000	1.981163 
2886.000000	1.982736 
2885.000000	1.984143 
2884.000000	1.985430 
2883.000000	1.986575 
2882.000000	1.987552 
2881.000000	1.988291 
2880.000000	1.988697 
2879.000000	1.988625 
2878.000000	1.987957 
2877.000000	1.986551 
2876.000000	1.984310 
2875.000000	1.981139 
2874.000000	1.976990 
2873.000000	1.971817 
2872.000000	1.965641 
2871.000000	1.958608 
2870.000000	1.950764 
2869.000000	1.942276 
2868.000000	1.933312 
2867.000000	1.924276 
2866.000000	1.915359 
2865.000000	1.906991 
2864.000000	1.899600 
2863.000000	1.893568 
2862.000000	1.889157 
2861.000000	1.886725 
2860.000000	1.886272 
2859.000000	1.887917 
2858.000000	1.891517 
2857.000000	1.896929 
2856.000000	1.903915 
2855.000000	1.912236 
2854.000000	1.921510 
2853.000000	1.931595 
2852.000000	1.942276 
2851.000000	1.953220 
2850.000000	1.964259 
2849.000000	1.975178 
2848.000000	1.985812 
2847.000000	1.995968 
2846.000000	2.005505 
2845.000000	2.014350 
2844.000000	2.022528 
2843.000000	2.029967 
2842.000000	2.036762 
2841.000000	2.042984 
2840.000000	2.048659 
2839.000000	2.053904 
2838.000000	2.058672 
2837.000000	2.063107 
2836.000000	2.067232 
2835.000000	2.071046 
2834.000000	2.074575 
2833.000000	2.077937 
2832.000000	2.081131 
2831.000000	2.084255 
2830.000000	2.087283 
2829.000000	2.090239 
2828.000000	2.093195 
2827.000000	2.096080 
2826.000000	2.098965 
2825.000000	2.101755 
2824.000000	2.104544 
2823.000000	2.107310 
2822.000000	2.110075 
2821.000000	2.112793 
2820.000000	2.115488 
2819.000000	2.118158 
2818.000000	2.120757 
2817.000000	2.123308 
2816.000000	2.125716 
2815.000000	2.128028 
2814.000000	2.130270 
2813.000000	2.132368 
2812.000000	2.134418 
2811.000000	2.136373 
2810.000000	2.138304 
2809.000000	2.140164 
2808.000000	2.142047 
2807.000000	2.143883 
2806.000000	2.145719 
2805.000000	2.147579 
2804.000000	2.149367 
2803.000000	2.151179 
2802.000000	2.153015 
2801.000000	2.154779 
2800.000000	2.156472 
2799.000000	2.158117 
2798.000000	2.159667 
2797.000000	2.161121 
2796.000000	2.162528 
2795.000000	2.163839 
2794.000000	2.165150 
2793.000000	2.166533 
2792.000000	2.168035 
2791.000000	2.169680 
2790.000000	2.171516 
2789.000000	2.173495 
2788.000000	2.175664 
2787.000000	2.178025 
2786.000000	2.180480 
2785.000000	2.183008 
2784.000000	2.185559 
2783.000000	2.188062 
2782.000000	2.190518 
2781.000000	2.192878 
2780.000000	2.195119 
2779.000000	2.197217 
2778.000000	2.199172 
2777.000000	2.201032 
2776.000000	2.202796 
2775.000000	2.204442 
2774.000000	2.206015 
2773.000000	2.207517 
2772.000000	2.208948 
2771.000000	2.210354 
2770.000000	2.211713 
2769.000000	2.212977 
2768.000000	2.214169 
2767.000000	2.215313 
2766.000000	2.216339 
2765.000000	2.217292 
2764.000000	2.218222 
2763.000000	2.219104 
2762.000000	2.219986 
2761.000000	2.220869 
2760.000000	2.221798 
2759.000000	2.222752 
2758.000000	2.223706 
2757.000000	2.224683 
2756.000000	2.225708 
2755.000000	2.226710 
2754.000000	2.227759 
2753.000000	2.228760 
2752.000000	2.229785 
2751.000000	2.230715 
2750.000000	2.231550 
2749.000000	2.232289 
2748.000000	2.232909 
2747.000000	2.233362 
2746.000000	2.233672 
2745.000000	2.233862 
2744.000000	2.233958 
2743.000000	2.233958 
2742.000000	2.233958 
2741.000000	2.233910 
2740.000000	2.233910 
2739.000000	2.233982 
2738.000000	2.234148 
2737.000000	2.234435 
2736.000000	2.234792 
2735.000000	2.235245 
2734.000000	2.235651 
2733.000000	2.236008 
2732.000000	2.236223 
2731.000000	2.236294 
2730.000000	2.236175 
2729.000000	2.235865 
2728.000000	2.235436 
2727.000000	2.234935 
2726.000000	2.234411 
2725.000000	2.233958 
2724.000000	2.233624 
2723.000000	2.233433 
2722.000000	2.233362 
2721.000000	2.233386 
2720.000000	2.233457 
2719.000000	2.233529 
2718.000000	2.233529 
2717.000000	2.233409 
2716.000000	2.233171 
2715.000000	2.232742 
2714.000000	2.232217 
2713.000000	2.231621 
2712.000000	2.230954 
2711.000000	2.230262 
2710.000000	2.229666 
2709.000000	2.229118 
2708.000000	2.228689 
2707.000000	2.228379 
2706.000000	2.228188 
2705.000000	2.228164 
2704.000000	2.228236 
2703.000000	2.228379 
2702.000000	2.228522 
2701.000000	2.228641 
2700.000000	2.228665 
2699.000000	2.228546 
2698.000000	2.228236 
2697.000000	2.227759 
2696.000000	2.227115 
2695.000000	2.226352 
2694.000000	2.225542 
2693.000000	2.224707 
2692.000000	2.223920 
2691.000000	2.223157 
2690.000000	2.222442 
2689.000000	2.221775 
2688.000000	2.221083 
2687.000000	2.220439 
2686.000000	2.219772 
2685.000000	2.219152 
2684.000000	2.218627 
2683.000000	2.218103 
2682.000000	2.217721 
2681.000000	2.217388 
2680.000000	2.217078 
2679.000000	2.216792 
2678.000000	2.216482 
2677.000000	2.216124 
2676.000000	2.215623 
2675.000000	2.215075 
2674.000000	2.214407 
2673.000000	2.213668 
2672.000000	2.212858 
2671.000000	2.212047 
2670.000000	2.211236 
2669.000000	2.210402 
2668.000000	2.209615 
2667.000000	2.208852 
2666.000000	2.208161 
2665.000000	2.207517 
2664.000000	2.206897 
2663.000000	2.206254 
2662.000000	2.205586 
2661.000000	2.204871 
2660.000000	2.204060 
2659.000000	2.203130 
2658.000000	2.202129 
2657.000000	2.201104 
2656.000000	2.200031 
2655.000000	2.199006 
2654.000000	2.198100 
2653.000000	2.197337 
2652.000000	2.196764 
2651.000000	2.196359 
2650.000000	2.196168 
2649.000000	2.196097 
2648.000000	2.196121 
2647.000000	2.196192 
2646.000000	2.196264 
2645.000000	2.196311 
2644.000000	2.196335 
2643.000000	2.196264 
2642.000000	2.196145 
2641.000000	2.195954 
2640.000000	2.195763 
2639.000000	2.195549 
2638.000000	2.195382 
2637.000000	2.195239 
2636.000000	2.195167 
2635.000000	2.195143 
2634.000000	2.195167 
2633.000000	2.195262 
2632.000000	2.195334 
2631.000000	2.195382 
2630.000000	2.195405 
2629.000000	2.195382 
2628.000000	2.195310 
2627.000000	2.195239 
2626.000000	2.195167 
2625.000000	2.195096 
2624.000000	2.195048 
2623.000000	2.195024 
2622.000000	2.195072 
2621.000000	2.195167 
2620.000000	2.195310 
2619.000000	2.195549 
2618.000000	2.195858 
2617.000000	2.196288 
2616.000000	2.196764 
2615.000000	2.197408 
2614.000000	2.198076 
2613.000000	2.198767 
2612.000000	2.199506 
2611.000000	2.200222 
2610.000000	2.200865 
2609.000000	2.201366 
2608.000000	2.201795 
2607.000000	2.202105 
2606.000000	2.202343 
2605.000000	2.202463 
2604.000000	2.202510 
2603.000000	2.202486 
2602.000000	2.202463 
2601.000000	2.202439 
2600.000000	2.202463 
2599.000000	2.202510 
2598.000000	2.202677 
2597.000000	2.202916 
2596.000000	2.203249 
2595.000000	2.203679 
2594.000000	2.204227 
2593.000000	2.204895 
2592.000000	2.205705 
2591.000000	2.206635 
2590.000000	2.207660 
2589.000000	2.208805 
2588.000000	2.210092 
2587.000000	2.211475 
2586.000000	2.212953 
2585.000000	2.214455 
2584.000000	2.216005 
2583.000000	2.217602 
2582.000000	2.219152 
2581.000000	2.220702 
2580.000000	2.222251 
2579.000000	2.223777 
2578.000000	2.225279 
2577.000000	2.226734 
2576.000000	2.228164 
2575.000000	2.229571 
2574.000000	2.230978 
2573.000000	2.232313 
2572.000000	2.233648 
2571.000000	2.234935 
2570.000000	2.236223 
2569.000000	2.237510 
2568.000000	2.238821 
2567.000000	2.240180 
2566.000000	2.241539 
2565.000000	2.242922 
2564.000000	2.244329 
2563.000000	2.245736 
2562.000000	2.247142 
2561.000000	2.248477 
2560.000000	2.249813 
2559.000000	2.251124 
2558.000000	2.252459 
2557.000000	2.253746 
2556.000000	2.255058 
2555.000000	2.256369 
2554.000000	2.257633 
2553.000000	2.258872 
2552.000000	2.260065 
2551.000000	2.261185 
2550.000000	2.262330 
2549.000000	2.263474 
2548.000000	2.264642 
2547.000000	2.265858 
2546.000000	2.267146 
2545.000000	2.268457 
2544.000000	2.269792 
2543.000000	2.271103 
2542.000000	2.272319 
2541.000000	2.273464 
2540.000000	2.274537 
2539.000000	2.275514 
2538.000000	2.276444 
2537.000000	2.277350 
2536.000000	2.278232 
2535.000000	2.279138 
2534.000000	2.280044 
2533.000000	2.281022 
2532.000000	2.282094 
2531.000000	2.283239 
2530.000000	2.284479 
2529.000000	2.285814 
2528.000000	2.287220 
2527.000000	2.288699 
2526.000000	2.290225 
2525.000000	2.291655 
2524.000000	2.292966 
2523.000000	2.294135 
2522.000000	2.295064 
2521.000000	2.295804 
2520.000000	2.296376 
2519.000000	2.296757 
2518.000000	2.297091 
2517.000000	2.297425 
2516.000000	2.297782 
2515.000000	2.298235 
2514.000000	2.298831 
2513.000000	2.299618 
2512.000000	2.300524 
2511.000000	2.301597 
2510.000000	2.302718 
2509.000000	2.303838 
2508.000000	2.304887 
2507.000000	2.305769 
2506.000000	2.306437 
2505.000000	2.306795 
2504.000000	2.306866 
2503.000000	2.306699 
2502.000000	2.306318 
2501.000000	2.305793 
2500.000000	2.305197 
2499.000000	2.304577 
2498.000000	2.304005 
2497.000000	2.303457 
2496.000000	2.302980 
2495.000000	2.302551 
2494.000000	2.302145 
2493.000000	2.301764 
2492.000000	2.301359 
2491.000000	2.300953 
2490.000000	2.300572 
2489.000000	2.300190 
2488.000000	2.299809 
2487.000000	2.299451 
2486.000000	2.299165 
2485.000000	2.298927 
2484.000000	2.298760 
2483.000000	2.298569 
2482.000000	2.298402 
2481.000000	2.298212 
2480.000000	2.297973 
2479.000000	2.297663 
2478.000000	2.297306 
2477.000000	2.296829 
2476.000000	2.296257 
2475.000000	2.295660 
2474.000000	2.294993 
2473.000000	2.294301 
2472.000000	2.293634 
2471.000000	2.292943 
2470.000000	2.292275 
2469.000000	2.291607 
2468.000000	2.290987 
2467.000000	2.290415 
2466.000000	2.289843 
2465.000000	2.289319 
2464.000000	2.288913 
2463.000000	2.288532 
2462.000000	2.288198 
2461.000000	2.287936 
2460.000000	2.287697 
2459.000000	2.287411 
2458.000000	2.287077 
2457.000000	2.286601 
2456.000000	2.286005 
2455.000000	2.285218 
2454.000000	2.284288 
2453.000000	2.283143 
2452.000000	2.281904 
2451.000000	2.280616 
2450.000000	2.279281 
2449.000000	2.277970 
2448.000000	2.276754 
2447.000000	2.275633 
2446.000000	2.274632 
2445.000000	2.273774 
2444.000000	2.273082 
2443.000000	2.272534 
2442.000000	2.272033 
2441.000000	2.271556 
2440.000000	2.271056 
2439.000000	2.270436 
2438.000000	2.269697 
2437.000000	2.268767 
2436.000000	2.267670 
2435.000000	2.266454 
2434.000000	2.265191 
2433.000000	2.263951 
2432.000000	2.262759 
2431.000000	2.261710 
2430.000000	2.260828 
2429.000000	2.260112 
2428.000000	2.259469 
2427.000000	2.258896 
2426.000000	2.258372 
2425.000000	2.257752 
2424.000000	2.257061 
2423.000000	2.256274 
2422.000000	2.255415 
2421.000000	2.254486 
2420.000000	2.253508 
2419.000000	2.252483 
2418.000000	2.251458 
2417.000000	2.250409 
2416.000000	2.249312 
2415.000000	2.248191 
2414.000000	2.246999 
2413.000000	2.245712 
2412.000000	2.244400 
2411.000000	2.243041 
2410.000000	2.241683 
2409.000000	2.240324 
2408.000000	2.239036 
2407.000000	2.237868 
2406.000000	2.236866 
2405.000000	2.235960 
2404.000000	2.235221 
2403.000000	2.234625 
2402.000000	2.234101 
2401.000000	2.233576 
2400.000000	2.233052 
2399.000000	2.232432 
2398.000000	2.231788 
2397.000000	2.231049 
2396.000000	2.230334 
2395.000000	2.229642 
2394.000000	2.228999 
2393.000000	2.228522 
2392.000000	2.228164 
2391.000000	2.227950 
2390.000000	2.227759 
2389.000000	2.227568 
2388.000000	2.227330 
2387.000000	2.227020 
2386.000000	2.226638 
2385.000000	2.226138 
2384.000000	2.225589 
2383.000000	2.224898 
2382.000000	2.224159 
2381.000000	2.223396 
2380.000000	2.222585 
2379.000000	2.221703 
2378.000000	2.220797 
2377.000000	2.219867 
2376.000000	2.218961 
2375.000000	2.218031 
2374.000000	2.217102 
2373.000000	2.216148 
2372.000000	2.215170 
2371.000000	2.214145 
2370.000000	2.213072 
2369.000000	2.211976 
2368.000000	2.210855 
2367.000000	2.209806 
2366.000000	2.208900 
2365.000000	2.208209 
2364.000000	2.207803 
2363.000000	2.207756 
2362.000000	2.208137 
2361.000000	2.208924 
2360.000000	2.210164 
2359.000000	2.211785 
2358.000000	2.213835 
2357.000000	2.216243 
2356.000000	2.218866 
2355.000000	2.221655 
2354.000000	2.224469 
2353.000000	2.227115 
2352.000000	2.229499 
2351.000000	2.231454 
2350.000000	2.233028 
2349.000000	2.234077 
2348.000000	2.234745 
2347.000000	2.235078 
2346.000000	2.235245 
2345.000000	2.235269 
2344.000000	2.235364 
2343.000000	2.235579 
2342.000000	2.236008 
2341.000000	2.236652 
2340.000000	2.237510 
2339.000000	2.238607 
2338.000000	2.239847 
2337.000000	2.241253 
2336.000000	2.242803 
2335.000000	2.244424 
2334.000000	2.246165 
2333.000000	2.247977 
2332.000000	2.249813 
2331.000000	2.251696 
2330.000000	2.253580 
2329.000000	2.255463 
2328.000000	2.257323 
2327.000000	2.259159 
2326.000000	2.260947 
2325.000000	2.262735 
2324.000000	2.264475 
2323.000000	2.266216 
2322.000000	2.268028 
2321.000000	2.269887 
2320.000000	2.271842 
2319.000000	2.273869 
2318.000000	2.275991 
2317.000000	2.278184 
2316.000000	2.280449 
2315.000000	2.282714 
2314.000000	2.285027 
2313.000000	2.287316 
2312.000000	2.289581 
2311.000000	2.291774 
2310.000000	2.293920 
2309.000000	2.295970 
2308.000000	2.297997 
2307.000000	2.299904 
2306.000000	2.301764 
2305.000000	2.303481 
2304.000000	2.305173 
2303.000000	2.306723 
2302.000000	2.308225 
2301.000000	2.309656 
2300.000000	2.310991 
2299.000000	2.312326 
2298.000000	2.313637 
2297.000000	2.314972 
2296.000000	2.316331 
2295.000000	2.317714 
2294.000000	2.319121 
2293.000000	2.320551 
2292.000000	2.321958 
2291.000000	2.323293 
2290.000000	2.324557 
2289.000000	2.325725 
2288.000000	2.326774 
2287.000000	2.327752 
2286.000000	2.328634 
2285.000000	2.329516 
2284.000000	2.330398 
2283.000000	2.331328 
2282.000000	2.332353 
2281.000000	2.333474 
2280.000000	2.334642 
2279.000000	2.335882 
2278.000000	2.337121 
2277.000000	2.338314 
2276.000000	2.339458 
2275.000000	2.340483 
2274.000000	2.341413 
2273.000000	2.342176 
2272.000000	2.342820 
2271.000000	2.343344 
2270.000000	2.343821 
2269.000000	2.344202 
2268.000000	2.344560 
2267.000000	2.344894 
2266.000000	2.345299 
2265.000000	2.345728 
2264.000000	2.346205 
2263.000000	2.346777 
2262.000000	2.347445 
2261.000000	2.348160 
2260.000000	2.348899 
2259.000000	2.349638 
2258.000000	2.350330 
2257.000000	2.350950 
2256.000000	2.351498 
2255.000000	2.351927 
2254.000000	2.352261 
2253.000000	2.352452 
2252.000000	2.352595 
2251.000000	2.352666 
2250.000000	2.352714 
2249.000000	2.352762 
2248.000000	2.352809 
2247.000000	2.352881 
2246.000000	2.352976 
2245.000000	2.353096 
2244.000000	2.353239 
2243.000000	2.353358 
2242.000000	2.353477 
2241.000000	2.353549 
2240.000000	2.353572 
2239.000000	2.353549 
2238.000000	2.353382 
2237.000000	2.353119 
2236.000000	2.352714 
2235.000000	2.352309 
2234.000000	2.351832 
2233.000000	2.351331 
2232.000000	2.350854 
2231.000000	2.350425 
2230.000000	2.350044 
2229.000000	2.349710 
2228.000000	2.349376 
2227.000000	2.349019 
2226.000000	2.348637 
2225.000000	2.348208 
2224.000000	2.347755 
2223.000000	2.347278 
2222.000000	2.346825 
2221.000000	2.346420 
2220.000000	2.346038 
2219.000000	2.345681 
2218.000000	2.345347 
2217.000000	2.344942 
2216.000000	2.344512 
2215.000000	2.343964 
2214.000000	2.343344 
2213.000000	2.342605 
2212.000000	2.341771 
2211.000000	2.340888 
2210.000000	2.339935 
2209.000000	2.338957 
2208.000000	2.338004 
2207.000000	2.337026 
2206.000000	2.336072 
2205.000000	2.335119 
2204.000000	2.334189 
2203.000000	2.333307 
2202.000000	2.332472 
2201.000000	2.331662 
2200.000000	2.330899 
2199.000000	2.330136 
2198.000000	2.329421 
2197.000000	2.328658 
2196.000000	2.327895 
2195.000000	2.327108 
2194.000000	2.326250 
2193.000000	2.325344 
2192.000000	2.324342 
2191.000000	2.323269 
2190.000000	2.322125 
2189.000000	2.320909 
2188.000000	2.319693 
2187.000000	2.318549 
2186.000000	2.317523 
2185.000000	2.316641 
2184.000000	2.315926 
2183.000000	2.315378 
2182.000000	2.314901 
2181.000000	2.314543 
2180.000000	2.314209 
2179.000000	2.313852 
2178.000000	2.313446 
2177.000000	2.312994 
2176.000000	2.312493 
2175.000000	2.311921 
2174.000000	2.311420 
2173.000000	2.310919 
2172.000000	2.310419 
2171.000000	2.309942 
2170.000000	2.309489 
2169.000000	2.309060 
2168.000000	2.308630 
2167.000000	2.308249 
2166.000000	2.307868 
2165.000000	2.307510 
2164.000000	2.307200 
2163.000000	2.306962 
2162.000000	2.306747 
2161.000000	2.306580 
2160.000000	2.306461 
2159.000000	2.306365 
2158.000000	2.306294 
2157.000000	2.306175 
2156.000000	2.306056 
2155.000000	2.305889 
2154.000000	2.305626 
2153.000000	2.305340 
2152.000000	2.305030 
2151.000000	2.304649 
2150.000000	2.304172 
2149.000000	2.303743 
2148.000000	2.303361 
2147.000000	2.303051 
2146.000000	2.302837 
2145.000000	2.302765 
2144.000000	2.302861 
2143.000000	2.303051 
2142.000000	2.303361 
2141.000000	2.303719 
2140.000000	2.304053 
2139.000000	2.304315 
2138.000000	2.304387 
2137.000000	2.304291 
2136.000000	2.304029 
2135.000000	2.303647 
2134.000000	2.303194 
2133.000000	2.302718 
2132.000000	2.302336 
2131.000000	2.302098 
2130.000000	2.302026 
2129.000000	2.302098 
2128.000000	2.302312 
2127.000000	2.302670 
2126.000000	2.303028 
2125.000000	2.303433 
2124.000000	2.303838 
2123.000000	2.304220 
2122.000000	2.304577 
2121.000000	2.304935 
2120.000000	2.305340 
2119.000000	2.305746 
2118.000000	2.306246 
2117.000000	2.306795 
2116.000000	2.307391 
2115.000000	2.307987 
2114.000000	2.308535 
2113.000000	2.309036 
2112.000000	2.309417 
2111.000000	2.309703 
2110.000000	2.309846 
2109.000000	2.309799 
2108.000000	2.309632 
2107.000000	2.309370 
2106.000000	2.308988 
2105.000000	2.308583 
2104.000000	2.308154 
2103.000000	2.307796 
2102.000000	2.307510 
2101.000000	2.307295 
2100.000000	2.307200 
2099.000000	2.307176 
2098.000000	2.307248 
2097.000000	2.307319 
2096.000000	2.307415 
2095.000000	2.307486 
2094.000000	2.307510 
2093.000000	2.307415 
2092.000000	2.307271 
2091.000000	2.306985 
2090.000000	2.306652 
2089.000000	2.306318 
2088.000000	2.306056 
2087.000000	2.305912 
2086.000000	2.306056 
2085.000000	2.306509 
2084.000000	2.307367 
2083.000000	2.308702 
2082.000000	2.310442 
2081.000000	2.312445 
2080.000000	2.314639 
2079.000000	2.316904 
2078.000000	2.319025 
2077.000000	2.320957 
2076.000000	2.322602 
2075.000000	2.323937 
2074.000000	2.325057 
2073.000000	2.326059 
2072.000000	2.327036 
2071.000000	2.328157 
2070.000000	2.329468 
2069.000000	2.331089 
2068.000000	2.332997 
2067.000000	2.335190 
2066.000000	2.337551 
2065.000000	2.340030 
2064.000000	2.342486 
2063.000000	2.344846 
2062.000000	2.347016 
2061.000000	2.349019 
2060.000000	2.350831 
2059.000000	2.352499 
2058.000000	2.354145 
2057.000000	2.355813 
2056.000000	2.357602 
2055.000000	2.359533 
2054.000000	2.361607 
2053.000000	2.363824 
2052.000000	2.366089 
2051.000000	2.368378 
2050.000000	2.370619 
2049.000000	2.372741 
2048.000000	2.374744 
2047.000000	2.376604 
2046.000000	2.378416 
2045.000000	2.380108 
2044.000000	2.381706 
2043.000000	2.383303 
2042.000000	2.384877 
2041.000000	2.386450 
2040.000000	2.388048 
2039.000000	2.389621 
2038.000000	2.391195 
2037.000000	2.392768 
2036.000000	2.394342 
2035.000000	2.395892 
2034.000000	2.397418 
2033.000000	2.398896 
2032.000000	2.400398 
2031.000000	2.401804 
2030.000000	2.403163 
2029.000000	2.404403 
2028.000000	2.405548 
2027.000000	2.406573 
2026.000000	2.407455 
2025.000000	2.408194 
2024.000000	2.408838 
2023.000000	2.409434 
2022.000000	2.410006 
2021.000000	2.410674 
2020.000000	2.411460 
2019.000000	2.412295 
2018.000000	2.413272 
2017.000000	2.414298 
2016.000000	2.415347 
2015.000000	2.416396 
2014.000000	2.417349 
2013.000000	2.418231 
2012.000000	2.419042 
2011.000000	2.419710 
2010.000000	2.420330 
2009.000000	2.420878 
2008.000000	2.421379 
2007.000000	2.421808 
2006.000000	2.422165 
2005.000000	2.422475 
2004.000000	2.422738 
2003.000000	2.422952 
2002.000000	2.423071 
2001.000000	2.423191 
2000.000000	2.423262 
1999.000000	2.423286 
1998.000000	2.423286 
1997.000000	2.423286 
1996.000000	2.423286 
1995.000000	2.423286 
1994.000000	2.423286 
1993.000000	2.423262 
1992.000000	2.423214 
1991.000000	2.423119 
1990.000000	2.422881 
1989.000000	2.422547 
1988.000000	2.422094 
1987.000000	2.421545 
1986.000000	2.420926 
1985.000000	2.420234 
1984.000000	2.419495 
1983.000000	2.418804 
1982.000000	2.418112 
1981.000000	2.417469 
1980.000000	2.416777 
1979.000000	2.416086 
1978.000000	2.415347 
1977.000000	2.414488 
1976.000000	2.413511 
1975.000000	2.412390 
1974.000000	2.411174 
1973.000000	2.409863 
1972.000000	2.408528 
1971.000000	2.407240 
1970.000000	2.406048 
1969.000000	2.404999 
1968.000000	2.404069 
1967.000000	2.403330 
1966.000000	2.402758 
1965.000000	2.402329 
1964.000000	2.401995 
1963.000000	2.401661 
1962.000000	2.401351 
1961.000000	2.400994 
1960.000000	2.400541 
1959.000000	2.399992 
1958.000000	2.399301 
1957.000000	2.398467 
1956.000000	2.397561 
1955.000000	2.396559 
1954.000000	2.395486 
1953.000000	2.394390 
1952.000000	2.393198 
1951.000000	2.391958 
1950.000000	2.390646 
1949.000000	2.389311 
1948.000000	2.388024 
1947.000000	2.386784 
1946.000000	2.385711 
1945.000000	2.384757 
1944.000000	2.384042 
1943.000000	2.383542 
1942.000000	2.383160 
1941.000000	2.382922 
1940.000000	2.382659 
1939.000000	2.382397 
1938.000000	2.382063 
1937.000000	2.381587 
1936.000000	2.380919 
1935.000000	2.380108 
1934.000000	2.379131 
1933.000000	2.378058 
1932.000000	2.376890 
1931.000000	2.375650 
1930.000000	2.374386 
1929.000000	2.373099 
1928.000000	2.371788 
1927.000000	2.370452 
1926.000000	2.369046 
1925.000000	2.367591 
1924.000000	2.366042 
1923.000000	2.364468 
1922.000000	2.362895 
1921.000000	2.361369 
1920.000000	2.359938 
1919.000000	2.358651 
1918.000000	2.357554 
1917.000000	2.356672 
1916.000000	2.355909 
1915.000000	2.355241 
1914.000000	2.354645 
1913.000000	2.354025 
1912.000000	2.353382 
1911.000000	2.352619 
1910.000000	2.351784 
1909.000000	2.350902 
1908.000000	2.349901 
1907.000000	2.348852 
1906.000000	2.347731 
1905.000000	2.346539 
1904.000000	2.345252 
1903.000000	2.343916 
1902.000000	2.342557 
1901.000000	2.341198 
1900.000000	2.339887 
1899.000000	2.338671 
1898.000000	2.337598 
1897.000000	2.336668 
1896.000000	2.335929 
1895.000000	2.335357 
1894.000000	2.334976 
1893.000000	2.334737 
1892.000000	2.334666 
1891.000000	2.334785 
1890.000000	2.335071 
1889.000000	2.335572 
1888.000000	2.336192 
1887.000000	2.336883 
1886.000000	2.337646 
1885.000000	2.338409 
1884.000000	2.339100 
1883.000000	2.339744 
1882.000000	2.340340 
1881.000000	2.340865 
1880.000000	2.341294 
1879.000000	2.341628 
1878.000000	2.341842 
1877.000000	2.341842 
1876.000000	2.341651 
1875.000000	2.341246 
1874.000000	2.340674 
1873.000000	2.340006 
1872.000000	2.339458 
1871.000000	2.339076 
1870.000000	2.339029 
1869.000000	2.339386 
1868.000000	2.340197 
1867.000000	2.341341 
1866.000000	2.342796 
1865.000000	2.344369 
1864.000000	2.346014 
1863.000000	2.347540 
1862.000000	2.348947 
1861.000000	2.350234 
1860.000000	2.351427 
1859.000000	2.352571 
1858.000000	2.353715 
1857.000000	2.354812 
1856.000000	2.355861 
1855.000000	2.356767 
1854.000000	2.357459 
1853.000000	2.357816 
1852.000000	2.357769 
1851.000000	2.357339 
1850.000000	2.356576 
1849.000000	2.355670 
1848.000000	2.354693 
1847.000000	2.353930 
1846.000000	2.353501 
1845.000000	2.353549 
1844.000000	2.354145 
1843.000000	2.355241 
1842.000000	2.356767 
1841.000000	2.358531 
1840.000000	2.360343 
1839.000000	2.362060 
1838.000000	2.363514 
1837.000000	2.364635 
1836.000000	2.365374 
1835.000000	2.365779 
1834.000000	2.365994 
1833.000000	2.366042 
1832.000000	2.366137 
1831.000000	2.366328 
1830.000000	2.366733 
1829.000000	2.367401 
1828.000000	2.368426 
1827.000000	2.369713 
1826.000000	2.371239 
1825.000000	2.372908 
1824.000000	2.374649 
1823.000000	2.376413 
1822.000000	2.378153 
1821.000000	2.379775 
1820.000000	2.381229 
1819.000000	2.382564 
1818.000000	2.383732 
1817.000000	2.384734 
1816.000000	2.385592 
1815.000000	2.386260 
1814.000000	2.386808 
1813.000000	2.387261 
1812.000000	2.387642 
1811.000000	2.387952 
1810.000000	2.388262 
1809.000000	2.388548 
1808.000000	2.388858 
1807.000000	2.389144 
1806.000000	2.389407 
1805.000000	2.389645 
1804.000000	2.389812 
1803.000000	2.389907 
1802.000000	2.389860 
1801.000000	2.389645 
1800.000000	2.389216 
1799.000000	2.388548 
1798.000000	2.387642 
1797.000000	2.386546 
1796.000000	2.385354 
1795.000000	2.384257 
1794.000000	2.383399 
1793.000000	2.382898 
1792.000000	2.382826 
1791.000000	2.383208 
1790.000000	2.383923 
1789.000000	2.384853 
1788.000000	2.385830 
1787.000000	2.386736 
1786.000000	2.387475 
1785.000000	2.387905 
1784.000000	2.388143 
1783.000000	2.388072 
1782.000000	2.387762 
1781.000000	2.387166 
1780.000000	2.386164 
1779.000000	2.384662 
1778.000000	2.382636 
1777.000000	2.380084 
1776.000000	2.377176 
1775.000000	2.374148 
1774.000000	2.371239 
1773.000000	2.368807 
1772.000000	2.367091 
1771.000000	2.366185 
1770.000000	2.366089 
1769.000000	2.366685 
1768.000000	2.367663 
1767.000000	2.368736 
1766.000000	2.369642 
1765.000000	2.370214 
1764.000000	2.370357 
1763.000000	2.370023 
1762.000000	2.369284 
1761.000000	2.368187 
1760.000000	2.366733 
1759.000000	2.364993 
1758.000000	2.362871 
1757.000000	2.360296 
1756.000000	2.357292 
1755.000000	2.353930 
1754.000000	2.350306 
1753.000000	2.346682 
1752.000000	2.343106 
1751.000000	2.339816 
1750.000000	2.336931 
1749.000000	2.334356 
1748.000000	2.332043 
1747.000000	2.329826 
1746.000000	2.327466 
1745.000000	2.324748 
1744.000000	2.321434 
1743.000000	2.317380 
1742.000000	2.312588 
1741.000000	2.307081 
1740.000000	2.301049 
1739.000000	2.294778 
1738.000000	2.288651 
1737.000000	2.283143 
1736.000000	2.278709 
1735.000000	2.275657 
1734.000000	2.274346 
1733.000000	2.274656 
1732.000000	2.276396 
1731.000000	2.279281 
1730.000000	2.282762 
1729.000000	2.286219 
1728.000000	2.289128 
1727.000000	2.290940 
1726.000000	2.291345 
1725.000000	2.290129 
1724.000000	2.287364 
1723.000000	2.283191 
1722.000000	2.278089 
1721.000000	2.272534 
1720.000000	2.267146 
1719.000000	2.262449 
1718.000000	2.258920 
1717.000000	2.256846 
1716.000000	2.256202 
1715.000000	2.256846 
1714.000000	2.258348 
1713.000000	2.260160 
1712.000000	2.261662 
1711.000000	2.262401 
1710.000000	2.261948 
1709.000000	2.260088 
1708.000000	2.256751 
1707.000000	2.251982 
1706.000000	2.246069 
1705.000000	2.239227 
1704.000000	2.231884 
1703.000000	2.224421 
1702.000000	2.217292 
1701.000000	2.211022 
1700.000000	2.206110 
1699.000000	2.202892 
1698.000000	2.201557 
1697.000000	2.202105 
1696.000000	2.204203 
1695.000000	2.207374 
1694.000000	2.210807 
1693.000000	2.213716 
1692.000000	2.215433 
1691.000000	2.215504 
1690.000000	2.213835 
1689.000000	2.210593 
1688.000000	2.206373 
1687.000000	2.201867 
1686.000000	2.197813 
1685.000000	2.194786 
1684.000000	2.193164 
1683.000000	2.192902 
1682.000000	2.193689 
1681.000000	2.195072 
1680.000000	2.196431 
1679.000000	2.197289 
1678.000000	2.197241 
1677.000000	2.196335 
1676.000000	2.194571 
1675.000000	2.192330 
1674.000000	2.189850 
1673.000000	2.187514 
1672.000000	2.185440 
1671.000000	2.183794 
1670.000000	2.182507 
1669.000000	2.181458 
1668.000000	2.180600 
1667.000000	2.179813 
1666.000000	2.179002 
1665.000000	2.178025 
1664.000000	2.176737 
1663.000000	2.174901 
1662.000000	2.172231 
1661.000000	2.168393 
1660.000000	2.163219 
1659.000000	2.156639 
1658.000000	2.148866 
1657.000000	2.140283 
1656.000000	2.131581 
1655.000000	2.123522 
1654.000000	2.116775 
1653.000000	2.111840 
1652.000000	2.108931 
1651.000000	2.108049 
1650.000000	2.108931 
1649.000000	2.111101 
1648.000000	2.114009 
1647.000000	2.117109 
1646.000000	2.119946 
1645.000000	2.122068 
1644.000000	2.123188 
1643.000000	2.123141 
1642.000000	2.121877 
1641.000000	2.119398 
1640.000000	2.116036 
1639.000000	2.112030 
1638.000000	2.107810 
1637.000000	2.103877 
1636.000000	2.100539 
1635.000000	2.097988 
1634.000000	2.096247 
1633.000000	2.095174 
1632.000000	2.094435 
1631.000000	2.093648 
1630.000000	2.092456 
1629.000000	2.090597 
1628.000000	2.087998 
1627.000000	2.084493 
1626.000000	2.080130 
1625.000000	2.074980 
1624.000000	2.069139 
1623.000000	2.062511 
1622.000000	2.055168 
1621.000000	2.047109 
1620.000000	2.038502 
1619.000000	2.029395 
1618.000000	2.019953 
1617.000000	2.010321 
1616.000000	2.000689 
1615.000000	1.991224 
1614.000000	1.982045 
1613.000000	1.973319 
1612.000000	1.965165 
1611.000000	1.957869 
1610.000000	1.951575 
1609.000000	1.946640 
1608.000000	1.943278 
1607.000000	1.941585 
1606.000000	1.941585 
1605.000000	1.943159 
1604.000000	1.946067 
1603.000000	1.949930 
1602.000000	1.954388 
1601.000000	1.959109 
1600.000000	1.963734 
1599.000000	1.968050 
1598.000000	1.971960 
1597.000000	1.975321 
1596.000000	1.978158 
1595.000000	1.980471 
1594.000000	1.982164 
1593.000000	1.983428 
1592.000000	1.984143 
1591.000000	1.984500 
1590.000000	1.984453 
1589.000000	1.984047 
1588.000000	1.983308 
1587.000000	1.982235 
1586.000000	1.980686 
1585.000000	1.978611 
1584.000000	1.975846 
1583.000000	1.972436 
1582.000000	1.968431 
1581.000000	1.963996 
1580.000000	1.959347 
1579.000000	1.954865 
1578.000000	1.950836 
1577.000000	1.947522 
1576.000000	1.945018 
1575.000000	1.943349 
1574.000000	1.942467 
1573.000000	1.942086 
1572.000000	1.941990 
1571.000000	1.941847 
1570.000000	1.941323 
1569.000000	1.939988 
1568.000000	1.937556 
1567.000000	1.933765 
1566.000000	1.928424 
1565.000000	1.921606 
1564.000000	1.913571 
1563.000000	1.904940 
1562.000000	1.896381 
1561.000000	1.888799 
1560.000000	1.883077 
1559.000000	1.879811 
1558.000000	1.879358 
1557.000000	1.881718 
1556.000000	1.886463 
1555.000000	1.892828 
1554.000000	1.899933 
1553.000000	1.906871 
1552.000000	1.912927 
1551.000000	1.917529 
1550.000000	1.920342 
1549.000000	1.921319 
1548.000000	1.920676 
1547.000000	1.918840 
1546.000000	1.916408 
1545.000000	1.914143 
1544.000000	1.912856 
1543.000000	1.913309 
1542.000000	1.916193 
1541.000000	1.921892 
1540.000000	1.930522 
1539.000000	1.941919 
1538.000000	1.955628 
1537.000000	1.970887 
1536.000000	1.986861 
1535.000000	2.002692 
1534.000000	2.017664 
1533.000000	2.031064 
1532.000000	2.042531 
1531.000000	2.051877 
1530.000000	2.059149 
1529.000000	2.064323 
1528.000000	2.067589 
1527.000000	2.069354 
1526.000000	2.069902 
1525.000000	2.069592 
1524.000000	2.068710 
1523.000000	2.067685 
1522.000000	2.066707 
1521.000000	2.065944 
1520.000000	2.065420 
1519.000000	2.065062 
1518.000000	2.064728 
1517.000000	2.064156 
1516.000000	2.063035 
1515.000000	2.061080 
1514.000000	2.058100 
1513.000000	2.053952 
1512.000000	2.048707 
1511.000000	2.042317 
1510.000000	2.034950 
1509.000000	2.026581 
1508.000000	2.017021 
1507.000000	2.005696 
1506.000000	1.991868 
1505.000000	1.974582 
1504.000000	1.952934 
1503.000000	1.926136 
1502.000000	1.894044 
1501.000000	1.857185 
1500.000000	1.816940 
1499.000000	1.775431 
1498.000000	1.735377 
1497.000000	1.699614 
1496.000000	1.670932 
1495.000000	1.651358 
1494.000000	1.642131 
1493.000000	1.643443 
1492.000000	1.654672 
1491.000000	1.674199 
1490.000000	1.700019 
1489.000000	1.729750 
1488.000000	1.761412 
1487.000000	1.792907 
1486.000000	1.822710 
1485.000000	1.849675 
1484.000000	1.873159 
1483.000000	1.892805 
1482.000000	1.908564 
1481.000000	1.920580 
1480.000000	1.929187 
1479.000000	1.934957 
1478.000000	1.938438 
1477.000000	1.940178 
1476.000000	1.940703 
1475.000000	1.940560 
1474.000000	1.940131 
1473.000000	1.939511 
1472.000000	1.938748 
1471.000000	1.937818 
1470.000000	1.936531 
1469.000000	1.934552 
1468.000000	1.931571 
1467.000000	1.927328 
1466.000000	1.921582 
1465.000000	1.913928 
1464.000000	1.904225 
1463.000000	1.892328 
1462.000000	1.878309 
1461.000000	1.862287 
1460.000000	1.844620 
1459.000000	1.825833 
1458.000000	1.806735 
1457.000000	1.788210 
1456.000000	1.771187 
1455.000000	1.756525 
1454.000000	1.745057 
1453.000000	1.737570 
1452.000000	1.734280 
1451.000000	1.735281 
1450.000000	1.740288 
1449.000000	1.748728 
1448.000000	1.759696 
1447.000000	1.772165 
1446.000000	1.785016 
1445.000000	1.797270 
1444.000000	1.808094 
1443.000000	1.816892 
1442.000000	1.823568 
1441.000000	1.828169 
1440.000000	1.831078 
1439.000000	1.832771 
1438.000000	1.833772 
1437.000000	1.834559 
1436.000000	1.835346 
1435.000000	1.836395 
1434.000000	1.837539 
1433.000000	1.838803 
1432.000000	1.840066 
1431.000000	1.841187 
1430.000000	1.841998 
1429.000000	1.842427 
1428.000000	1.842498 
1427.000000	1.842164 
1426.000000	1.841282 
1425.000000	1.839852 
1424.000000	1.837944 
1423.000000	1.835584 
1422.000000	1.832866 
1421.000000	1.829910 
1420.000000	1.826882 
1419.000000	1.823854 
1418.000000	1.820778 
1417.000000	1.817512 
1416.000000	1.813793 
1415.000000	1.809310 
1414.000000	1.803731 
1413.000000	1.796698 
1412.000000	1.788020 
1411.000000	1.777791 
1410.000000	1.766180 
1409.000000	1.753711 
1408.000000	1.741003 
1407.000000	1.728820 
1406.000000	1.717901 
1405.000000	1.708984 
1404.000000	1.702594 
1403.000000	1.699090 
1402.000000	1.698470 
1401.000000	1.700639 
1400.000000	1.705217 
1399.000000	1.711726 
1398.000000	1.719570 
1397.000000	1.728129 
1396.000000	1.736712 
1395.000000	1.744771 
1394.000000	1.751756 
1393.000000	1.757287 
1392.000000	1.761126 
1391.000000	1.763176 
1390.000000	1.763629 
1389.000000	1.762771 
1388.000000	1.761126 
1387.000000	1.759290 
1386.000000	1.757836 
1385.000000	1.757192 
1384.000000	1.757717 
1383.000000	1.759362 
1382.000000	1.762104 
1381.000000	1.765561 
1380.000000	1.769351 
1379.000000	1.773095 
1378.000000	1.776528 
1377.000000	1.779508 
1376.000000	1.781868 
1375.000000	1.783800 
1374.000000	1.785373 
1373.000000	1.786732 
1372.000000	1.787972 
1371.000000	1.789093 
1370.000000	1.790118 
1369.000000	1.791024 
1368.000000	1.791715 
1367.000000	1.792144 
1366.000000	1.792287 
1365.000000	1.792216 
1364.000000	1.792001 
1363.000000	1.791667 
1362.000000	1.791310 
1361.000000	1.790952 
1360.000000	1.790642 
1359.000000	1.790356 
1358.000000	1.790070 
1357.000000	1.789784 
1356.000000	1.789474 
1355.000000	1.789116 
1354.000000	1.788759 
1353.000000	1.788353 
1352.000000	1.787996 
1351.000000	1.787614 
1350.000000	1.787257 
1349.000000	1.786923 
1348.000000	1.786589 
1347.000000	1.786231 
1346.000000	1.785898 
1345.000000	1.785612 
1344.000000	1.785349 
1343.000000	1.785278 
1342.000000	1.785469 
1341.000000	1.786065 
1340.000000	1.787137 
1339.000000	1.788735 
1338.000000	1.790857 
1337.000000	1.793551 
1336.000000	1.796674 
1335.000000	1.800107 
1334.000000	1.803660 
1333.000000	1.807188 
1332.000000	1.810526 
1331.000000	1.813578 
1330.000000	1.816272 
1329.000000	1.818561 
1328.000000	1.820492 
1327.000000	1.822113 
1326.000000	1.823401 
1325.000000	1.824522 
1324.000000	1.825380 
1323.000000	1.826095 
1322.000000	1.826596 
1321.000000	1.827001 
1320.000000	1.827287 
1319.000000	1.827502 
1318.000000	1.827645 
1317.000000	1.827764 
1316.000000	1.827859 
1315.000000	1.827955 
1314.000000	1.828026 
1313.000000	1.828026 
1312.000000	1.827955 
1311.000000	1.827812 
1310.000000	1.827597 
1309.000000	1.827359 
1308.000000	1.827096 
1307.000000	1.826834 
1306.000000	1.826691 
1305.000000	1.826643 
1304.000000	1.826715 
1303.000000	1.826953 
1302.000000	1.827311 
1301.000000	1.827716 
1300.000000	1.828193 
1299.000000	1.828694 
1298.000000	1.829195 
1297.000000	1.829624 
1296.000000	1.829934 
1295.000000	1.830220 
1294.000000	1.830363 
1293.000000	1.830410 
1292.000000	1.830339 
1291.000000	1.830220 
1290.000000	1.830029 
1289.000000	1.829767 
1288.000000	1.829409 
1287.000000	1.829004 
1286.000000	1.828479 
1285.000000	1.827836 
1284.000000	1.826953 
1283.000000	1.825833 
1282.000000	1.824450 
1281.000000	1.822733 
1280.000000	1.820611 
1279.000000	1.818060 
1278.000000	1.815032 
1277.000000	1.811480 
1276.000000	1.807188 
1275.000000	1.802182 
1274.000000	1.796317 
1273.000000	1.789474 
1272.000000	1.781511 
1271.000000	1.772475 
1270.000000	1.762437 
1269.000000	1.751589 
1268.000000	1.740312 
1267.000000	1.729011 
1266.000000	1.718354 
1265.000000	1.708912 
1264.000000	1.701402 
1263.000000	1.696252 
1262.000000	1.693916 
1261.000000	1.694583 
1260.000000	1.698184 
1259.000000	1.704382 
1258.000000	1.712727 
1257.000000	1.722598 
1256.000000	1.733350 
1255.000000	1.744341 
1254.000000	1.755023 
1253.000000	1.764988 
1252.000000	1.773977 
1251.000000	1.781821 
1250.000000	1.788473 
1249.000000	1.793980 
1248.000000	1.798462 
1247.000000	1.802015 
1246.000000	1.804828 
1245.000000	1.806974 
1244.000000	1.808571 
1243.000000	1.809716 
1242.000000	1.810574 
1241.000000	1.811099 
1240.000000	1.811385 
1239.000000	1.811480 
1238.000000	1.811408 
1237.000000	1.811099 
1236.000000	1.810598 
1235.000000	1.809883 
1234.000000	1.808953 
1233.000000	1.807785 
1232.000000	1.806402 
1231.000000	1.804828 
1230.000000	1.803088 
1229.000000	1.801204 
1228.000000	1.799178 
1227.000000	1.797008 
1226.000000	1.794719 
1225.000000	1.792263 
1224.000000	1.789522 
1223.000000	1.786470 
1222.000000	1.783084 
1221.000000	1.779317 
1220.000000	1.775193 
1219.000000	1.770710 
1218.000000	1.765990 
1217.000000	1.761150 
1216.000000	1.756286 
1215.000000	1.751518 
1214.000000	1.746964 
1213.000000	1.742649 
1212.000000	1.738691 
1211.000000	1.735091 
1210.000000	1.731920 
1209.000000	1.729154 
1208.000000	1.726841 
1207.000000	1.724958 
1206.000000	1.723575 
1205.000000	1.722574 
1204.000000	1.721978 
1203.000000	1.721692 
1202.000000	1.721668 
1201.000000	1.721787 
1200.000000	1.721978 
1199.000000	1.722145 
1198.000000	1.722240 
1197.000000	1.722192 
1196.000000	1.721978 
1195.000000	1.721572 
1194.000000	1.720976 
1193.000000	1.720166 
1192.000000	1.719188 
1191.000000	1.717972 
1190.000000	1.716613 
1189.000000	1.715016 
1188.000000	1.713156 
1187.000000	1.711058 
1186.000000	1.708650 
1185.000000	1.706027 
1184.000000	1.703166 
1183.000000	1.700115 
1182.000000	1.696968 
1181.000000	1.693725 
1180.000000	1.690530 
1179.000000	1.687407 
1178.000000	1.684427 
1177.000000	1.681518 
1176.000000	1.678705 
1175.000000	1.675891 
1174.000000	1.672983 
1173.000000	1.669859 
1172.000000	1.666474 
1171.000000	1.662707 
1170.000000	1.658558 
1169.000000	1.654052 
1168.000000	1.649236 
1167.000000	1.644182 
1166.000000	1.639056 
1165.000000	1.633834 
1164.000000	1.628756 
1163.000000	1.623868 
1162.000000	1.619243 
1161.000000	1.615023 
1160.000000	1.611208 
1159.000000	1.607823 
1158.000000	1.604866 
1157.000000	1.602339 
1156.000000	1.600146 
1155.000000	1.598262 
1154.000000	1.596593 
1153.000000	1.595091 
1152.000000	1.593637 
1151.000000	1.592159 
1150.000000	1.590585 
1149.000000	1.588892 
1148.000000	1.587080 
1147.000000	1.585149 
1146.000000	1.583170 
1145.000000	1.581120 
1144.000000	1.579022 
1143.000000	1.576924 
1142.000000	1.574754 
1141.000000	1.572465 
1140.000000	1.569962 
1139.000000	1.567292 
1138.000000	1.564335 
1137.000000	1.561117 
1136.000000	1.557564 
1135.000000	1.553773 
1134.000000	1.549720 
1133.000000	1.545453 
1132.000000	1.541042 
1131.000000	1.536560 
1130.000000	1.531982 
1129.000000	1.527380 
1128.000000	1.522707 
1127.000000	1.517963 
1126.000000	1.513147 
1125.000000	1.508212 
1124.000000	1.503157 
1123.000000	1.497983 
1122.000000	1.492714 
1121.000000	1.487326 
1120.000000	1.481795 
1119.000000	1.476216 
1118.000000	1.470589 
1117.000000	1.464915 
1116.000000	1.459217 
1115.000000	1.453590 
1114.000000	1.448082 
1113.000000	1.442694 
1112.000000	1.437568 
1111.000000	1.432824 
1110.000000	1.428484 
1109.000000	1.424646 
1108.000000	1.421356 
1107.000000	1.418638 
1106.000000	1.416444 
1105.000000	1.414680 
1104.000000	1.413297 
1103.000000	1.412177 
1102.000000	1.411199 
1101.000000	1.410341 
1100.000000	1.409554 
1099.000000	1.408815 
1098.000000	1.408171 
1097.000000	1.407647 
1096.000000	1.407265 
1095.000000	1.407074 
1094.000000	1.407074 
1093.000000	1.407241 
1092.000000	1.407575 
1091.000000	1.408052 
1090.000000	1.408648 
1089.000000	1.409292 
1088.000000	1.410055 
1087.000000	1.410841 
1086.000000	1.411557 
1085.000000	1.412200 
1084.000000	1.412653 
1083.000000	1.412987 
1082.000000	1.413178 
1081.000000	1.413249 
1080.000000	1.413226 
1079.000000	1.413154 
1078.000000	1.413154 
1077.000000	1.413273 
1076.000000	1.413536 
1075.000000	1.413989 
1074.000000	1.414561 
1073.000000	1.415324 
1072.000000	1.416254 
1071.000000	1.417207 
1070.000000	1.418256 
1069.000000	1.419258 
1068.000000	1.420164 
1067.000000	1.420855 
1066.000000	1.421260 
1065.000000	1.421260 
1064.000000	1.420569 
1063.000000	1.418995 
1062.000000	1.416206 
1061.000000	1.411747 
1060.000000	1.405239 
1059.000000	1.396393 
1058.000000	1.385021 
1057.000000	1.371383 
1056.000000	1.355981 
1055.000000	1.339578 
1054.000000	1.323437 
1053.000000	1.308846 
1052.000000	1.297140 
1051.000000	1.289272 
1050.000000	1.286005 
1049.000000	1.287341 
1048.000000	1.292943 
1047.000000	1.301956 
1046.000000	1.313114 
1045.000000	1.325154 
1044.000000	1.336884 
1043.000000	1.347279 
1042.000000	1.355791 
1041.000000	1.362085 
1040.000000	1.366257 
1039.000000	1.368570 
1038.000000	1.369452 
1037.000000	1.369237 
1036.000000	1.368331 
1035.000000	1.366996 
1034.000000	1.365399 
1033.000000	1.363658 
1032.000000	1.361870 
1031.000000	1.360034 
1030.000000	1.358199 
1029.000000	1.356315 
1028.000000	1.354479 
1027.000000	1.352691 
1026.000000	1.350998 
1025.000000	1.349401 
1024.000000	1.347994 
1023.000000	1.346921 
1022.000000	1.346158 
1021.000000	1.345872 
1020.000000	1.346039 
1019.000000	1.346731 
1018.000000	1.347970 
1017.000000	1.349735 
1016.000000	1.351833 
1015.000000	1.354265 
1014.000000	1.356911 
1013.000000	1.359653 
1012.000000	1.362299 
1011.000000	1.364850 
1010.000000	1.367235 
1009.000000	1.369476 
1008.000000	1.371574 
1007.000000	1.373505 
1006.000000	1.375269 
1005.000000	1.376914 
1004.000000	1.378464 
1003.000000	1.379895 
1002.000000	1.381111 
1001.000000	1.382207 
1000.000000	1.383018 
999.000000	 1.383566 
998.000000	 1.383805 
997.000000	 1.383781 
996.000000	 1.383423 
995.000000	 1.382756 
994.000000	 1.381802 
993.000000	 1.380562 
992.000000	 1.379132 
991.000000	 1.377487 
990.000000	 1.375746 
989.000000	 1.373910 
988.000000	 1.372027 
987.000000	 1.370191 
986.000000	 1.368451 
985.000000	 1.366782 
984.000000	 1.365184 
983.000000	 1.363635 
982.000000	 1.362109 
981.000000	 1.360464 
980.000000	 1.358723 
979.000000	 1.356816 
978.000000	 1.354718 
977.000000	 1.352453 
976.000000	 1.349925 
975.000000	 1.347303 
974.000000	 1.344561 
973.000000	 1.341700 
972.000000	 1.338791 
971.000000	 1.335859 
970.000000	 1.332902 
969.000000	 1.329946 
968.000000	 1.326918 
967.000000	 1.323866 
966.000000	 1.320719 
965.000000	 1.317477 
964.000000	 1.314139 
963.000000	 1.310706 
962.000000	 1.307177 
961.000000	 1.303672 
960.000000	 1.300215 
959.000000	 1.296877 
958.000000	 1.293706 
957.000000	 1.290655 
956.000000	 1.287746 
955.000000	 1.284909 
954.000000	 1.282072 
953.000000	 1.279211 
952.000000	 1.276254 
951.000000	 1.273202 
950.000000	 1.270055 
949.000000	 1.266980 
948.000000	 1.263976 
947.000000	 1.261115 
946.000000	 1.258420 
945.000000	 1.255965 
944.000000	 1.253747 
943.000000	 1.251697 
942.000000	 1.249766 
941.000000	 1.247930 
940.000000	 1.246118 
939.000000	 1.244282 
938.000000	 1.242446 
937.000000	 1.240515 
936.000000	 1.238489 
935.000000	 1.236367 
934.000000	 1.234102 
933.000000	 1.231741 
932.000000	 1.229286 
931.000000	 1.226758 
930.000000	 1.224255 
929.000000	 1.221847 
928.000000	 1.219463 
927.000000	 1.217198 
926.000000	 1.215028 
925.000000	 1.213002 
924.000000	 1.211023 
923.000000	 1.209068 
922.000000	 1.207137 
921.000000	 1.205158 
920.000000	 1.202988 
919.000000	 1.200604 
918.000000	 1.197910 
917.000000	 1.194858 
916.000000	 1.191401 
915.000000	 1.187562 
914.000000	 1.183390 
913.000000	 1.179003 
912.000000	 1.174569 
911.000000	 1.170206 
910.000000	 1.166009 
909.000000	 1.162147 
908.000000	 1.158642 
907.000000	 1.155519 
906.000000	 1.152777 
905.000000	 1.150321 
904.000000	 1.148128 
903.000000	 1.146101 
902.000000	 1.144194 
901.000000	 1.142358 
900.000000	 1.140618 
899.000000	 1.138901 
898.000000	 1.137185 
897.000000	 1.135444 
896.000000	 1.133680 
895.000000	 1.131820 
894.000000	 1.129770 
893.000000	 1.127505 
892.000000	 1.124906 
891.000000	 1.121807 
890.000000	 1.118016 
889.000000	 1.113486 
888.000000	 1.108002 
887.000000	 1.101541 
886.000000	 1.094055 
885.000000	 1.085686 
884.000000	 1.076602 
883.000000	 1.067090 
882.000000	 1.057505 
881.000000	 1.048278 
880.000000	 1.039791 
879.000000	 1.032376 
878.000000	 1.026344 
877.000000	 1.021909 
876.000000	 1.019191 
875.000000	 1.018214 
874.000000	 1.018977 
873.000000	 1.021313 
872.000000	 1.025056 
871.000000	 1.029992 
870.000000	 1.035785 
869.000000	 1.042127 
868.000000	 1.048707 
867.000000	 1.055216 
866.000000	 1.061272 
865.000000	 1.066732 
864.000000	 1.071453 
863.000000	 1.075267 
862.000000	 1.078200 
861.000000	 1.080250 
860.000000	 1.081538 
859.000000	 1.082134 
858.000000	 1.082229 
857.000000	 1.081824 
856.000000	 1.081061 
855.000000	 1.080060 
854.000000	 1.078891 
853.000000	 1.077604 
852.000000	 1.076292 
851.000000	 1.074934 
850.000000	 1.073646 
849.000000	 1.072335 
848.000000	 1.071000 
847.000000	 1.069521 
846.000000	 1.067852 
845.000000	 1.065897 
844.000000	 1.063489 
843.000000	 1.060628 
842.000000	 1.057100 
841.000000	 1.052832 
840.000000	 1.047635 
839.000000	 1.041316 
838.000000	 1.033687 
837.000000	 1.024508 
836.000000	 1.013517 
835.000000	 1.000595 
834.000000	 0.985646 
833.000000	 0.968694 
832.000000	 0.950098 
831.000000	 0.930356 
830.000000	 0.910210 
829.000000	 0.890636 
828.000000	 0.872731 
827.000000	 0.857424 
826.000000	 0.845694 
825.000000	 0.838184 
824.000000	 0.835227 
823.000000	 0.836706 
822.000000	 0.842142 
821.000000	 0.850749 
820.000000	 0.861573 
819.000000	 0.873517 
818.000000	 0.885605 
817.000000	 0.896978 
816.000000	 0.907039 
815.000000	 0.915431 
814.000000	 0.922060 
813.000000	 0.927042 
812.000000	 0.930547 
811.000000	 0.932884 
810.000000	 0.934362 
809.000000	 0.935077 
808.000000	 0.935339 
807.000000	 0.935268 
806.000000	 0.934934 
805.000000	 0.934386 
804.000000	 0.933837 
803.000000	 0.933313 
802.000000	 0.932931 
801.000000	 0.932765 
800.000000	 0.932955 
799.000000	 0.933575 
798.000000	 0.934600 
797.000000	 0.936079 
796.000000	 0.938034 
795.000000	 0.940370 
794.000000	 0.943040 
793.000000	 0.945949 
792.000000	 0.949048 
791.000000	 0.952172 
790.000000	 0.955271 
789.000000	 0.958299 
788.000000	 0.961089 
787.000000	 0.963568 
786.000000	 0.965714 
785.000000	 0.967502 
784.000000	 0.968813 
783.000000	 0.969767 
782.000000	 0.970363 
781.000000	 0.970578 
780.000000	 0.970506 
779.000000	 0.970149 
778.000000	 0.969529 
777.000000	 0.968718 
776.000000	 0.967741 
775.000000	 0.966620 
774.000000	 0.965428 
773.000000	 0.964188 
772.000000	 0.962996 
771.000000	 0.961899 
770.000000	 0.960850 
769.000000	 0.959897 
768.000000	 0.958943 
767.000000	 0.958037 
766.000000	 0.957107 
765.000000	 0.956153 
764.000000	 0.955152 
763.000000	 0.954103 
762.000000	 0.953078 
761.000000	 0.952076 
760.000000	 0.951123 
759.000000	 0.950264 
758.000000	 0.949525 
757.000000	 0.948834 
756.000000	 0.948166 
755.000000	 0.947499 
754.000000	 0.946712 
753.000000	 0.945806 
752.000000	 0.944757 
751.000000	 0.943541 
750.000000	 0.942182 
749.000000	 0.940680 
748.000000	 0.939154 
747.000000	 0.937581 
746.000000	 0.935959 
745.000000	 0.934386 
744.000000	 0.932788 
743.000000	 0.931096 
742.000000	 0.929307 
741.000000	 0.927352 
740.000000	 0.925230 
739.000000	 0.922894 
738.000000	 0.920391 
737.000000	 0.917696 
736.000000	 0.914883 
735.000000	 0.912022 
734.000000	 0.909090 
733.000000	 0.906229 
732.000000	 0.903391 
731.000000	 0.900602 
730.000000	 0.897836 
729.000000	 0.895142 
728.000000	 0.892448 
727.000000	 0.889706 
726.000000	 0.886964 
725.000000	 0.884222 
724.000000	 0.881457 
723.000000	 0.878691 
722.000000	 0.875902 
721.000000	 0.873160 
720.000000	 0.870466 
719.000000	 0.867819 
718.000000	 0.865221 
717.000000	 0.862669 
716.000000	 0.860071 
715.000000	 0.857400 
714.000000	 0.854635 
713.000000	 0.851750 
712.000000	 0.848770 
711.000000	 0.845646 
710.000000	 0.842428 
709.000000	 0.839161 
708.000000	 0.835824 
707.000000	 0.832462 
706.000000	 0.829076 
705.000000	 0.825619 
704.000000	 0.822091 
703.000000	 0.818443 
702.000000	 0.814628 
701.000000	 0.810575 
700.000000	 0.806188 
699.000000	 0.801420 
698.000000	 0.796127 
697.000000	 0.790309 
696.000000	 0.783824 
695.000000	 0.776720 
694.000000	 0.769090 
693.000000	 0.761079 
692.000000	 0.752997 
691.000000	 0.745153 
690.000000	 0.737905 
689.000000	 0.731635 
688.000000	 0.726604 
687.000000	 0.723004 
686.000000	 0.720858 
685.000000	 0.719976 
684.000000	 0.720071 
683.000000	 0.720906 
682.000000	 0.722026 
681.000000	 0.723123 
680.000000	 0.723981 
679.000000	 0.724363 
678.000000	 0.724291 
677.000000	 0.723767 
676.000000	 0.722885 
675.000000	 0.721669 
674.000000	 0.720262 
673.000000	 0.718688 
672.000000	 0.717067 
671.000000	 0.715255 
670.000000	 0.713396 
669.000000	 0.711417 
668.000000	 0.709295 
667.000000	 0.707101 
666.000000	 0.704765 
665.000000	 0.702309 
664.000000	 0.699830 
663.000000	 0.697302 
662.000000	 0.694775 
661.000000	 0.692319 
660.000000	 0.689864 
659.000000	 0.687456 
658.000000	 0.685071 
657.000000	 0.682687 
656.000000	 0.680303 
655.000000	 0.677847 
654.000000	 0.675296 
653.000000	 0.672650 
652.000000	 0.669884 
651.000000	 0.667047 
650.000000	 0.664114 
649.000000	 0.661158 
648.000000	 0.658249 
647.000000	 0.655364 
646.000000	 0.652623 
645.000000	 0.650000 
644.000000	 0.647497 
643.000000	 0.645136 
642.000000	 0.642871 
641.000000	 0.640678 
640.000000	 0.638437 
639.000000	 0.636219 
638.000000	 0.633907 
637.000000	 0.631475 
636.000000	 0.628924 
635.000000	 0.626301 
634.000000	 0.623607 
633.000000	 0.620913 
632.000000	 0.618243 
631.000000	 0.615596 
630.000000	 0.613069 
629.000000	 0.610542 
628.000000	 0.608062 
627.000000	 0.605583 
626.000000	 0.603079 
625.000000	 0.600481 
624.000000	 0.597715 
623.000000	 0.594854 
622.000000	 0.591826 
621.000000	 0.588607 
620.000000	 0.585150 
619.000000	 0.581479 
618.000000	 0.577616 
617.000000	 0.573515 
616.000000	 0.569200 
615.000000	 0.564646 
614.000000	 0.559949 
613.000000	 0.555086 
612.000000	 0.550103 
611.000000	 0.545096 
610.000000	 0.540184 
609.000000	 0.535464 
608.000000	 0.531077 
607.000000	 0.527215 
606.000000	 0.523996 
605.000000	 0.521469 
604.000000	 0.519704 
603.000000	 0.518584 
602.000000	 0.518035 
601.000000	 0.517821 
600.000000	 0.517797 
599.000000	 0.517797 
598.000000	 0.517630 
597.000000	 0.517201 
596.000000	 0.516581 
595.000000	 0.515651 
594.000000	 0.514578 
593.000000	 0.513315 
592.000000	 0.511932 
591.000000	 0.510525 
590.000000	 0.509071 
589.000000	 0.507569 
588.000000	 0.506138 
587.000000	 0.504708 
586.000000	 0.503325 
585.000000	 0.502061 
584.000000	 0.500893 
583.000000	 0.499796 
582.000000	 0.498819 
581.000000	 0.497937 
580.000000	 0.497126 
579.000000	 0.496292 
578.000000	 0.495481 
577.000000	 0.494694 
576.000000	 0.493884 
575.000000	 0.493049 
574.000000	 0.492215 
573.000000	 0.491380 
572.000000	 0.490546 
571.000000	 0.489616 
570.000000	 0.488686 
569.000000	 0.487637 
568.000000	 0.486469 
567.000000	 0.485181 
566.000000	 0.483775 
565.000000	 0.482249 
564.000000	 0.480628 
563.000000	 0.478911 
562.000000	 0.477147 
561.000000	 0.475358 
560.000000	 0.473546 
559.000000	 0.471711 
558.000000	 0.469923 
557.000000	 0.468158 
556.000000	 0.466442 
555.000000	 0.464797 
554.000000	 0.463271 
553.000000	 0.461792 
552.000000	 0.460410 
551.000000	 0.459098 
550.000000	 0.457811 
549.000000	 0.456547 
548.000000	 0.455212 
547.000000	 0.453782 
546.000000	 0.452208 
545.000000	 0.450444 
544.000000	 0.448417 
543.000000	 0.446248 
542.000000	 0.443887 
541.000000	 0.441479 
540.000000	 0.438976 
539.000000	 0.436496 
538.000000	 0.434136 
537.000000	 0.431847 
536.000000	 0.429630 
535.000000	 0.427508 
534.000000	 0.425457 
533.000000	 0.423431 
532.000000	 0.421404 
531.000000	 0.419402 
530.000000	 0.417327 
529.000000	 0.415253 
528.000000	 0.413179 
527.000000	 0.411081 
526.000000	 0.408959 
525.000000	 0.406837 
524.000000	 0.404691 
523.000000	 0.402545 
522.000000	 0.400328 
521.000000	 0.398015 
520.000000	 0.395584 
519.000000	 0.393104 
518.000000	 0.390553 
517.000000	 0.387978 
516.000000	 0.385451 
515.000000	 0.382971 
514.000000	 0.380587 
513.000000	 0.378322 
512.000000	 0.376176 
511.000000	 0.374102 
510.000000	 0.372052 
509.000000	 0.369977 
508.000000	 0.367760 
507.000000	 0.365400 
506.000000	 0.362825 
505.000000	 0.359988 
504.000000	 0.356912 
503.000000	 0.353598 
502.000000	 0.350093 
501.000000	 0.346422 
500.000000	 0.342607 
499.000000	 0.338697 
498.000000	 0.334739 
497.000000	 0.330781 
496.000000	 0.326848 
495.000000	 0.323033 
494.000000	 0.319337 
493.000000	 0.315809 
492.000000	 0.312447 
491.000000	 0.309181 
490.000000	 0.306034 
489.000000	 0.302886 
488.000000	 0.299692 
487.000000	 0.296401 
486.000000	 0.292968 
485.000000	 0.289416 
484.000000	 0.285792 
483.000000	 0.282120 
482.000000	 0.278496 
481.000000	 0.274968 
480.000000	 0.271558 
479.000000	 0.268268 
478.000000	 0.265073 
477.000000	 0.261950 
476.000000	 0.258874 
475.000000	 0.255775 
474.000000	 0.252604 
473.000000	 0.249361 
472.000000	 0.246047 
471.000000	 0.242686 
470.000000	 0.239300 
469.000000	 0.235891 
468.000000	 0.232505 
467.000000	 0.229120 
466.000000	 0.225782 
465.000000	 0.222539 
464.000000	 0.219345 
463.000000	 0.216197 
462.000000	 0.213074 
461.000000	 0.210022 
460.000000	 0.207042 
459.000000	 0.204014 
458.000000	 0.201034 
457.000000	 0.198030 
456.000000	 0.194978 
455.000000	 0.191831 
454.000000	 0.188565 
453.000000	 0.185179 
452.000000	 0.181722 
451.000000	 0.178241 
450.000000	 0.174784 
449.000000	 0.171470 
448.000000	 0.168371 
447.000000	 0.165486 
446.000000	 0.162887 
445.000000	 0.160455 
444.000000	 0.158190 
443.000000	 0.155901 
442.000000	 0.153422 
441.000000	 0.150680 
440.000000	 0.147604 
439.000000	 0.144219 
438.000000	 0.140571 
437.000000	 0.136804 
436.000000	 0.133013 
435.000000	 0.129342 
434.000000	 0.125885 
433.000000	 0.122737 
432.000000	 0.119805 
431.000000	 0.117063 
430.000000	 0.114417 
429.000000	 0.111770 
428.000000	 0.109052 
427.000000	 0.106191 
426.000000	 0.103282 
425.000000	 0.100326 
424.000000	 0.097417 
423.000000	 0.094676 
422.000000	 0.092148 
421.000000	 0.089812 
420.000000	 0.087666 
419.000000	 0.085544 
418.000000	 0.083351 
417.000000	 0.080943 
416.000000	 0.078153 
415.000000	 0.074934 
414.000000	 0.071263 
413.000000	 0.067210 
412.000000	 0.062894 
411.000000	 0.058531 
410.000000	 0.054240 
409.000000	 0.050234 
408.000000	 0.046682 
407.000000	 0.043630 
406.000000	 0.041222 
405.000000	 0.039362 
404.000000	 0.038051 
403.000000	 0.037217 
402.000000	 0.036692 
401.000000	 0.036454 
400.000000	 0.036287 
399.000000	 0.036191 
398.000000	 0.035977 
397.000000	 0.035643 
396.000000	 0.035095 
395.000000	 0.034284 
394.000000	 0.033235 
393.000000	 0.031900 
392.000000	 0.030326 
391.000000	 0.028586 
390.000000	 0.026726 
389.000000	 0.024843 
388.000000	 0.023007 
387.000000	 0.021290 
386.000000	 0.019764 
385.000000	 0.018405 
384.000000	 0.017261 
383.000000	 0.016260 
382.000000	 0.015425 
381.000000	 0.014591 
380.000000	 0.013804 
379.000000	 0.013017 
378.000000	 0.012111 
377.000000	 0.011157 
376.000000	 0.010156 
375.000000	 0.009107 
374.000000	 0.008106 
373.000000	 0.007081 
372.000000	 0.006151 
371.000000	 0.005340 
370.000000	 0.004696 

