PE IR       SPECTRUM    SPECTRUM    ASCII       PEDS        1.60        
  -1
LP061C~1.ASC
17/05/19
16:12:42.00
17/05/19
16:12:42.00
tln
$LPE454_e0123$<ebV0>[-23.3,12.1,10.0,0.0,27,1,0]
370.000000
64









2002,4.07    
MIRTGS : RIGHTBACK : INTERNAL 2
MIR : ON : INTERNAL 2
OPTKBR

0.200000
8
8.000000
FILLER
SINGLE
SPECTRUM
UNLOCKED 256

DOUBLE

COMBINED
1
0
0


1.000000
BACKG


1
0
TRUE
51149
0
LEFT NOT FITTED RIGHT NOT FITTED 0
NONE
NONE
15600
12.000000
4.427000
51148
TRUE
1 0 8 72 0 0 0 0 

15798.010000






#HDR
-1
-1
#GR
CM-1
EGY
0.00002384185791015625
0.0
5000.000000
-1.000000
4631
8
2.425861
0.007486
#DATA
5000.000000	0.769782 
4999.000000	0.770759 
4998.000000	0.771641 
4997.000000	0.772428 
4996.000000	0.773096 
4995.000000	0.773644 
4994.000000	0.774025 
4993.000000	0.774312 
4992.000000	0.774478 
4991.000000	0.774621 
4990.000000	0.774717 
4989.000000	0.774812 
4988.000000	0.774955 
4987.000000	0.775122 
4986.000000	0.775337 
4985.000000	0.775599 
4984.000000	0.775933 
4983.000000	0.776362 
4982.000000	0.776863 
4981.000000	0.777506 
4980.000000	0.778222 
4979.000000	0.779032 
4978.000000	0.779867 
4977.000000	0.780725 
4976.000000	0.781536 
4975.000000	0.782251 
4974.000000	0.782847 
4973.000000	0.783276 
4972.000000	0.783562 
4971.000000	0.783705 
4970.000000	0.783777 
4969.000000	0.783848 
4968.000000	0.783944 
4967.000000	0.784158 
4966.000000	0.784587 
4965.000000	0.785207 
4964.000000	0.786018 
4963.000000	0.786972 
4962.000000	0.787949 
4961.000000	0.788927 
4960.000000	0.789785 
4959.000000	0.790429 
4958.000000	0.790762 
4957.000000	0.790834 
4956.000000	0.790667 
4955.000000	0.790262 
4954.000000	0.789761 
4953.000000	0.789284 
4952.000000	0.788927 
4951.000000	0.788760 
4950.000000	0.788831 
4949.000000	0.789189 
4948.000000	0.789785 
4947.000000	0.790619 
4946.000000	0.791573 
4945.000000	0.792598 
4944.000000	0.793623 
4943.000000	0.794577 
4942.000000	0.795483 
4941.000000	0.796222 
4940.000000	0.796866 
4939.000000	0.797414 
4938.000000	0.797867 
4937.000000	0.798201 
4936.000000	0.798463 
4935.000000	0.798630 
4934.000000	0.798702 
4933.000000	0.798726 
4932.000000	0.798702 
4931.000000	0.798702 
4930.000000	0.798726 
4929.000000	0.798845 
4928.000000	0.799059 
4927.000000	0.799393 
4926.000000	0.799846 
4925.000000	0.800418 
4924.000000	0.801062 
4923.000000	0.801706 
4922.000000	0.802326 
4921.000000	0.802898 
4920.000000	0.803399 
4919.000000	0.803852 
4918.000000	0.804281 
4917.000000	0.804710 
4916.000000	0.805068 
4915.000000	0.805449 
4914.000000	0.805830 
4913.000000	0.806236 
4912.000000	0.806641 
4911.000000	0.807023 
4910.000000	0.807356 
4909.000000	0.807666 
4908.000000	0.807976 
4907.000000	0.808286 
4906.000000	0.808644 
4905.000000	0.809049 
4904.000000	0.809550 
4903.000000	0.810098 
4902.000000	0.810742 
4901.000000	0.811457 
4900.000000	0.812196 
4899.000000	0.812983 
4898.000000	0.813746 
4897.000000	0.814461 
4896.000000	0.815010 
4895.000000	0.815463 
4894.000000	0.815749 
4893.000000	0.815844 
4892.000000	0.815820 
4891.000000	0.815677 
4890.000000	0.815510 
4889.000000	0.815367 
4888.000000	0.815296 
4887.000000	0.815367 
4886.000000	0.815653 
4885.000000	0.816106 
4884.000000	0.816750 
4883.000000	0.817537 
4882.000000	0.818419 
4881.000000	0.819349 
4880.000000	0.820350 
4879.000000	0.821375 
4878.000000	0.822424 
4877.000000	0.823521 
4876.000000	0.824666 
4875.000000	0.825858 
4874.000000	0.827050 
4873.000000	0.828242 
4872.000000	0.829339 
4871.000000	0.830388 
4870.000000	0.831270 
4869.000000	0.831961 
4868.000000	0.832486 
4867.000000	0.832796 
4866.000000	0.832939 
4865.000000	0.832939 
4864.000000	0.832843 
4863.000000	0.832724 
4862.000000	0.832605 
4861.000000	0.832533 
4860.000000	0.832557 
4859.000000	0.832724 
4858.000000	0.833010 
4857.000000	0.833415 
4856.000000	0.833892 
4855.000000	0.834417 
4854.000000	0.834965 
4853.000000	0.835514 
4852.000000	0.836038 
4851.000000	0.836515 
4850.000000	0.836992 
4849.000000	0.837516 
4848.000000	0.838160 
4847.000000	0.838899 
4846.000000	0.839781 
4845.000000	0.840783 
4844.000000	0.841879 
4843.000000	0.843048 
4842.000000	0.844192 
4841.000000	0.845289 
4840.000000	0.846290 
4839.000000	0.847196 
4838.000000	0.848031 
4837.000000	0.848865 
4836.000000	0.849676 
4835.000000	0.850534 
4834.000000	0.851464 
4833.000000	0.852370 
4832.000000	0.853228 
4831.000000	0.854015 
4830.000000	0.854611 
4829.000000	0.855016 
4828.000000	0.855183 
4827.000000	0.855159 
4826.000000	0.855040 
4825.000000	0.854873 
4824.000000	0.854778 
4823.000000	0.854825 
4822.000000	0.855064 
4821.000000	0.855588 
4820.000000	0.856280 
4819.000000	0.857114 
4818.000000	0.858068 
4817.000000	0.859045 
4816.000000	0.860023 
4815.000000	0.860929 
4814.000000	0.861763 
4813.000000	0.862526 
4812.000000	0.863194 
4811.000000	0.863814 
4810.000000	0.864386 
4809.000000	0.864958 
4808.000000	0.865578 
4807.000000	0.866198 
4806.000000	0.866842 
4805.000000	0.867533 
4804.000000	0.868201 
4803.000000	0.868892 
4802.000000	0.869536 
4801.000000	0.870203 
4800.000000	0.870919 
4799.000000	0.871634 
4798.000000	0.872325 
4797.000000	0.873112 
4796.000000	0.873899 
4795.000000	0.874757 
4794.000000	0.875616 
4793.000000	0.876426 
4792.000000	0.877118 
4791.000000	0.877761 
4790.000000	0.878262 
4789.000000	0.878667 
4788.000000	0.879025 
4787.000000	0.879359 
4786.000000	0.879716 
4785.000000	0.880050 
4784.000000	0.880432 
4783.000000	0.880885 
4782.000000	0.881338 
4781.000000	0.881719 
4780.000000	0.882029 
4779.000000	0.882291 
4778.000000	0.882458 
4777.000000	0.882601 
4776.000000	0.882720 
4775.000000	0.882911 
4774.000000	0.883197 
4773.000000	0.883579 
4772.000000	0.884056 
4771.000000	0.884628 
4770.000000	0.885248 
4769.000000	0.885891 
4768.000000	0.886511 
4767.000000	0.887131 
4766.000000	0.887727 
4765.000000	0.888276 
4764.000000	0.888800 
4763.000000	0.889301 
4762.000000	0.889706 
4761.000000	0.890064 
4760.000000	0.890302 
4759.000000	0.890469 
4758.000000	0.890564 
4757.000000	0.890660 
4756.000000	0.890779 
4755.000000	0.890946 
4754.000000	0.891208 
4753.000000	0.891566 
4752.000000	0.892043 
4751.000000	0.892519 
4750.000000	0.893044 
4749.000000	0.893497 
4748.000000	0.893950 
4747.000000	0.894308 
4746.000000	0.894594 
4745.000000	0.894880 
4744.000000	0.895142 
4743.000000	0.895500 
4742.000000	0.895953 
4741.000000	0.896501 
4740.000000	0.897145 
4739.000000	0.897908 
4738.000000	0.898742 
4737.000000	0.899600 
4736.000000	0.900387 
4735.000000	0.901126 
4734.000000	0.901699 
4733.000000	0.902152 
4732.000000	0.902462 
4731.000000	0.902581 
4730.000000	0.902628 
4729.000000	0.902628 
4728.000000	0.902605 
4727.000000	0.902581 
4726.000000	0.902533 
4725.000000	0.902533 
4724.000000	0.902509 
4723.000000	0.902414 
4722.000000	0.902295 
4721.000000	0.902104 
4720.000000	0.901889 
4719.000000	0.901675 
4718.000000	0.901460 
4717.000000	0.901269 
4716.000000	0.901126 
4715.000000	0.901055 
4714.000000	0.901055 
4713.000000	0.901126 
4712.000000	0.901246 
4711.000000	0.901460 
4710.000000	0.901794 
4709.000000	0.902152 
4708.000000	0.902581 
4707.000000	0.903010 
4706.000000	0.903439 
4705.000000	0.903773 
4704.000000	0.904011 
4703.000000	0.904130 
4702.000000	0.904107 
4701.000000	0.903987 
4700.000000	0.903773 
4699.000000	0.903558 
4698.000000	0.903344 
4697.000000	0.903248 
4696.000000	0.903248 
4695.000000	0.903439 
4694.000000	0.903797 
4693.000000	0.904297 
4692.000000	0.904846 
4691.000000	0.905466 
4690.000000	0.906038 
4689.000000	0.906491 
4688.000000	0.906729 
4687.000000	0.906658 
4686.000000	0.906276 
4685.000000	0.905561 
4684.000000	0.904512 
4683.000000	0.903224 
4682.000000	0.901770 
4681.000000	0.900292 
4680.000000	0.898957 
4679.000000	0.897860 
4678.000000	0.897169 
4677.000000	0.896859 
4676.000000	0.897002 
4675.000000	0.897526 
4674.000000	0.898361 
4673.000000	0.899386 
4672.000000	0.900483 
4671.000000	0.901436 
4670.000000	0.902199 
4669.000000	0.902771 
4668.000000	0.903081 
4667.000000	0.903177 
4666.000000	0.903153 
4665.000000	0.902986 
4664.000000	0.902843 
4663.000000	0.902724 
4662.000000	0.902652 
4661.000000	0.902605 
4660.000000	0.902605 
4659.000000	0.902557 
4658.000000	0.902533 
4657.000000	0.902533 
4656.000000	0.902533 
4655.000000	0.902557 
4654.000000	0.902652 
4653.000000	0.902724 
4652.000000	0.902915 
4651.000000	0.903129 
4650.000000	0.903367 
4649.000000	0.903630 
4648.000000	0.903916 
4647.000000	0.904297 
4646.000000	0.904726 
4645.000000	0.905275 
4644.000000	0.905871 
4643.000000	0.906538 
4642.000000	0.907158 
4641.000000	0.907707 
4640.000000	0.908160 
4639.000000	0.908470 
4638.000000	0.908732 
4637.000000	0.908994 
4636.000000	0.909352 
4635.000000	0.909781 
4634.000000	0.910305 
4633.000000	0.910925 
4632.000000	0.911474 
4631.000000	0.911831 
4630.000000	0.911855 
4629.000000	0.911521 
4628.000000	0.910878 
4627.000000	0.909996 
4626.000000	0.909113 
4625.000000	0.908422 
4624.000000	0.908160 
4623.000000	0.908446 
4622.000000	0.909352 
4621.000000	0.910782 
4620.000000	0.912547 
4619.000000	0.914454 
4618.000000	0.916337 
4617.000000	0.918006 
4616.000000	0.919389 
4615.000000	0.920438 
4614.000000	0.921201 
4613.000000	0.921750 
4612.000000	0.922179 
4611.000000	0.922584 
4610.000000	0.922966 
4609.000000	0.923252 
4608.000000	0.923562 
4607.000000	0.923848 
4606.000000	0.924110 
4605.000000	0.924444 
4604.000000	0.924897 
4603.000000	0.925588 
4602.000000	0.926566 
4601.000000	0.927829 
4600.000000	0.929379 
4599.000000	0.931119 
4598.000000	0.932884 
4597.000000	0.934529 
4596.000000	0.935983 
4595.000000	0.937104 
4594.000000	0.937938 
4593.000000	0.938439 
4592.000000	0.938749 
4591.000000	0.938868 
4590.000000	0.938749 
4589.000000	0.938463 
4588.000000	0.937843 
4587.000000	0.936889 
4586.000000	0.935554 
4585.000000	0.933790 
4584.000000	0.931715 
4583.000000	0.929498 
4582.000000	0.927400 
4581.000000	0.925707 
4580.000000	0.924611 
4579.000000	0.924372 
4578.000000	0.925016 
4577.000000	0.926446 
4576.000000	0.928425 
4575.000000	0.930666 
4574.000000	0.932860 
4573.000000	0.934696 
4572.000000	0.935912 
4571.000000	0.936508 
4570.000000	0.936555 
4569.000000	0.936245 
4568.000000	0.935864 
4567.000000	0.935649 
4566.000000	0.935816 
4565.000000	0.936484 
4564.000000	0.937628 
4563.000000	0.939154 
4562.000000	0.940847 
4561.000000	0.942564 
4560.000000	0.944089 
4559.000000	0.945353 
4558.000000	0.946331 
4557.000000	0.947093 
4556.000000	0.947713 
4555.000000	0.948333 
4554.000000	0.949025 
4553.000000	0.949788 
4552.000000	0.950574 
4551.000000	0.951123 
4550.000000	0.951313 
4549.000000	0.951027 
4548.000000	0.950169 
4547.000000	0.948739 
4546.000000	0.947117 
4545.000000	0.945663 
4544.000000	0.944852 
4543.000000	0.944924 
4542.000000	0.946068 
4541.000000	0.948309 
4540.000000	0.951480 
4539.000000	0.955271 
4538.000000	0.959253 
4537.000000	0.963163 
4536.000000	0.966668 
4535.000000	0.969696 
4534.000000	0.972175 
4533.000000	0.974082 
4532.000000	0.975394 
4531.000000	0.976133 
4530.000000	0.976014 
4529.000000	0.974869 
4528.000000	0.972604 
4527.000000	0.969195 
4526.000000	0.964879 
4525.000000	0.960326 
4524.000000	0.956630 
4523.000000	0.955390 
4522.000000	0.958299 
4521.000000	0.967216 
4520.000000	0.983810 
4519.000000	1.009035 
4518.000000	1.042723 
4517.000000	1.083564 
4516.000000	1.128745 
4515.000000	1.174521 
4514.000000	1.216602 
4513.000000	1.250934 
4512.000000	1.274371 
4511.000000	1.285314 
4510.000000	1.283955 
4509.000000	1.272106 
4508.000000	1.252627 
4507.000000	1.229119 
4506.000000	1.204633 
4505.000000	1.181530 
4504.000000	1.160788 
4503.000000	1.142501 
4502.000000	1.125717 
4501.000000	1.109433 
4500.000000	1.092720 
4499.000000	1.075363 
4498.000000	1.057720 
4497.000000	1.040816 
4496.000000	1.025748 
4495.000000	1.013493 
4494.000000	1.004600 
4493.000000	0.999188 
4492.000000	0.996875 
4491.000000	0.996851 
4490.000000	0.998234 
4489.000000	1.000237 
4488.000000	1.002025 
4487.000000	1.003265 
4486.000000	1.003694 
4485.000000	1.003384 
4484.000000	1.002478 
4483.000000	1.001048 
4482.000000	0.999355 
4481.000000	0.997686 
4480.000000	0.996232 
4479.000000	0.995111 
4478.000000	0.994467 
4477.000000	0.994324 
4476.000000	0.994658 
4475.000000	0.995445 
4474.000000	0.996446 
4473.000000	0.997495 
4472.000000	0.998520 
4471.000000	0.999474 
4470.000000	1.000332 
4469.000000	1.001048 
4468.000000	1.001739 
4467.000000	1.002383 
4466.000000	1.003026 
4465.000000	1.003599 
4464.000000	1.004147 
4463.000000	1.004624 
4462.000000	1.004910 
4461.000000	1.004934 
4460.000000	1.004695 
4459.000000	1.004171 
4458.000000	1.003408 
4457.000000	1.002430 
4456.000000	1.001358 
4455.000000	1.000332 
4454.000000	0.999379 
4453.000000	0.998520 
4452.000000	0.997877 
4451.000000	0.997376 
4450.000000	0.996994 
4449.000000	0.996661 
4448.000000	0.996375 
4447.000000	0.996136 
4446.000000	0.995922 
4445.000000	0.995779 
4444.000000	0.995755 
4443.000000	0.995802 
4442.000000	0.995969 
4441.000000	0.996255 
4440.000000	0.996565 
4439.000000	0.996828 
4438.000000	0.997066 
4437.000000	0.997209 
4436.000000	0.997304 
4435.000000	0.997424 
4434.000000	0.997614 
4433.000000	0.997924 
4432.000000	0.998449 
4431.000000	0.999188 
4430.000000	1.000094 
4429.000000	1.001048 
4428.000000	1.002001 
4427.000000	1.002788 
4426.000000	1.003384 
4425.000000	1.003718 
4424.000000	1.003813 
4423.000000	1.003694 
4422.000000	1.003456 
4421.000000	1.003170 
4420.000000	1.002907 
4419.000000	1.002740 
4418.000000	1.002740 
4417.000000	1.002907 
4416.000000	1.003241 
4415.000000	1.003789 
4414.000000	1.004481 
4413.000000	1.005268 
4412.000000	1.006031 
4411.000000	1.006793 
4410.000000	1.007485 
4409.000000	1.008009 
4408.000000	1.008367 
4407.000000	1.008510 
4406.000000	1.008534 
4405.000000	1.008486 
4404.000000	1.008439 
4403.000000	1.008462 
4402.000000	1.008629 
4401.000000	1.008987 
4400.000000	1.009559 
4399.000000	1.010298 
4398.000000	1.011109 
4397.000000	1.011919 
4396.000000	1.012682 
4395.000000	1.013326 
4394.000000	1.013827 
4393.000000	1.014232 
4392.000000	1.014542 
4391.000000	1.014828 
4390.000000	1.015162 
4389.000000	1.015543 
4388.000000	1.015925 
4387.000000	1.016306 
4386.000000	1.016664 
4385.000000	1.016950 
4384.000000	1.017236 
4383.000000	1.017498 
4382.000000	1.017880 
4381.000000	1.018476 
4380.000000	1.019310 
4379.000000	1.020455 
4378.000000	1.021909 
4377.000000	1.023554 
4376.000000	1.025247 
4375.000000	1.026940 
4374.000000	1.028442 
4373.000000	1.029706 
4372.000000	1.030659 
4371.000000	1.031327 
4370.000000	1.031780 
4369.000000	1.032018 
4368.000000	1.032161 
4367.000000	1.032304 
4366.000000	1.032495 
4365.000000	1.032757 
4364.000000	1.033067 
4363.000000	1.033520 
4362.000000	1.034069 
4361.000000	1.034784 
4360.000000	1.035594 
4359.000000	1.036548 
4358.000000	1.037597 
4357.000000	1.038765 
4356.000000	1.039958 
4355.000000	1.041197 
4354.000000	1.042389 
4353.000000	1.043534 
4352.000000	1.044631 
4351.000000	1.045703 
4350.000000	1.046705 
4349.000000	1.047754 
4348.000000	1.048851 
4347.000000	1.049995 
4346.000000	1.051259 
4345.000000	1.052618 
4344.000000	1.054096 
4343.000000	1.055693 
4342.000000	1.057386 
4341.000000	1.059126 
4340.000000	1.060914 
4339.000000	1.062655 
4338.000000	1.064372 
4337.000000	1.066017 
4336.000000	1.067495 
4335.000000	1.068782 
4334.000000	1.069903 
4333.000000	1.070833 
4332.000000	1.071619 
4331.000000	1.072263 
4330.000000	1.072907 
4329.000000	1.073598 
4328.000000	1.074457 
4327.000000	1.075530 
4326.000000	1.076793 
4325.000000	1.078319 
4324.000000	1.079964 
4323.000000	1.081681 
4322.000000	1.083445 
4321.000000	1.085114 
4320.000000	1.086735 
4319.000000	1.088190 
4318.000000	1.089596 
4317.000000	1.090931 
4316.000000	1.092243 
4315.000000	1.093578 
4314.000000	1.094913 
4313.000000	1.096320 
4312.000000	1.097726 
4311.000000	1.099085 
4310.000000	1.100349 
4309.000000	1.101469 
4308.000000	1.102423 
4307.000000	1.103234 
4306.000000	1.103878 
4305.000000	1.104474 
4304.000000	1.105070 
4303.000000	1.105761 
4302.000000	1.106548 
4301.000000	1.107573 
4300.000000	1.108717 
4299.000000	1.110076 
4298.000000	1.111483 
4297.000000	1.112961 
4296.000000	1.114368 
4295.000000	1.115703 
4294.000000	1.116943 
4293.000000	1.118040 
4292.000000	1.119089 
4291.000000	1.120090 
4290.000000	1.121068 
4289.000000	1.122093 
4288.000000	1.123142 
4287.000000	1.124215 
4286.000000	1.125335 
4285.000000	1.126456 
4284.000000	1.127576 
4283.000000	1.128697 
4282.000000	1.129841 
4281.000000	1.130986 
4280.000000	1.132225 
4279.000000	1.133513 
4278.000000	1.134920 
4277.000000	1.136445 
4276.000000	1.138019 
4275.000000	1.139640 
4274.000000	1.141238 
4273.000000	1.142811 
4272.000000	1.144289 
4271.000000	1.145696 
4270.000000	1.146960 
4269.000000	1.148104 
4268.000000	1.149177 
4267.000000	1.150155 
4266.000000	1.151108 
4265.000000	1.151967 
4264.000000	1.152801 
4263.000000	1.153588 
4262.000000	1.154351 
4261.000000	1.155066 
4260.000000	1.155781 
4259.000000	1.156520 
4258.000000	1.157307 
4257.000000	1.158189 
4256.000000	1.159214 
4255.000000	1.160311 
4254.000000	1.161479 
4253.000000	1.162743 
4252.000000	1.164031 
4251.000000	1.165294 
4250.000000	1.166534 
4249.000000	1.167678 
4248.000000	1.168751 
4247.000000	1.169681 
4246.000000	1.170587 
4245.000000	1.171422 
4244.000000	1.172184 
4243.000000	1.172947 
4242.000000	1.173686 
4241.000000	1.174378 
4240.000000	1.175045 
4239.000000	1.175689 
4238.000000	1.176309 
4237.000000	1.176905 
4236.000000	1.177477 
4235.000000	1.178073 
4234.000000	1.178646 
4233.000000	1.179194 
4232.000000	1.179742 
4231.000000	1.180219 
4230.000000	1.180648 
4229.000000	1.181054 
4228.000000	1.181507 
4227.000000	1.182007 
4226.000000	1.182627 
4225.000000	1.183390 
4224.000000	1.184272 
4223.000000	1.185274 
4222.000000	1.186323 
4221.000000	1.187348 
4220.000000	1.188206 
4219.000000	1.188874 
4218.000000	1.189279 
4217.000000	1.189398 
4216.000000	1.189303 
4215.000000	1.189088 
4214.000000	1.188850 
4213.000000	1.188659 
4212.000000	1.188588 
4211.000000	1.188707 
4210.000000	1.189017 
4209.000000	1.189541 
4208.000000	1.190257 
4207.000000	1.191091 
4206.000000	1.191973 
4205.000000	1.192855 
4204.000000	1.193690 
4203.000000	1.194429 
4202.000000	1.195096 
4201.000000	1.195645 
4200.000000	1.196098 
4199.000000	1.196527 
4198.000000	1.196980 
4197.000000	1.197409 
4196.000000	1.197957 
4195.000000	1.198577 
4194.000000	1.199269 
4193.000000	1.199960 
4192.000000	1.200556 
4191.000000	1.201057 
4190.000000	1.201319 
4189.000000	1.201367 
4188.000000	1.201224 
4187.000000	1.200938 
4186.000000	1.200652 
4185.000000	1.200461 
4184.000000	1.200532 
4183.000000	1.200866 
4182.000000	1.201558 
4181.000000	1.202607 
4180.000000	1.203894 
4179.000000	1.205348 
4178.000000	1.206731 
4177.000000	1.208043 
4176.000000	1.209115 
4175.000000	1.209902 
4174.000000	1.210427 
4173.000000	1.210665 
4172.000000	1.210761 
4171.000000	1.210737 
4170.000000	1.210713 
4169.000000	1.210737 
4168.000000	1.210880 
4167.000000	1.211166 
4166.000000	1.211619 
4165.000000	1.212239 
4164.000000	1.213026 
4163.000000	1.213884 
4162.000000	1.214766 
4161.000000	1.215672 
4160.000000	1.216483 
4159.000000	1.217198 
4158.000000	1.217746 
4157.000000	1.218199 
4156.000000	1.218509 
4155.000000	1.218700 
4154.000000	1.218914 
4153.000000	1.219105 
4152.000000	1.219391 
4151.000000	1.219725 
4150.000000	1.220226 
4149.000000	1.220822 
4148.000000	1.221585 
4147.000000	1.222419 
4146.000000	1.223325 
4145.000000	1.224207 
4144.000000	1.225090 
4143.000000	1.225852 
4142.000000	1.226496 
4141.000000	1.227068 
4140.000000	1.227569 
4139.000000	1.228046 
4138.000000	1.228499 
4137.000000	1.228976 
4136.000000	1.229500 
4135.000000	1.230144 
4134.000000	1.230859 
4133.000000	1.231670 
4132.000000	1.232528 
4131.000000	1.233434 
4130.000000	1.234364 
4129.000000	1.235294 
4128.000000	1.236224 
4127.000000	1.237058 
4126.000000	1.237916 
4125.000000	1.238751 
4124.000000	1.239562 
4123.000000	1.240348 
4122.000000	1.241159 
4121.000000	1.242017 
4120.000000	1.242947 
4119.000000	1.243972 
4118.000000	1.245021 
4117.000000	1.246094 
4116.000000	1.247215 
4115.000000	1.248335 
4114.000000	1.249337 
4113.000000	1.250243 
4112.000000	1.251029 
4111.000000	1.251745 
4110.000000	1.252365 
4109.000000	1.252961 
4108.000000	1.253628 
4107.000000	1.254367 
4106.000000	1.255249 
4105.000000	1.256251 
4104.000000	1.257371 
4103.000000	1.258659 
4102.000000	1.259970 
4101.000000	1.261329 
4100.000000	1.262736 
4099.000000	1.264119 
4098.000000	1.265454 
4097.000000	1.266717 
4096.000000	1.267862 
4095.000000	1.268935 
4094.000000	1.269960 
4093.000000	1.270890 
4092.000000	1.271843 
4091.000000	1.272797 
4090.000000	1.273870 
4089.000000	1.275038 
4088.000000	1.276326 
4087.000000	1.277732 
4086.000000	1.279234 
4085.000000	1.280784 
4084.000000	1.282358 
4083.000000	1.283884 
4082.000000	1.285362 
4081.000000	1.286745 
4080.000000	1.288056 
4079.000000	1.289296 
4078.000000	1.290488 
4077.000000	1.291632 
4076.000000	1.292777 
4075.000000	1.293921 
4074.000000	1.295113 
4073.000000	1.296353 
4072.000000	1.297688 
4071.000000	1.299095 
4070.000000	1.300597 
4069.000000	1.302146 
4068.000000	1.303720 
4067.000000	1.305341 
4066.000000	1.306867 
4065.000000	1.308274 
4064.000000	1.309609 
4063.000000	1.310825 
4062.000000	1.311922 
4061.000000	1.312971 
4060.000000	1.314020 
4059.000000	1.315093 
4058.000000	1.316237 
4057.000000	1.317429 
4056.000000	1.318621 
4055.000000	1.319861 
4054.000000	1.321077 
4053.000000	1.322245 
4052.000000	1.323342 
4051.000000	1.324319 
4050.000000	1.325321 
4049.000000	1.326274 
4048.000000	1.327228 
4047.000000	1.328253 
4046.000000	1.329350 
4045.000000	1.330590 
4044.000000	1.331996 
4043.000000	1.333475 
4042.000000	1.335024 
4041.000000	1.336598 
4040.000000	1.338124 
4039.000000	1.339530 
4038.000000	1.340818 
4037.000000	1.341986 
4036.000000	1.343011 
4035.000000	1.344037 
4034.000000	1.345014 
4033.000000	1.346111 
4032.000000	1.347303 
4031.000000	1.348638 
4030.000000	1.350140 
4029.000000	1.351785 
4028.000000	1.353478 
4027.000000	1.355218 
4026.000000	1.356959 
4025.000000	1.358580 
4024.000000	1.360058 
4023.000000	1.361298 
4022.000000	1.362371 
4021.000000	1.363229 
4020.000000	1.363897 
4019.000000	1.364469 
4018.000000	1.364946 
4017.000000	1.365470 
4016.000000	1.366090 
4015.000000	1.366853 
4014.000000	1.367878 
4013.000000	1.369071 
4012.000000	1.370453 
4011.000000	1.371979 
4010.000000	1.373529 
4009.000000	1.375055 
4008.000000	1.376533 
4007.000000	1.377892 
4006.000000	1.379132 
4005.000000	1.380276 
4004.000000	1.381254 
4003.000000	1.382160 
4002.000000	1.382970 
4001.000000	1.383662 
4000.000000	1.384282 
3999.000000	1.384782 
3998.000000	1.385188 
3997.000000	1.385498 
3996.000000	1.385807 
3995.000000	1.386094 
3994.000000	1.386427 
3993.000000	1.386833 
3992.000000	1.387381 
3991.000000	1.388049 
3990.000000	1.388812 
3989.000000	1.389646 
3988.000000	1.390504 
3987.000000	1.391363 
3986.000000	1.392149 
3985.000000	1.392841 
3984.000000	1.393413 
3983.000000	1.393914 
3982.000000	1.394343 
3981.000000	1.394724 
3980.000000	1.395082 
3979.000000	1.395392 
3978.000000	1.395702 
3977.000000	1.395964 
3976.000000	1.396250 
3975.000000	1.396536 
3974.000000	1.396846 
3973.000000	1.397299 
3972.000000	1.397800 
3971.000000	1.398444 
3970.000000	1.399183 
3969.000000	1.400041 
3968.000000	1.400923 
3967.000000	1.401758 
3966.000000	1.402473 
3965.000000	1.403093 
3964.000000	1.403522 
3963.000000	1.403784 
3962.000000	1.403975 
3961.000000	1.404094 
3960.000000	1.404237 
3959.000000	1.404452 
3958.000000	1.404809 
3957.000000	1.405262 
3956.000000	1.405811 
3955.000000	1.406431 
3954.000000	1.407074 
3953.000000	1.407694 
3952.000000	1.408314 
3951.000000	1.408910 
3950.000000	1.409411 
3949.000000	1.409912 
3948.000000	1.410365 
3947.000000	1.410841 
3946.000000	1.411294 
3945.000000	1.411795 
3944.000000	1.412320 
3943.000000	1.412868 
3942.000000	1.413369 
3941.000000	1.413893 
3940.000000	1.414394 
3939.000000	1.414847 
3938.000000	1.415300 
3937.000000	1.415729 
3936.000000	1.416158 
3935.000000	1.416563 
3934.000000	1.416969 
3933.000000	1.417350 
3932.000000	1.417732 
3931.000000	1.418089 
3930.000000	1.418375 
3929.000000	1.418614 
3928.000000	1.418852 
3927.000000	1.419043 
3926.000000	1.419210 
3925.000000	1.419329 
3924.000000	1.419472 
3923.000000	1.419568 
3922.000000	1.419687 
3921.000000	1.419854 
3920.000000	1.420068 
3919.000000	1.420331 
3918.000000	1.420712 
3917.000000	1.421260 
3916.000000	1.421952 
3915.000000	1.422762 
3914.000000	1.423668 
3913.000000	1.424479 
3912.000000	1.425170 
3911.000000	1.425576 
3910.000000	1.425600 
3909.000000	1.425242 
3908.000000	1.424551 
3907.000000	1.423621 
3906.000000	1.422619 
3905.000000	1.421761 
3904.000000	1.421189 
3903.000000	1.420998 
3902.000000	1.421332 
3901.000000	1.422095 
3900.000000	1.423239 
3899.000000	1.424574 
3898.000000	1.425957 
3897.000000	1.427197 
3896.000000	1.428151 
3895.000000	1.428818 
3894.000000	1.429128 
3893.000000	1.429152 
3892.000000	1.429009 
3891.000000	1.428794 
3890.000000	1.428580 
3889.000000	1.428413 
3888.000000	1.428389 
3887.000000	1.428556 
3886.000000	1.428866 
3885.000000	1.429390 
3884.000000	1.430153 
3883.000000	1.431083 
3882.000000	1.432180 
3881.000000	1.433372 
3880.000000	1.434516 
3879.000000	1.435565 
3878.000000	1.436424 
3877.000000	1.436996 
3876.000000	1.437306 
3875.000000	1.437330 
3874.000000	1.437163 
3873.000000	1.436924 
3872.000000	1.436734 
3871.000000	1.436686 
3870.000000	1.436805 
3869.000000	1.437211 
3868.000000	1.437878 
3867.000000	1.438808 
3866.000000	1.439952 
3865.000000	1.441168 
3864.000000	1.442337 
3863.000000	1.443243 
3862.000000	1.443743 
3861.000000	1.443696 
3860.000000	1.443076 
3859.000000	1.441907 
3858.000000	1.440382 
3857.000000	1.438832 
3856.000000	1.437616 
3855.000000	1.437115 
3854.000000	1.437544 
3853.000000	1.439046 
3852.000000	1.441621 
3851.000000	1.444983 
3850.000000	1.448774 
3849.000000	1.452541 
3848.000000	1.455903 
3847.000000	1.458501 
3846.000000	1.460218 
3845.000000	1.461052 
3844.000000	1.461124 
3843.000000	1.460671 
3842.000000	1.459956 
3841.000000	1.459240 
3840.000000	1.458835 
3839.000000	1.458859 
3838.000000	1.459431 
3837.000000	1.460599 
3836.000000	1.462388 
3835.000000	1.464676 
3834.000000	1.467299 
3833.000000	1.470160 
3832.000000	1.472997 
3831.000000	1.475644 
3830.000000	1.477956 
3829.000000	1.479744 
3828.000000	1.480960 
3827.000000	1.481604 
3826.000000	1.481771 
3825.000000	1.481485 
3824.000000	1.480960 
3823.000000	1.480436 
3822.000000	1.480054 
3821.000000	1.480031 
3820.000000	1.480460 
3819.000000	1.481485 
3818.000000	1.483035 
3817.000000	1.485061 
3816.000000	1.487398 
3815.000000	1.489901 
3814.000000	1.492285 
3813.000000	1.494383 
3812.000000	1.496052 
3811.000000	1.497220 
3810.000000	1.497888 
3809.000000	1.498055 
3808.000000	1.497912 
3807.000000	1.497602 
3806.000000	1.497340 
3805.000000	1.497364 
3804.000000	1.497793 
3803.000000	1.498723 
3802.000000	1.500272 
3801.000000	1.502442 
3800.000000	1.505136 
3799.000000	1.508188 
3798.000000	1.511478 
3797.000000	1.514840 
3796.000000	1.518011 
3795.000000	1.520872 
3794.000000	1.523327 
3793.000000	1.525306 
3792.000000	1.526880 
3791.000000	1.528143 
3790.000000	1.529097 
3789.000000	1.529884 
3788.000000	1.530599 
3787.000000	1.531314 
3786.000000	1.532006 
3785.000000	1.532649 
3784.000000	1.533341 
3783.000000	1.533985 
3782.000000	1.534652 
3781.000000	1.535320 
3780.000000	1.536059 
3779.000000	1.536822 
3778.000000	1.537656 
3777.000000	1.538467 
3776.000000	1.539206 
3775.000000	1.539921 
3774.000000	1.540541 
3773.000000	1.541113 
3772.000000	1.541709 
3771.000000	1.542329 
3770.000000	1.543092 
3769.000000	1.544022 
3768.000000	1.545119 
3767.000000	1.546335 
3766.000000	1.547574 
3765.000000	1.548719 
3764.000000	1.549649 
3763.000000	1.550245 
3762.000000	1.550459 
3761.000000	1.550173 
3760.000000	1.549410 
3759.000000	1.548194 
3758.000000	1.546621 
3757.000000	1.544737 
3756.000000	1.542735 
3755.000000	1.540660 
3754.000000	1.538658 
3753.000000	1.536917 
3752.000000	1.535439 
3751.000000	1.534318 
3750.000000	1.533651 
3749.000000	1.533436 
3748.000000	1.533794 
3747.000000	1.534724 
3746.000000	1.536130 
3745.000000	1.537990 
3744.000000	1.540160 
3743.000000	1.542448 
3742.000000	1.544666 
3741.000000	1.546645 
3740.000000	1.548266 
3739.000000	1.549506 
3738.000000	1.550364 
3737.000000	1.551008 
3736.000000	1.551651 
3735.000000	1.552414 
3734.000000	1.553416 
3733.000000	1.554727 
3732.000000	1.556324 
3731.000000	1.558017 
3730.000000	1.559710 
3729.000000	1.561260 
3728.000000	1.562547 
3727.000000	1.563549 
3726.000000	1.564311 
3725.000000	1.564884 
3724.000000	1.565456 
3723.000000	1.566004 
3722.000000	1.566600 
3721.000000	1.567173 
3720.000000	1.567625 
3719.000000	1.567864 
3718.000000	1.567769 
3717.000000	1.567316 
3716.000000	1.566553 
3715.000000	1.565575 
3714.000000	1.564598 
3713.000000	1.563739 
3712.000000	1.563191 
3711.000000	1.563048 
3710.000000	1.563334 
3709.000000	1.563954 
3708.000000	1.564860 
3707.000000	1.565861 
3706.000000	1.566815 
3705.000000	1.567673 
3704.000000	1.568388 
3703.000000	1.568937 
3702.000000	1.569366 
3701.000000	1.569747 
3700.000000	1.570034 
3699.000000	1.570153 
3698.000000	1.570057 
3697.000000	1.569652 
3696.000000	1.568889 
3695.000000	1.567769 
3694.000000	1.566362 
3693.000000	1.564717 
3692.000000	1.563143 
3691.000000	1.561856 
3690.000000	1.561021 
3689.000000	1.560735 
3688.000000	1.561021 
3687.000000	1.561808 
3686.000000	1.562881 
3685.000000	1.564002 
3684.000000	1.564884 
3683.000000	1.565337 
3682.000000	1.565217 
3681.000000	1.564550 
3680.000000	1.563405 
3679.000000	1.561951 
3678.000000	1.560378 
3677.000000	1.558947 
3676.000000	1.557850 
3675.000000	1.557230 
3674.000000	1.557183 
3673.000000	1.557683 
3672.000000	1.558780 
3671.000000	1.560330 
3670.000000	1.562237 
3669.000000	1.564359 
3668.000000	1.566481 
3667.000000	1.568531 
3666.000000	1.570320 
3665.000000	1.571726 
3664.000000	1.572632 
3663.000000	1.573038 
3662.000000	1.573014 
3661.000000	1.572537 
3660.000000	1.571774 
3659.000000	1.570796 
3658.000000	1.569676 
3657.000000	1.568508 
3656.000000	1.567316 
3655.000000	1.566123 
3654.000000	1.564979 
3653.000000	1.563954 
3652.000000	1.563119 
3651.000000	1.562595 
3650.000000	1.562452 
3649.000000	1.562786 
3648.000000	1.563549 
3647.000000	1.564717 
3646.000000	1.566147 
3645.000000	1.567673 
3644.000000	1.569080 
3643.000000	1.570320 
3642.000000	1.571226 
3641.000000	1.571726 
3640.000000	1.571869 
3639.000000	1.571631 
3638.000000	1.571130 
3637.000000	1.570391 
3636.000000	1.569437 
3635.000000	1.568388 
3634.000000	1.567339 
3633.000000	1.566386 
3632.000000	1.565623 
3631.000000	1.565241 
3630.000000	1.565241 
3629.000000	1.565694 
3628.000000	1.566529 
3627.000000	1.567649 
3626.000000	1.568794 
3625.000000	1.569867 
3624.000000	1.570653 
3623.000000	1.571130 
3622.000000	1.571202 
3621.000000	1.571011 
3620.000000	1.570677 
3619.000000	1.570320 
3618.000000	1.570057 
3617.000000	1.569938 
3616.000000	1.570057 
3615.000000	1.570367 
3614.000000	1.570892 
3613.000000	1.571559 
3612.000000	1.572394 
3611.000000	1.573324 
3610.000000	1.574373 
3609.000000	1.575493 
3608.000000	1.576685 
3607.000000	1.577901 
3606.000000	1.579046 
3605.000000	1.580071 
3604.000000	1.580977 
3603.000000	1.581740 
3602.000000	1.582360 
3601.000000	1.582908 
3600.000000	1.583409 
3599.000000	1.583862 
3598.000000	1.584291 
3597.000000	1.584672 
3596.000000	1.585006 
3595.000000	1.585268 
3594.000000	1.585412 
3593.000000	1.585435 
3592.000000	1.585388 
3591.000000	1.585316 
3590.000000	1.585292 
3589.000000	1.585459 
3588.000000	1.585841 
3587.000000	1.586437 
3586.000000	1.587247 
3585.000000	1.588273 
3584.000000	1.589393 
3583.000000	1.590561 
3582.000000	1.591658 
3581.000000	1.592659 
3580.000000	1.593565 
3579.000000	1.594352 
3578.000000	1.595044 
3577.000000	1.595616 
3576.000000	1.596093 
3575.000000	1.596450 
3574.000000	1.596689 
3573.000000	1.596832 
3572.000000	1.596832 
3571.000000	1.596784 
3570.000000	1.596760 
3569.000000	1.596832 
3568.000000	1.597070 
3567.000000	1.597523 
3566.000000	1.598191 
3565.000000	1.599073 
3564.000000	1.600098 
3563.000000	1.601171 
3562.000000	1.602292 
3561.000000	1.603341 
3560.000000	1.604294 
3559.000000	1.605153 
3558.000000	1.605868 
3557.000000	1.606488 
3556.000000	1.607012 
3555.000000	1.607489 
3554.000000	1.607871 
3553.000000	1.608180 
3552.000000	1.608371 
3551.000000	1.608514 
3550.000000	1.608610 
3549.000000	1.608681 
3548.000000	1.608800 
3547.000000	1.608896 
3546.000000	1.609039 
3545.000000	1.609230 
3544.000000	1.609420 
3543.000000	1.609659 
3542.000000	1.609849 
3541.000000	1.610040 
3540.000000	1.610255 
3539.000000	1.610422 
3538.000000	1.610612 
3537.000000	1.610875 
3536.000000	1.611161 
3535.000000	1.611518 
3534.000000	1.611948 
3533.000000	1.612424 
3532.000000	1.612949 
3531.000000	1.613521 
3530.000000	1.614046 
3529.000000	1.614499 
3528.000000	1.614832 
3527.000000	1.615047 
3526.000000	1.615095 
3525.000000	1.615047 
3524.000000	1.614952 
3523.000000	1.614856 
3522.000000	1.614809 
3521.000000	1.614904 
3520.000000	1.615095 
3519.000000	1.615381 
3518.000000	1.615762 
3517.000000	1.616144 
3516.000000	1.616406 
3515.000000	1.616525 
3514.000000	1.616430 
3513.000000	1.616144 
3512.000000	1.615619 
3511.000000	1.614952 
3510.000000	1.614212 
3509.000000	1.613473 
3508.000000	1.612806 
3507.000000	1.612234 
3506.000000	1.611804 
3505.000000	1.611495 
3504.000000	1.611351 
3503.000000	1.611256 
3502.000000	1.611256 
3501.000000	1.611304 
3500.000000	1.611375 
3499.000000	1.611447 
3498.000000	1.611518 
3497.000000	1.611566 
3496.000000	1.611566 
3495.000000	1.611518 
3494.000000	1.611351 
3493.000000	1.611065 
3492.000000	1.610612 
3491.000000	1.610016 
3490.000000	1.609230 
3489.000000	1.608395 
3488.000000	1.607489 
3487.000000	1.606583 
3486.000000	1.605796 
3485.000000	1.605105 
3484.000000	1.604628 
3483.000000	1.604318 
3482.000000	1.604175 
3481.000000	1.604127 
3480.000000	1.604056 
3479.000000	1.603960 
3478.000000	1.603722 
3477.000000	1.603364 
3476.000000	1.602816 
3475.000000	1.602172 
3474.000000	1.601433 
3473.000000	1.600623 
3472.000000	1.599812 
3471.000000	1.599049 
3470.000000	1.598358 
3469.000000	1.597762 
3468.000000	1.597261 
3467.000000	1.596832 
3466.000000	1.596403 
3465.000000	1.595950 
3464.000000	1.595401 
3463.000000	1.594805 
3462.000000	1.593995 
3461.000000	1.593089 
3460.000000	1.592063 
3459.000000	1.590943 
3458.000000	1.589846 
3457.000000	1.588773 
3456.000000	1.587867 
3455.000000	1.587104 
3454.000000	1.586484 
3453.000000	1.586031 
3452.000000	1.585674 
3451.000000	1.585412 
3450.000000	1.585173 
3449.000000	1.584911 
3448.000000	1.584577 
3447.000000	1.584172 
3446.000000	1.583695 
3445.000000	1.583147 
3444.000000	1.582527 
3443.000000	1.581788 
3442.000000	1.580953 
3441.000000	1.580095 
3440.000000	1.579165 
3439.000000	1.578235 
3438.000000	1.577281 
3437.000000	1.576423 
3436.000000	1.575636 
3435.000000	1.575016 
3434.000000	1.574516 
3433.000000	1.574134 
3432.000000	1.573896 
3431.000000	1.573729 
3430.000000	1.573657 
3429.000000	1.573586 
3428.000000	1.573514 
3427.000000	1.573443 
3426.000000	1.573395 
3425.000000	1.573371 
3424.000000	1.573371 
3423.000000	1.573467 
3422.000000	1.573610 
3421.000000	1.573824 
3420.000000	1.574063 
3419.000000	1.574301 
3418.000000	1.574563 
3417.000000	1.574826 
3416.000000	1.575088 
3415.000000	1.575374 
3414.000000	1.575756 
3413.000000	1.576232 
3412.000000	1.576828 
3411.000000	1.577568 
3410.000000	1.578402 
3409.000000	1.579308 
3408.000000	1.580238 
3407.000000	1.581192 
3406.000000	1.582145 
3405.000000	1.583051 
3404.000000	1.583909 
3403.000000	1.584768 
3402.000000	1.585578 
3401.000000	1.586365 
3400.000000	1.587128 
3399.000000	1.587843 
3398.000000	1.588559 
3397.000000	1.589226 
3396.000000	1.589918 
3395.000000	1.590561 
3394.000000	1.591205 
3393.000000	1.591897 
3392.000000	1.592588 
3391.000000	1.593303 
3390.000000	1.593971 
3389.000000	1.594638 
3388.000000	1.595282 
3387.000000	1.595854 
3386.000000	1.596379 
3385.000000	1.596879 
3384.000000	1.597332 
3383.000000	1.597809 
3382.000000	1.598334 
3381.000000	1.598858 
3380.000000	1.599431 
3379.000000	1.600050 
3378.000000	1.600742 
3377.000000	1.601529 
3376.000000	1.602435 
3375.000000	1.603412 
3374.000000	1.604485 
3373.000000	1.605653 
3372.000000	1.606941 
3371.000000	1.608228 
3370.000000	1.609539 
3369.000000	1.610851 
3368.000000	1.612114 
3367.000000	1.613354 
3366.000000	1.614522 
3365.000000	1.615619 
3364.000000	1.616716 
3363.000000	1.617836 
3362.000000	1.618957 
3361.000000	1.620101 
3360.000000	1.621365 
3359.000000	1.622748 
3358.000000	1.624226 
3357.000000	1.625800 
3356.000000	1.627492 
3355.000000	1.629257 
3354.000000	1.631069 
3353.000000	1.632905 
3352.000000	1.634716 
3351.000000	1.636481 
3350.000000	1.638126 
3349.000000	1.639628 
3348.000000	1.641035 
3347.000000	1.642322 
3346.000000	1.643538 
3345.000000	1.644754 
3344.000000	1.645970 
3343.000000	1.647281 
3342.000000	1.648712 
3341.000000	1.650238 
3340.000000	1.651811 
3339.000000	1.653456 
3338.000000	1.655101 
3337.000000	1.656746 
3336.000000	1.658344 
3335.000000	1.659893 
3334.000000	1.661419 
3333.000000	1.662874 
3332.000000	1.664257 
3331.000000	1.665616 
3330.000000	1.666927 
3329.000000	1.668167 
3328.000000	1.669383 
3327.000000	1.670575 
3326.000000	1.671767 
3325.000000	1.672983 
3324.000000	1.674246 
3323.000000	1.675558 
3322.000000	1.676893 
3321.000000	1.678252 
3320.000000	1.679563 
3319.000000	1.680874 
3318.000000	1.682162 
3317.000000	1.683378 
3316.000000	1.684617 
3315.000000	1.685929 
3314.000000	1.687312 
3313.000000	1.688861 
3312.000000	1.690530 
3311.000000	1.692342 
3310.000000	1.694226 
3309.000000	1.696205 
3308.000000	1.698160 
3307.000000	1.700067 
3306.000000	1.701831 
3305.000000	1.703500 
3304.000000	1.705074 
3303.000000	1.706457 
3302.000000	1.707792 
3301.000000	1.709079 
3300.000000	1.710343 
3299.000000	1.711654 
3298.000000	1.712965 
3297.000000	1.714348 
3296.000000	1.715779 
3295.000000	1.717257 
3294.000000	1.718807 
3293.000000	1.720356 
3292.000000	1.721858 
3291.000000	1.723289 
3290.000000	1.724648 
3289.000000	1.725935 
3288.000000	1.727104 
3287.000000	1.728224 
3286.000000	1.729297 
3285.000000	1.730370 
3284.000000	1.731443 
3283.000000	1.732516 
3282.000000	1.733565 
3281.000000	1.734566 
3280.000000	1.735544 
3279.000000	1.736426 
3278.000000	1.737260 
3277.000000	1.738047 
3276.000000	1.738810 
3275.000000	1.739573 
3274.000000	1.740384 
3273.000000	1.741266 
3272.000000	1.742243 
3271.000000	1.743268 
3270.000000	1.744365 
3269.000000	1.745510 
3268.000000	1.746678 
3267.000000	1.747775 
3266.000000	1.748871 
3265.000000	1.749897 
3264.000000	1.750850 
3263.000000	1.751780 
3262.000000	1.752638 
3261.000000	1.753449 
3260.000000	1.754164 
3259.000000	1.754808 
3258.000000	1.755404 
3257.000000	1.756000 
3256.000000	1.756525 
3255.000000	1.756978 
3254.000000	1.757454 
3253.000000	1.757931 
3252.000000	1.758408 
3251.000000	1.758909 
3250.000000	1.759457 
3249.000000	1.760029 
3248.000000	1.760721 
3247.000000	1.761460 
3246.000000	1.762223 
3245.000000	1.763010 
3244.000000	1.763725 
3243.000000	1.764392 
3242.000000	1.765012 
3241.000000	1.765513 
3240.000000	1.765942 
3239.000000	1.766300 
3238.000000	1.766681 
3237.000000	1.767063 
3236.000000	1.767492 
3235.000000	1.767992 
3234.000000	1.768541 
3233.000000	1.769161 
3232.000000	1.769828 
3231.000000	1.770472 
3230.000000	1.771140 
3229.000000	1.771736 
3228.000000	1.772236 
3227.000000	1.772665 
3226.000000	1.772999 
3225.000000	1.773238 
3224.000000	1.773405 
3223.000000	1.773428 
3222.000000	1.773405 
3221.000000	1.773285 
3220.000000	1.773190 
3219.000000	1.773071 
3218.000000	1.772975 
3217.000000	1.772952 
3216.000000	1.773047 
3215.000000	1.773190 
3214.000000	1.773428 
3213.000000	1.773786 
3212.000000	1.774239 
3211.000000	1.774740 
3210.000000	1.775217 
3209.000000	1.775741 
3208.000000	1.776242 
3207.000000	1.776695 
3206.000000	1.777076 
3205.000000	1.777410 
3204.000000	1.777672 
3203.000000	1.777958 
3202.000000	1.778173 
3201.000000	1.778316 
3200.000000	1.778435 
3199.000000	1.778507 
3198.000000	1.778554 
3197.000000	1.778578 
3196.000000	1.778554 
3195.000000	1.778507 
3194.000000	1.778435 
3193.000000	1.778411 
3192.000000	1.778459 
3191.000000	1.778554 
3190.000000	1.778721 
3189.000000	1.778960 
3188.000000	1.779270 
3187.000000	1.779580 
3186.000000	1.779890 
3185.000000	1.780152 
3184.000000	1.780462 
3183.000000	1.780748 
3182.000000	1.780986 
3181.000000	1.781225 
3180.000000	1.781463 
3179.000000	1.781749 
3178.000000	1.782059 
3177.000000	1.782345 
3176.000000	1.782655 
3175.000000	1.782965 
3174.000000	1.783323 
3173.000000	1.783728 
3172.000000	1.784157 
3171.000000	1.784658 
3170.000000	1.785206 
3169.000000	1.785778 
3168.000000	1.786327 
3167.000000	1.786804 
3166.000000	1.787233 
3165.000000	1.787447 
3164.000000	1.787590 
3163.000000	1.787638 
3162.000000	1.787614 
3161.000000	1.787614 
3160.000000	1.787686 
3159.000000	1.787900 
3158.000000	1.788210 
3157.000000	1.788735 
3156.000000	1.789331 
3155.000000	1.790070 
3154.000000	1.790881 
3153.000000	1.791691 
3152.000000	1.792573 
3151.000000	1.793432 
3150.000000	1.794338 
3149.000000	1.795268 
3148.000000	1.796245 
3147.000000	1.797246 
3146.000000	1.798343 
3145.000000	1.799488 
3144.000000	1.800656 
3143.000000	1.801872 
3142.000000	1.803135 
3141.000000	1.804375 
3140.000000	1.805567 
3139.000000	1.806712 
3138.000000	1.807618 
3137.000000	1.808309 
3136.000000	1.808738 
3135.000000	1.808977 
3134.000000	1.809048 
3133.000000	1.809024 
3132.000000	1.809000 
3131.000000	1.809144 
3130.000000	1.809525 
3129.000000	1.810216 
3128.000000	1.811242 
3127.000000	1.812624 
3126.000000	1.814293 
3125.000000	1.816153 
3124.000000	1.818108 
3123.000000	1.820158 
3122.000000	1.822233 
3121.000000	1.824259 
3120.000000	1.826214 
3119.000000	1.828122 
3118.000000	1.829934 
3117.000000	1.831722 
3116.000000	1.833462 
3115.000000	1.835203 
3114.000000	1.836919 
3113.000000	1.838612 
3112.000000	1.840305 
3111.000000	1.841974 
3110.000000	1.843595 
3109.000000	1.845073 
3108.000000	1.846480 
3107.000000	1.847696 
3106.000000	1.848840 
3105.000000	1.849913 
3104.000000	1.851010 
3103.000000	1.852226 
3102.000000	1.853585 
3101.000000	1.855134 
3100.000000	1.856899 
3099.000000	1.858758 
3098.000000	1.860737 
3097.000000	1.862716 
3096.000000	1.864671 
3095.000000	1.866626 
3094.000000	1.868510 
3093.000000	1.870417 
3092.000000	1.872372 
3091.000000	1.874399 
3090.000000	1.876521 
3089.000000	1.878714 
3088.000000	1.881027 
3087.000000	1.883363 
3086.000000	1.885676 
3085.000000	1.887893 
3084.000000	1.890039 
3083.000000	1.892089 
3082.000000	1.894044 
3081.000000	1.895928 
3080.000000	1.897692 
3079.000000	1.899361 
3078.000000	1.900959 
3077.000000	1.902389 
3076.000000	1.903700 
3075.000000	1.904869 
3074.000000	1.905870 
3073.000000	1.906752 
3072.000000	1.907491 
3071.000000	1.908183 
3070.000000	1.908826 
3069.000000	1.909470 
3068.000000	1.910161 
3067.000000	1.910924 
3066.000000	1.911830 
3065.000000	1.912879 
3064.000000	1.914095 
3063.000000	1.915502 
3062.000000	1.917076 
3061.000000	1.918792 
3060.000000	1.920676 
3059.000000	1.922655 
3058.000000	1.924729 
3057.000000	1.926827 
3056.000000	1.928973 
3055.000000	1.931142 
3054.000000	1.933264 
3053.000000	1.935362 
3052.000000	1.937413 
3051.000000	1.939344 
3050.000000	1.941156 
3049.000000	1.942825 
3048.000000	1.944375 
3047.000000	1.945805 
3046.000000	1.947140 
3045.000000	1.948404 
3044.000000	1.949667 
3043.000000	1.950907 
3042.000000	1.952171 
3041.000000	1.953482 
3040.000000	1.954722 
3039.000000	1.955914 
3038.000000	1.956963 
3037.000000	1.957798 
3036.000000	1.958441 
3035.000000	1.958847 
3034.000000	1.959037 
3033.000000	1.958990 
3032.000000	1.958727 
3031.000000	1.958250 
3030.000000	1.957511 
3029.000000	1.956510 
3028.000000	1.955223 
3027.000000	1.953673 
3026.000000	1.951837 
3025.000000	1.949810 
3024.000000	1.947665 
3023.000000	1.945567 
3022.000000	1.943683 
3021.000000	1.942205 
3020.000000	1.941299 
3019.000000	1.941180 
3018.000000	1.941847 
3017.000000	1.943469 
3016.000000	1.945948 
3015.000000	1.949286 
3014.000000	1.953363 
3013.000000	1.957964 
3012.000000	1.962947 
3011.000000	1.968169 
3010.000000	1.973390 
3009.000000	1.978492 
3008.000000	1.983308 
3007.000000	1.987838 
3006.000000	1.991891 
3005.000000	1.995515 
3004.000000	1.998710 
3003.000000	2.001452 
3002.000000	2.003812 
3001.000000	2.005791 
3000.000000	2.007508 
2999.000000	2.008938 
2998.000000	2.010107 
2997.000000	2.011084 
2996.000000	2.011871 
2995.000000	2.012443 
2994.000000	2.012848 
2993.000000	2.013039 
2992.000000	2.013111 
2991.000000	2.013039 
2990.000000	2.012848 
2989.000000	2.012562 
2988.000000	2.012181 
2987.000000	2.011632 
2986.000000	2.010893 
2985.000000	2.009963 
2984.000000	2.008724 
2983.000000	2.007150 
2982.000000	2.005267 
2981.000000	2.003026 
2980.000000	2.000474 
2979.000000	1.997590 
2978.000000	1.994371 
2977.000000	1.990890 
2976.000000	1.987099 
2975.000000	1.982998 
2974.000000	1.978588 
2973.000000	1.973867 
2972.000000	1.968836 
2971.000000	1.963496 
2970.000000	1.957941 
2969.000000	1.952242 
2968.000000	1.946592 
2967.000000	1.941013 
2966.000000	1.935720 
2965.000000	1.930785 
2964.000000	1.926350 
2963.000000	1.922464 
2962.000000	1.919174 
2961.000000	1.916503 
2960.000000	1.914381 
2959.000000	1.912808 
2958.000000	1.911640 
2957.000000	1.910853 
2956.000000	1.910233 
2955.000000	1.909637 
2954.000000	1.908993 
2953.000000	1.908087 
2952.000000	1.906824 
2951.000000	1.905012 
2950.000000	1.902556 
2949.000000	1.899337 
2948.000000	1.895332 
2947.000000	1.890516 
2946.000000	1.884818 
2945.000000	1.878333 
2944.000000	1.871156 
2943.000000	1.863336 
2942.000000	1.854944 
2941.000000	1.846122 
2940.000000	1.837110 
2939.000000	1.828002 
2938.000000	1.818919 
2937.000000	1.810002 
2936.000000	1.801419 
2935.000000	1.793265 
2934.000000	1.785516 
2933.000000	1.778340 
2932.000000	1.771807 
2931.000000	1.765966 
2930.000000	1.760959 
2929.000000	1.756954 
2928.000000	1.754117 
2927.000000	1.752662 
2926.000000	1.752781 
2925.000000	1.754665 
2924.000000	1.758384 
2923.000000	1.764059 
2922.000000	1.771521 
2921.000000	1.780700 
2920.000000	1.791262 
2919.000000	1.802873 
2918.000000	1.815152 
2917.000000	1.827692 
2916.000000	1.840114 
2915.000000	1.852083 
2914.000000	1.863360 
2913.000000	1.873803 
2912.000000	1.883316 
2911.000000	1.891851 
2910.000000	1.899504 
2909.000000	1.906347 
2908.000000	1.912474 
2907.000000	1.917982 
2906.000000	1.922988 
2905.000000	1.927566 
2904.000000	1.931762 
2903.000000	1.935696 
2902.000000	1.939415 
2901.000000	1.942896 
2900.000000	1.946234 
2899.000000	1.949477 
2898.000000	1.952600 
2897.000000	1.955676 
2896.000000	1.958680 
2895.000000	1.961636 
2894.000000	1.964521 
2893.000000	1.967310 
2892.000000	1.969981 
2891.000000	1.972556 
2890.000000	1.974964 
2889.000000	1.977229 
2888.000000	1.979351 
2887.000000	1.981377 
2886.000000	1.983189 
2885.000000	1.984834 
2884.000000	1.986289 
2883.000000	1.987481 
2882.000000	1.988363 
2881.000000	1.988935 
2880.000000	1.989102 
2879.000000	1.988840 
2878.000000	1.988077 
2877.000000	1.986742 
2876.000000	1.984763 
2875.000000	1.982021 
2874.000000	1.978421 
2873.000000	1.973795 
2872.000000	1.968145 
2871.000000	1.961398 
2870.000000	1.953625 
2869.000000	1.944994 
2868.000000	1.935696 
2867.000000	1.926159 
2866.000000	1.916694 
2865.000000	1.907896 
2864.000000	1.900148 
2863.000000	1.894021 
2862.000000	1.889777 
2861.000000	1.887702 
2860.000000	1.887941 
2859.000000	1.890420 
2858.000000	1.894974 
2857.000000	1.901388 
2856.000000	1.909208 
2855.000000	1.918196 
2854.000000	1.927924 
2853.000000	1.938128 
2852.000000	1.948571 
2851.000000	1.959037 
2850.000000	1.969432 
2849.000000	1.979637 
2848.000000	1.989603 
2847.000000	1.999235 
2846.000000	2.008438 
2845.000000	2.017235 
2844.000000	2.025532 
2843.000000	2.033257 
2842.000000	2.040386 
2841.000000	2.046918 
2840.000000	2.052927 
2839.000000	2.058434 
2838.000000	2.063417 
2837.000000	2.067971 
2836.000000	2.072167 
2835.000000	2.076005 
2834.000000	2.079510 
2833.000000	2.082729 
2832.000000	2.085733 
2831.000000	2.088570 
2830.000000	2.091312 
2829.000000	2.093982 
2828.000000	2.096724 
2827.000000	2.099561 
2826.000000	2.102494 
2825.000000	2.105593 
2824.000000	2.108764 
2823.000000	2.111983 
2822.000000	2.115178 
2821.000000	2.118229 
2820.000000	2.121138 
2819.000000	2.123832 
2818.000000	2.126288 
2817.000000	2.128577 
2816.000000	2.130651 
2815.000000	2.132654 
2814.000000	2.134656 
2813.000000	2.136635 
2812.000000	2.138638 
2811.000000	2.140688 
2810.000000	2.142763 
2809.000000	2.144813 
2808.000000	2.146792 
2807.000000	2.148699 
2806.000000	2.150559 
2805.000000	2.152276 
2804.000000	2.153921 
2803.000000	2.155518 
2802.000000	2.157115 
2801.000000	2.158713 
2800.000000	2.160382 
2799.000000	2.162122 
2798.000000	2.163958 
2797.000000	2.165818 
2796.000000	2.167677 
2795.000000	2.169585 
2794.000000	2.171421 
2793.000000	2.173209 
2792.000000	2.174901 
2791.000000	2.176523 
2790.000000	2.178072 
2789.000000	2.179622 
2788.000000	2.181172 
2787.000000	2.182793 
2786.000000	2.184581 
2785.000000	2.186465 
2784.000000	2.188515 
2783.000000	2.190709 
2782.000000	2.193021 
2781.000000	2.195405 
2780.000000	2.197790 
2779.000000	2.200126 
2778.000000	2.202367 
2777.000000	2.204418 
2776.000000	2.206325 
2775.000000	2.208042 
2774.000000	2.209591 
2773.000000	2.211046 
2772.000000	2.212405 
2771.000000	2.213788 
2770.000000	2.215147 
2769.000000	2.216553 
2768.000000	2.217912 
2767.000000	2.219247 
2766.000000	2.220487 
2765.000000	2.221608 
2764.000000	2.222585 
2763.000000	2.223443 
2762.000000	2.224206 
2761.000000	2.224922 
2760.000000	2.225637 
2759.000000	2.226352 
2758.000000	2.227115 
2757.000000	2.227878 
2756.000000	2.228665 
2755.000000	2.229404 
2754.000000	2.230072 
2753.000000	2.230668 
2752.000000	2.231192 
2751.000000	2.231669 
2750.000000	2.232074 
2749.000000	2.232503 
2748.000000	2.232956 
2747.000000	2.233433 
2746.000000	2.233910 
2745.000000	2.234411 
2744.000000	2.234888 
2743.000000	2.235317 
2742.000000	2.235746 
2741.000000	2.236104 
2740.000000	2.236437 
2739.000000	2.236723 
2738.000000	2.236986 
2737.000000	2.237296 
2736.000000	2.237606 
2735.000000	2.237963 
2734.000000	2.238368 
2733.000000	2.238726 
2732.000000	2.239060 
2731.000000	2.239346 
2730.000000	2.239513 
2729.000000	2.239561 
2728.000000	2.239489 
2727.000000	2.239346 
2726.000000	2.239108 
2725.000000	2.238917 
2724.000000	2.238702 
2723.000000	2.238464 
2722.000000	2.238273 
2721.000000	2.238082 
2720.000000	2.237820 
2719.000000	2.237534 
2718.000000	2.237153 
2717.000000	2.236723 
2716.000000	2.236270 
2715.000000	2.235817 
2714.000000	2.235436 
2713.000000	2.235102 
2712.000000	2.234864 
2711.000000	2.234673 
2710.000000	2.234482 
2709.000000	2.234292 
2708.000000	2.234053 
2707.000000	2.233672 
2706.000000	2.233195 
2705.000000	2.232575 
2704.000000	2.231788 
2703.000000	2.230930 
2702.000000	2.229952 
2701.000000	2.228999 
2700.000000	2.228021 
2699.000000	2.227115 
2698.000000	2.226328 
2697.000000	2.225565 
2696.000000	2.224922 
2695.000000	2.224302 
2694.000000	2.223753 
2693.000000	2.223205 
2692.000000	2.222657 
2691.000000	2.222156 
2690.000000	2.221632 
2689.000000	2.221107 
2688.000000	2.220559 
2687.000000	2.220082 
2686.000000	2.219629 
2685.000000	2.219223 
2684.000000	2.218890 
2683.000000	2.218627 
2682.000000	2.218389 
2681.000000	2.218246 
2680.000000	2.218055 
2679.000000	2.217864 
2678.000000	2.217507 
2677.000000	2.217054 
2676.000000	2.216410 
2675.000000	2.215623 
2674.000000	2.214694 
2673.000000	2.213621 
2672.000000	2.212500 
2671.000000	2.211427 
2670.000000	2.210378 
2669.000000	2.209424 
2668.000000	2.208566 
2667.000000	2.207851 
2666.000000	2.207207 
2665.000000	2.206635 
2664.000000	2.206087 
2663.000000	2.205514 
2662.000000	2.204942 
2661.000000	2.204346 
2660.000000	2.203679 
2659.000000	2.203011 
2658.000000	2.202391 
2657.000000	2.201795 
2656.000000	2.201318 
2655.000000	2.200913 
2654.000000	2.200579 
2653.000000	2.200365 
2652.000000	2.200126 
2651.000000	2.199888 
2650.000000	2.199649 
2649.000000	2.199387 
2648.000000	2.199101 
2647.000000	2.198886 
2646.000000	2.198648 
2645.000000	2.198457 
2644.000000	2.198362 
2643.000000	2.198314 
2642.000000	2.198266 
2641.000000	2.198266 
2640.000000	2.198266 
2639.000000	2.198290 
2638.000000	2.198290 
2637.000000	2.198362 
2636.000000	2.198410 
2635.000000	2.198481 
2634.000000	2.198600 
2633.000000	2.198719 
2632.000000	2.198815 
2631.000000	2.198886 
2630.000000	2.198863 
2629.000000	2.198791 
2628.000000	2.198600 
2627.000000	2.198386 
2626.000000	2.198147 
2625.000000	2.197933 
2624.000000	2.197837 
2623.000000	2.197790 
2622.000000	2.197957 
2621.000000	2.198314 
2620.000000	2.198839 
2619.000000	2.199506 
2618.000000	2.200293 
2617.000000	2.201080 
2616.000000	2.201819 
2615.000000	2.202486 
2614.000000	2.202987 
2613.000000	2.203345 
2612.000000	2.203559 
2611.000000	2.203679 
2610.000000	2.203726 
2609.000000	2.203702 
2608.000000	2.203655 
2607.000000	2.203583 
2606.000000	2.203488 
2605.000000	2.203392 
2604.000000	2.203226 
2603.000000	2.203035 
2602.000000	2.202796 
2601.000000	2.202534 
2600.000000	2.202320 
2599.000000	2.202200 
2598.000000	2.202224 
2597.000000	2.202463 
2596.000000	2.202892 
2595.000000	2.203583 
2594.000000	2.204537 
2593.000000	2.205705 
2592.000000	2.207064 
2591.000000	2.208542 
2590.000000	2.210068 
2589.000000	2.211594 
2588.000000	2.213048 
2587.000000	2.214384 
2586.000000	2.215576 
2585.000000	2.216672 
2584.000000	2.217698 
2583.000000	2.218675 
2582.000000	2.219724 
2581.000000	2.220869 
2580.000000	2.222180 
2579.000000	2.223682 
2578.000000	2.225399 
2577.000000	2.227306 
2576.000000	2.229332 
2575.000000	2.231383 
2574.000000	2.233433 
2573.000000	2.235364 
2572.000000	2.237129 
2571.000000	2.238702 
2570.000000	2.240157 
2569.000000	2.241468 
2568.000000	2.242708 
2567.000000	2.243876 
2566.000000	2.245020 
2565.000000	2.246165 
2564.000000	2.247285 
2563.000000	2.248382 
2562.000000	2.249479 
2561.000000	2.250504 
2560.000000	2.251505 
2559.000000	2.252459 
2558.000000	2.253460 
2557.000000	2.254462 
2556.000000	2.255558 
2555.000000	2.256703 
2554.000000	2.257943 
2553.000000	2.259254 
2552.000000	2.260613 
2551.000000	2.262043 
2550.000000	2.263474 
2549.000000	2.264952 
2548.000000	2.266407 
2547.000000	2.267909 
2546.000000	2.269411 
2545.000000	2.270913 
2544.000000	2.272415 
2543.000000	2.273917 
2542.000000	2.275395 
2541.000000	2.276802 
2540.000000	2.278137 
2539.000000	2.279353 
2538.000000	2.280402 
2537.000000	2.281308 
2536.000000	2.282071 
2535.000000	2.282738 
2534.000000	2.283334 
2533.000000	2.283906 
2532.000000	2.284502 
2531.000000	2.285075 
2530.000000	2.285695 
2529.000000	2.286314 
2528.000000	2.286911 
2527.000000	2.287459 
2526.000000	2.288007 
2525.000000	2.288603 
2524.000000	2.289199 
2523.000000	2.289938 
2522.000000	2.290797 
2521.000000	2.291846 
2520.000000	2.293062 
2519.000000	2.294421 
2518.000000	2.295851 
2517.000000	2.297306 
2516.000000	2.298688 
2515.000000	2.299928 
2514.000000	2.300977 
2513.000000	2.301764 
2512.000000	2.302289 
2511.000000	2.302598 
2510.000000	2.302718 
2509.000000	2.302694 
2508.000000	2.302527 
2507.000000	2.302384 
2506.000000	2.302241 
2505.000000	2.302145 
2504.000000	2.302074 
2503.000000	2.302002 
2502.000000	2.301931 
2501.000000	2.301788 
2500.000000	2.301573 
2499.000000	2.301383 
2498.000000	2.301144 
2497.000000	2.300953 
2496.000000	2.300906 
2495.000000	2.301025 
2494.000000	2.301263 
2493.000000	2.301669 
2492.000000	2.302217 
2491.000000	2.302789 
2490.000000	2.303338 
2489.000000	2.303791 
2488.000000	2.304100 
2487.000000	2.304244 
2486.000000	2.304220 
2485.000000	2.304053 
2484.000000	2.303791 
2483.000000	2.303481 
2482.000000	2.303147 
2481.000000	2.302813 
2480.000000	2.302455 
2479.000000	2.302122 
2478.000000	2.301788 
2477.000000	2.301406 
2476.000000	2.301049 
2475.000000	2.300620 
2474.000000	2.300143 
2473.000000	2.299594 
2472.000000	2.298951 
2471.000000	2.298235 
2470.000000	2.297472 
2469.000000	2.296638 
2468.000000	2.295756 
2467.000000	2.294826 
2466.000000	2.293920 
2465.000000	2.292990 
2464.000000	2.292132 
2463.000000	2.291250 
2462.000000	2.290439 
2461.000000	2.289652 
2460.000000	2.288913 
2459.000000	2.288174 
2458.000000	2.287387 
2457.000000	2.286529 
2456.000000	2.285623 
2455.000000	2.284646 
2454.000000	2.283573 
2453.000000	2.282428 
2452.000000	2.281236 
2451.000000	2.280020 
2450.000000	2.278804 
2449.000000	2.277612 
2448.000000	2.276468 
2447.000000	2.275371 
2446.000000	2.274346 
2445.000000	2.273368 
2444.000000	2.272439 
2443.000000	2.271509 
2442.000000	2.270603 
2441.000000	2.269649 
2440.000000	2.268671 
2439.000000	2.267646 
2438.000000	2.266526 
2437.000000	2.265381 
2436.000000	2.264237 
2435.000000	2.263092 
2434.000000	2.261996 
2433.000000	2.261018 
2432.000000	2.260112 
2431.000000	2.259349 
2430.000000	2.258706 
2429.000000	2.258133 
2428.000000	2.257537 
2427.000000	2.256941 
2426.000000	2.256321 
2425.000000	2.255606 
2424.000000	2.254819 
2423.000000	2.253937 
2422.000000	2.253031 
2421.000000	2.252101 
2420.000000	2.251195 
2419.000000	2.250266 
2418.000000	2.249336 
2417.000000	2.248358 
2416.000000	2.247333 
2415.000000	2.246260 
2414.000000	2.245116 
2413.000000	2.243924 
2412.000000	2.242732 
2411.000000	2.241587 
2410.000000	2.240514 
2409.000000	2.239608 
2408.000000	2.238845 
2407.000000	2.238225 
2406.000000	2.237677 
2405.000000	2.237272 
2404.000000	2.236866 
2403.000000	2.236509 
2402.000000	2.236175 
2401.000000	2.235746 
2400.000000	2.235293 
2399.000000	2.234792 
2398.000000	2.234244 
2397.000000	2.233552 
2396.000000	2.232766 
2395.000000	2.231931 
2394.000000	2.231025 
2393.000000	2.230048 
2392.000000	2.229118 
2391.000000	2.228260 
2390.000000	2.227497 
2389.000000	2.226877 
2388.000000	2.226376 
2387.000000	2.225971 
2386.000000	2.225565 
2385.000000	2.225184 
2384.000000	2.224707 
2383.000000	2.224111 
2382.000000	2.223396 
2381.000000	2.222609 
2380.000000	2.221751 
2379.000000	2.220869 
2378.000000	2.219963 
2377.000000	2.219128 
2376.000000	2.218341 
2375.000000	2.217602 
2374.000000	2.216863 
2373.000000	2.216124 
2372.000000	2.215385 
2371.000000	2.214622 
2370.000000	2.213835 
2369.000000	2.213025 
2368.000000	2.212262 
2367.000000	2.211570 
2366.000000	2.211022 
2365.000000	2.210712 
2364.000000	2.210640 
2363.000000	2.210950 
2362.000000	2.211618 
2361.000000	2.212691 
2360.000000	2.214145 
2359.000000	2.215862 
2358.000000	2.217888 
2357.000000	2.220082 
2356.000000	2.222394 
2355.000000	2.224707 
2354.000000	2.226972 
2353.000000	2.229118 
2352.000000	2.231073 
2351.000000	2.232837 
2350.000000	2.234363 
2349.000000	2.235627 
2348.000000	2.236652 
2347.000000	2.237510 
2346.000000	2.238178 
2345.000000	2.238750 
2344.000000	2.239274 
2343.000000	2.239799 
2342.000000	2.240371 
2341.000000	2.241039 
2340.000000	2.241778 
2339.000000	2.242612 
2338.000000	2.243518 
2337.000000	2.244496 
2336.000000	2.245569 
2335.000000	2.246737 
2334.000000	2.248048 
2333.000000	2.249455 
2332.000000	2.251076 
2331.000000	2.252864 
2330.000000	2.254796 
2329.000000	2.256894 
2328.000000	2.259063 
2327.000000	2.261281 
2326.000000	2.263522 
2325.000000	2.265763 
2324.000000	2.267932 
2323.000000	2.270030 
2322.000000	2.272081 
2321.000000	2.274060 
2320.000000	2.276086 
2319.000000	2.278161 
2318.000000	2.280282 
2317.000000	2.282524 
2316.000000	2.284908 
2315.000000	2.287364 
2314.000000	2.289795 
2313.000000	2.292180 
2312.000000	2.294468 
2311.000000	2.296543 
2310.000000	2.298426 
2309.000000	2.300095 
2308.000000	2.301549 
2307.000000	2.302861 
2306.000000	2.304100 
2305.000000	2.305269 
2304.000000	2.306461 
2303.000000	2.307605 
2302.000000	2.308773 
2301.000000	2.309989 
2300.000000	2.311253 
2299.000000	2.312541 
2298.000000	2.313876 
2297.000000	2.315235 
2296.000000	2.316617 
2295.000000	2.317976 
2294.000000	2.319335 
2293.000000	2.320671 
2292.000000	2.321910 
2291.000000	2.323079 
2290.000000	2.324175 
2289.000000	2.325248 
2288.000000	2.326297 
2287.000000	2.327394 
2286.000000	2.328515 
2285.000000	2.329707 
2284.000000	2.330923 
2283.000000	2.332186 
2282.000000	2.333498 
2281.000000	2.334785 
2280.000000	2.336049 
2279.000000	2.337265 
2278.000000	2.338433 
2277.000000	2.339506 
2276.000000	2.340507 
2275.000000	2.341341 
2274.000000	2.342128 
2273.000000	2.342796 
2272.000000	2.343368 
2271.000000	2.343869 
2270.000000	2.344226 
2269.000000	2.344536 
2268.000000	2.344775 
2267.000000	2.345013 
2266.000000	2.345204 
2265.000000	2.345371 
2264.000000	2.345609 
2263.000000	2.345871 
2262.000000	2.346181 
2261.000000	2.346563 
2260.000000	2.347040 
2259.000000	2.347588 
2258.000000	2.348232 
2257.000000	2.348899 
2256.000000	2.349638 
2255.000000	2.350306 
2254.000000	2.350926 
2253.000000	2.351522 
2252.000000	2.352046 
2251.000000	2.352476 
2250.000000	2.352857 
2249.000000	2.353215 
2248.000000	2.353572 
2247.000000	2.353858 
2246.000000	2.354097 
2245.000000	2.354240 
2244.000000	2.354288 
2243.000000	2.354216 
2242.000000	2.354049 
2241.000000	2.353763 
2240.000000	2.353405 
2239.000000	2.353000 
2238.000000	2.352643 
2237.000000	2.352309 
2236.000000	2.352046 
2235.000000	2.351856 
2234.000000	2.351737 
2233.000000	2.351641 
2232.000000	2.351546 
2231.000000	2.351427 
2230.000000	2.351212 
2229.000000	2.350878 
2228.000000	2.350449 
2227.000000	2.349901 
2226.000000	2.349257 
2225.000000	2.348566 
2224.000000	2.347874 
2223.000000	2.347207 
2222.000000	2.346515 
2221.000000	2.345895 
2220.000000	2.345275 
2219.000000	2.344679 
2218.000000	2.344059 
2217.000000	2.343416 
2216.000000	2.342772 
2215.000000	2.342104 
2214.000000	2.341389 
2213.000000	2.340698 
2212.000000	2.340030 
2211.000000	2.339386 
2210.000000	2.338767 
2209.000000	2.338147 
2208.000000	2.337503 
2207.000000	2.336812 
2206.000000	2.336025 
2205.000000	2.335190 
2204.000000	2.334284 
2203.000000	2.333283 
2202.000000	2.332258 
2201.000000	2.331233 
2200.000000	2.330231 
2199.000000	2.329277 
2198.000000	2.328372 
2197.000000	2.327585 
2196.000000	2.326869 
2195.000000	2.326178 
2194.000000	2.325510 
2193.000000	2.324891 
2192.000000	2.324271 
2191.000000	2.323651 
2190.000000	2.323007 
2189.000000	2.322363 
2188.000000	2.321696 
2187.000000	2.320981 
2186.000000	2.320241 
2185.000000	2.319431 
2184.000000	2.318596 
2183.000000	2.317786 
2182.000000	2.316951 
2181.000000	2.316164 
2180.000000	2.315425 
2179.000000	2.314758 
2178.000000	2.314138 
2177.000000	2.313542 
2176.000000	2.312970 
2175.000000	2.312374 
2174.000000	2.311754 
2173.000000	2.311110 
2172.000000	2.310442 
2171.000000	2.309799 
2170.000000	2.309131 
2169.000000	2.308487 
2168.000000	2.307868 
2167.000000	2.307319 
2166.000000	2.306795 
2165.000000	2.306342 
2164.000000	2.305960 
2163.000000	2.305626 
2162.000000	2.305364 
2161.000000	2.305150 
2160.000000	2.304959 
2159.000000	2.304744 
2158.000000	2.304506 
2157.000000	2.304220 
2156.000000	2.303934 
2155.000000	2.303600 
2154.000000	2.303314 
2153.000000	2.303004 
2152.000000	2.302742 
2151.000000	2.302551 
2150.000000	2.302455 
2149.000000	2.302503 
2148.000000	2.302718 
2147.000000	2.303075 
2146.000000	2.303552 
2145.000000	2.304124 
2144.000000	2.304720 
2143.000000	2.305269 
2142.000000	2.305674 
2141.000000	2.305912 
2140.000000	2.305984 
2139.000000	2.305841 
2138.000000	2.305603 
2137.000000	2.305269 
2136.000000	2.304983 
2135.000000	2.304697 
2134.000000	2.304553 
2133.000000	2.304482 
2132.000000	2.304530 
2131.000000	2.304697 
2130.000000	2.304887 
2129.000000	2.305150 
2128.000000	2.305340 
2127.000000	2.305483 
2126.000000	2.305555 
2125.000000	2.305507 
2124.000000	2.305364 
2123.000000	2.305150 
2122.000000	2.304887 
2121.000000	2.304625 
2120.000000	2.304410 
2119.000000	2.304220 
2118.000000	2.304148 
2117.000000	2.304172 
2116.000000	2.304315 
2115.000000	2.304553 
2114.000000	2.304887 
2113.000000	2.305293 
2112.000000	2.305746 
2111.000000	2.306199 
2110.000000	2.306747 
2109.000000	2.307271 
2108.000000	2.307820 
2107.000000	2.308320 
2106.000000	2.308750 
2105.000000	2.309060 
2104.000000	2.309203 
2103.000000	2.309226 
2102.000000	2.309060 
2101.000000	2.308773 
2100.000000	2.308320 
2099.000000	2.307748 
2098.000000	2.307105 
2097.000000	2.306437 
2096.000000	2.305746 
2095.000000	2.305173 
2094.000000	2.304720 
2093.000000	2.304482 
2092.000000	2.304458 
2091.000000	2.304673 
2090.000000	2.305102 
2089.000000	2.305769 
2088.000000	2.306580 
2087.000000	2.307486 
2086.000000	2.308368 
2085.000000	2.309226 
2084.000000	2.310085 
2083.000000	2.310895 
2082.000000	2.311706 
2081.000000	2.312636 
2080.000000	2.313661 
2079.000000	2.314877 
2078.000000	2.316260 
2077.000000	2.317833 
2076.000000	2.319526 
2075.000000	2.321314 
2074.000000	2.323126 
2073.000000	2.324914 
2072.000000	2.326679 
2071.000000	2.328372 
2070.000000	2.330088 
2069.000000	2.331852 
2068.000000	2.333688 
2067.000000	2.335596 
2066.000000	2.337574 
2065.000000	2.339649 
2064.000000	2.341747 
2063.000000	2.343821 
2062.000000	2.345895 
2061.000000	2.347946 
2060.000000	2.349972 
2059.000000	2.351927 
2058.000000	2.353858 
2057.000000	2.355718 
2056.000000	2.357578 
2055.000000	2.359366 
2054.000000	2.361154 
2053.000000	2.362918 
2052.000000	2.364706 
2051.000000	2.366495 
2050.000000	2.368378 
2049.000000	2.370357 
2048.000000	2.372431 
2047.000000	2.374577 
2046.000000	2.376818 
2045.000000	2.379083 
2044.000000	2.381372 
2043.000000	2.383613 
2042.000000	2.385759 
2041.000000	2.387881 
2040.000000	2.389907 
2039.000000	2.391862 
2038.000000	2.393817 
2037.000000	2.395701 
2036.000000	2.397537 
2035.000000	2.399277 
2034.000000	2.400898 
2033.000000	2.402400 
2032.000000	2.403736 
2031.000000	2.404999 
2030.000000	2.406096 
2029.000000	2.407097 
2028.000000	2.407979 
2027.000000	2.408790 
2026.000000	2.409505 
2025.000000	2.410173 
2024.000000	2.410840 
2023.000000	2.411437 
2022.000000	2.412033 
2021.000000	2.412700 
2020.000000	2.413487 
2019.000000	2.414321 
2018.000000	2.415323 
2017.000000	2.416419 
2016.000000	2.417564 
2015.000000	2.418756 
2014.000000	2.419900 
2013.000000	2.420949 
2012.000000	2.421832 
2011.000000	2.422547 
2010.000000	2.423143 
2009.000000	2.423596 
2008.000000	2.423906 
2007.000000	2.424144 
2006.000000	2.424311 
2005.000000	2.424454 
2004.000000	2.424573 
2003.000000	2.424669 
2002.000000	2.424740 
2001.000000	2.424812 
2000.000000	2.424931 
1999.000000	2.425074 
1998.000000	2.425241 
1997.000000	2.425456 
1996.000000	2.425646 
1995.000000	2.425789 
1994.000000	2.425861 
1993.000000	2.425813 
1992.000000	2.425575 
1991.000000	2.425217 
1990.000000	2.424716 
1989.000000	2.424120 
1988.000000	2.423477 
1987.000000	2.422857 
1986.000000	2.422285 
1985.000000	2.421832 
1984.000000	2.421450 
1983.000000	2.421092 
1982.000000	2.420783 
1981.000000	2.420473 
1980.000000	2.420020 
1979.000000	2.419424 
1978.000000	2.418637 
1977.000000	2.417635 
1976.000000	2.416372 
1975.000000	2.414965 
1974.000000	2.413415 
1973.000000	2.411794 
1972.000000	2.410197 
1971.000000	2.408695 
1970.000000	2.407360 
1969.000000	2.406263 
1968.000000	2.405405 
1967.000000	2.404761 
1966.000000	2.404332 
1965.000000	2.404046 
1964.000000	2.403855 
1963.000000	2.403640 
1962.000000	2.403378 
1961.000000	2.402973 
1960.000000	2.402400 
1959.000000	2.401685 
1958.000000	2.400779 
1957.000000	2.399730 
1956.000000	2.398586 
1955.000000	2.397370 
1954.000000	2.396178 
1953.000000	2.394986 
1952.000000	2.393841 
1951.000000	2.392697 
1950.000000	2.391552 
1949.000000	2.390360 
1948.000000	2.389121 
1947.000000	2.387809 
1946.000000	2.386498 
1945.000000	2.385187 
1944.000000	2.383923 
1943.000000	2.382779 
1942.000000	2.381753 
1941.000000	2.380871 
1940.000000	2.380156 
1939.000000	2.379512 
1938.000000	2.378916 
1937.000000	2.378296 
1936.000000	2.377605 
1935.000000	2.376842 
1934.000000	2.375984 
1933.000000	2.375054 
1932.000000	2.374029 
1931.000000	2.373027 
1930.000000	2.372026 
1929.000000	2.371048 
1928.000000	2.370119 
1927.000000	2.369260 
1926.000000	2.368402 
1925.000000	2.367568 
1924.000000	2.366662 
1923.000000	2.365708 
1922.000000	2.364611 
1921.000000	2.363419 
1920.000000	2.362108 
1919.000000	2.360749 
1918.000000	2.359390 
1917.000000	2.358126 
1916.000000	2.356958 
1915.000000	2.355909 
1914.000000	2.354979 
1913.000000	2.354192 
1912.000000	2.353429 
1911.000000	2.352762 
1910.000000	2.352094 
1909.000000	2.351427 
1908.000000	2.350735 
1907.000000	2.349996 
1906.000000	2.349209 
1905.000000	2.348399 
1904.000000	2.347517 
1903.000000	2.346634 
1902.000000	2.345705 
1901.000000	2.344822 
1900.000000	2.343940 
1899.000000	2.343130 
1898.000000	2.342343 
1897.000000	2.341604 
1896.000000	2.340936 
1895.000000	2.340316 
1894.000000	2.339696 
1893.000000	2.339148 
1892.000000	2.338647 
1891.000000	2.338242 
1890.000000	2.337980 
1889.000000	2.337837 
1888.000000	2.337837 
1887.000000	2.338027 
1886.000000	2.338361 
1885.000000	2.338790 
1884.000000	2.339339 
1883.000000	2.339911 
1882.000000	2.340507 
1881.000000	2.341103 
1880.000000	2.341651 
1879.000000	2.342104 
1878.000000	2.342462 
1877.000000	2.342677 
1876.000000	2.342748 
1875.000000	2.342700 
1874.000000	2.342557 
1873.000000	2.342367 
1872.000000	2.342295 
1871.000000	2.342319 
1870.000000	2.342534 
1869.000000	2.342963 
1868.000000	2.343678 
1867.000000	2.344489 
1866.000000	2.345490 
1865.000000	2.346587 
1864.000000	2.347755 
1863.000000	2.348899 
1862.000000	2.350044 
1861.000000	2.351140 
1860.000000	2.352166 
1859.000000	2.353143 
1858.000000	2.354073 
1857.000000	2.355003 
1856.000000	2.355861 
1855.000000	2.356624 
1854.000000	2.357220 
1853.000000	2.357649 
1852.000000	2.357864 
1851.000000	2.357864 
1850.000000	2.357649 
1849.000000	2.357268 
1848.000000	2.356886 
1847.000000	2.356600 
1846.000000	2.356576 
1845.000000	2.356886 
1844.000000	2.357625 
1843.000000	2.358794 
1842.000000	2.360248 
1841.000000	2.361917 
1840.000000	2.363681 
1839.000000	2.365374 
1838.000000	2.366828 
1837.000000	2.368021 
1836.000000	2.368855 
1835.000000	2.369403 
1834.000000	2.369713 
1833.000000	2.369832 
1832.000000	2.369856 
1831.000000	2.369928 
1830.000000	2.370071 
1829.000000	2.370429 
1828.000000	2.371048 
1827.000000	2.372026 
1826.000000	2.373361 
1825.000000	2.375006 
1824.000000	2.376914 
1823.000000	2.379035 
1822.000000	2.381205 
1821.000000	2.383351 
1820.000000	2.385330 
1819.000000	2.386999 
1818.000000	2.388358 
1817.000000	2.389407 
1816.000000	2.390146 
1815.000000	2.390646 
1814.000000	2.391004 
1813.000000	2.391362 
1812.000000	2.391719 
1811.000000	2.392148 
1810.000000	2.392649 
1809.000000	2.393221 
1808.000000	2.393817 
1807.000000	2.394342 
1806.000000	2.394795 
1805.000000	2.395081 
1804.000000	2.395200 
1803.000000	2.395153 
1802.000000	2.394890 
1801.000000	2.394390 
1800.000000	2.393722 
1799.000000	2.392911 
1798.000000	2.391958 
1797.000000	2.390980 
1796.000000	2.390122 
1795.000000	2.389430 
1794.000000	2.389049 
1793.000000	2.389049 
1792.000000	2.389407 
1791.000000	2.390074 
1790.000000	2.390885 
1789.000000	2.391695 
1788.000000	2.392482 
1787.000000	2.393031 
1786.000000	2.393269 
1785.000000	2.393174 
1784.000000	2.392864 
1783.000000	2.392268 
1782.000000	2.391481 
1781.000000	2.390456 
1780.000000	2.389144 
1779.000000	2.387571 
1778.000000	2.385759 
1777.000000	2.383756 
1776.000000	2.381682 
1775.000000	2.379655 
1774.000000	2.377915 
1773.000000	2.376604 
1772.000000	2.375817 
1771.000000	2.375578 
1770.000000	2.375769 
1769.000000	2.376294 
1768.000000	2.376937 
1767.000000	2.377414 
1766.000000	2.377629 
1765.000000	2.377510 
1764.000000	2.377033 
1763.000000	2.376198 
1762.000000	2.375102 
1761.000000	2.373790 
1760.000000	2.372288 
1759.000000	2.370524 
1758.000000	2.368402 
1757.000000	2.365994 
1756.000000	2.363228 
1755.000000	2.360081 
1754.000000	2.356696 
1753.000000	2.353143 
1752.000000	2.349662 
1751.000000	2.346348 
1750.000000	2.343297 
1749.000000	2.340555 
1748.000000	2.338099 
1747.000000	2.335739 
1746.000000	2.333354 
1745.000000	2.330756 
1744.000000	2.327752 
1743.000000	2.324223 
1742.000000	2.320051 
1741.000000	2.315258 
1740.000000	2.309966 
1739.000000	2.304410 
1738.000000	2.298974 
1737.000000	2.293896 
1736.000000	2.289628 
1735.000000	2.286410 
1734.000000	2.284479 
1733.000000	2.283811 
1732.000000	2.284264 
1731.000000	2.285623 
1730.000000	2.287507 
1729.000000	2.289390 
1728.000000	2.290940 
1727.000000	2.291750 
1726.000000	2.291584 
1725.000000	2.290344 
1724.000000	2.288055 
1723.000000	2.284860 
1722.000000	2.281069 
1721.000000	2.277064 
1720.000000	2.273225 
1719.000000	2.269864 
1718.000000	2.267265 
1717.000000	2.265572 
1716.000000	2.264809 
1715.000000	2.264738 
1714.000000	2.265071 
1713.000000	2.265524 
1712.000000	2.265667 
1711.000000	2.265119 
1710.000000	2.263689 
1709.000000	2.261257 
1708.000000	2.257800 
1707.000000	2.253365 
1706.000000	2.248191 
1705.000000	2.242541 
1704.000000	2.236676 
1703.000000	2.230906 
1702.000000	2.225542 
1701.000000	2.220988 
1700.000000	2.217483 
1699.000000	2.215266 
1698.000000	2.214384 
1697.000000	2.214813 
1696.000000	2.216267 
1695.000000	2.218389 
1694.000000	2.220582 
1693.000000	2.222299 
1692.000000	2.223062 
1691.000000	2.222490 
1690.000000	2.220535 
1689.000000	2.217340 
1688.000000	2.213335 
1687.000000	2.209043 
1686.000000	2.205085 
1685.000000	2.201962 
1684.000000	2.199935 
1683.000000	2.199101 
1682.000000	2.199244 
1681.000000	2.199983 
1680.000000	2.200865 
1679.000000	2.201461 
1678.000000	2.201461 
1677.000000	2.200746 
1676.000000	2.199339 
1675.000000	2.197456 
1674.000000	2.195286 
1673.000000	2.193117 
1672.000000	2.191042 
1671.000000	2.189230 
1670.000000	2.187657 
1669.000000	2.186274 
1668.000000	2.185010 
1667.000000	2.183818 
1666.000000	2.182579 
1665.000000	2.181220 
1664.000000	2.179598 
1663.000000	2.177500 
1662.000000	2.174758 
1661.000000	2.171182 
1660.000000	2.166604 
1659.000000	2.161002 
1658.000000	2.154612 
1657.000000	2.147722 
1656.000000	2.140831 
1655.000000	2.134442 
1654.000000	2.129054 
1653.000000	2.124953 
1652.000000	2.122354 
1651.000000	2.121090 
1650.000000	2.121043 
1649.000000	2.121829 
1648.000000	2.123069 
1647.000000	2.124381 
1646.000000	2.125501 
1645.000000	2.126169 
1644.000000	2.126145 
1643.000000	2.125358 
1642.000000	2.123808 
1641.000000	2.121615 
1640.000000	2.118825 
1639.000000	2.115702 
1638.000000	2.112507 
1637.000000	2.109503 
1636.000000	2.106928 
1635.000000	2.104902 
1634.000000	2.103304 
1633.000000	2.102041 
1632.000000	2.100872 
1631.000000	2.099466 
1630.000000	2.097630 
1629.000000	2.095174 
1628.000000	2.092051 
1627.000000	2.088189 
1626.000000	2.083706 
1625.000000	2.078604 
1624.000000	2.072882 
1623.000000	2.066564 
1622.000000	2.059578 
1621.000000	2.051901 
1620.000000	2.043604 
1619.000000	2.034711 
1618.000000	2.025294 
1617.000000	2.015471 
1616.000000	2.005410 
1615.000000	1.995348 
1614.000000	1.985406 
1613.000000	1.975822 
1612.000000	1.966810 
1611.000000	1.958656 
1610.000000	1.951599 
1609.000000	1.945996 
1608.000000	1.942038 
1607.000000	1.939821 
1606.000000	1.939368 
1605.000000	1.940584 
1604.000000	1.943135 
1603.000000	1.946735 
1602.000000	1.951050 
1601.000000	1.955699 
1600.000000	1.960396 
1599.000000	1.964902 
1598.000000	1.969075 
1597.000000	1.972842 
1596.000000	1.976132 
1595.000000	1.978850 
1594.000000	1.980948 
1593.000000	1.982522 
1592.000000	1.983499 
1591.000000	1.983928 
1590.000000	1.983809 
1589.000000	1.983237 
1588.000000	1.982212 
1587.000000	1.980876 
1586.000000	1.979207 
1585.000000	1.977229 
1584.000000	1.974844 
1583.000000	1.972079 
1582.000000	1.969003 
1581.000000	1.965713 
1580.000000	1.962304 
1579.000000	1.959013 
1578.000000	1.956057 
1577.000000	1.953601 
1576.000000	1.951742 
1575.000000	1.950478 
1574.000000	1.949691 
1573.000000	1.949214 
1572.000000	1.948785 
1571.000000	1.948165 
1570.000000	1.947116 
1569.000000	1.945328 
1568.000000	1.942539 
1567.000000	1.938652 
1566.000000	1.933550 
1565.000000	1.927304 
1564.000000	1.920247 
1563.000000	1.912808 
1562.000000	1.905560 
1561.000000	1.899170 
1560.000000	1.894378 
1559.000000	1.891636 
1558.000000	1.891207 
1557.000000	1.893043 
1556.000000	1.896810 
1555.000000	1.901960 
1554.000000	1.907777 
1553.000000	1.913571 
1552.000000	1.918721 
1551.000000	1.922750 
1550.000000	1.925420 
1549.000000	1.926732 
1548.000000	1.926803 
1547.000000	1.925969 
1546.000000	1.924777 
1545.000000	1.923823 
1544.000000	1.923847 
1543.000000	1.925468 
1542.000000	1.929259 
1541.000000	1.935577 
1540.000000	1.944398 
1539.000000	1.955699 
1538.000000	1.968932 
1537.000000	1.983451 
1536.000000	1.998448 
1535.000000	2.013254 
1534.000000	2.027106 
1533.000000	2.039504 
1532.000000	2.050089 
1531.000000	2.058720 
1530.000000	2.065467 
1529.000000	2.070403 
1528.000000	2.073645 
1527.000000	2.075624 
1526.000000	2.076530 
1525.000000	2.076649 
1524.000000	2.076292 
1523.000000	2.075695 
1522.000000	2.075076 
1521.000000	2.074503 
1520.000000	2.074074 
1519.000000	2.073645 
1518.000000	2.073168 
1517.000000	2.072429 
1516.000000	2.071285 
1515.000000	2.069401 
1514.000000	2.066707 
1513.000000	2.063107 
1512.000000	2.058529 
1511.000000	2.052903 
1510.000000	2.046251 
1509.000000	2.038383 
1508.000000	2.029085 
1507.000000	2.017617 
1506.000000	2.003335 
1505.000000	1.985287 
1504.000000	1.962614 
1503.000000	1.934814 
1502.000000	1.901817 
1501.000000	1.864218 
1500.000000	1.823449 
1499.000000	1.781630 
1498.000000	1.741385 
1497.000000	1.705431 
1496.000000	1.676487 
1495.000000	1.656508 
1494.000000	1.646733 
1493.000000	1.647353 
1492.000000	1.657843 
1491.000000	1.676630 
1490.000000	1.701784 
1489.000000	1.731061 
1488.000000	1.762461 
1487.000000	1.793861 
1486.000000	1.823854 
1485.000000	1.851105 
1484.000000	1.875019 
1483.000000	1.895165 
1482.000000	1.911425 
1481.000000	1.923966 
1480.000000	1.933073 
1479.000000	1.939344 
1478.000000	1.943254 
1477.000000	1.945424 
1476.000000	1.946306 
1475.000000	1.946425 
1474.000000	1.946139 
1473.000000	1.945519 
1472.000000	1.944613 
1471.000000	1.943397 
1470.000000	1.941704 
1469.000000	1.939225 
1468.000000	1.935744 
1467.000000	1.931095 
1466.000000	1.925110 
1465.000000	1.917457 
1464.000000	1.907968 
1463.000000	1.896572 
1462.000000	1.883196 
1461.000000	1.867914 
1460.000000	1.850867 
1459.000000	1.832532 
1458.000000	1.813530 
1457.000000	1.794743 
1456.000000	1.777052 
1455.000000	1.761412 
1454.000000	1.748800 
1453.000000	1.740074 
1452.000000	1.735615 
1451.000000	1.735615 
1450.000000	1.739859 
1449.000000	1.747751 
1448.000000	1.758408 
1447.000000	1.770687 
1446.000000	1.783514 
1445.000000	1.795816 
1444.000000	1.806807 
1443.000000	1.815962 
1442.000000	1.823067 
1441.000000	1.828265 
1440.000000	1.831817 
1439.000000	1.834201 
1438.000000	1.835799 
1437.000000	1.837062 
1436.000000	1.838111 
1435.000000	1.839137 
1434.000000	1.840066 
1433.000000	1.840829 
1432.000000	1.841473 
1431.000000	1.841831 
1430.000000	1.841926 
1429.000000	1.841735 
1428.000000	1.841330 
1427.000000	1.840639 
1426.000000	1.839661 
1425.000000	1.838397 
1424.000000	1.836872 
1423.000000	1.835036 
1422.000000	1.832938 
1421.000000	1.830625 
1420.000000	1.828169 
1419.000000	1.825547 
1418.000000	1.822757 
1417.000000	1.819610 
1416.000000	1.815843 
1415.000000	1.811194 
1414.000000	1.805329 
1413.000000	1.797986 
1412.000000	1.789021 
1411.000000	1.778483 
1410.000000	1.766610 
1409.000000	1.753878 
1408.000000	1.740980 
1407.000000	1.728630 
1406.000000	1.717638 
1405.000000	1.708722 
1404.000000	1.702404 
1403.000000	1.699042 
1402.000000	1.698684 
1401.000000	1.701068 
1400.000000	1.705908 
1399.000000	1.712632 
1398.000000	1.720595 
1397.000000	1.729106 
1396.000000	1.737618 
1395.000000	1.745486 
1394.000000	1.752185 
1393.000000	1.757478 
1392.000000	1.761150 
1391.000000	1.763153 
1390.000000	1.763725 
1389.000000	1.763153 
1388.000000	1.761937 
1387.000000	1.760554 
1386.000000	1.759529 
1385.000000	1.759171 
1384.000000	1.759743 
1383.000000	1.761293 
1382.000000	1.763653 
1381.000000	1.766681 
1380.000000	1.769948 
1379.000000	1.773214 
1378.000000	1.776266 
1377.000000	1.778984 
1376.000000	1.781296 
1375.000000	1.783204 
1374.000000	1.784801 
1373.000000	1.786160 
1372.000000	1.787281 
1371.000000	1.788234 
1370.000000	1.788973 
1369.000000	1.789498 
1368.000000	1.789808 
1367.000000	1.789927 
1366.000000	1.789927 
1365.000000	1.789832 
1364.000000	1.789712 
1363.000000	1.789641 
1362.000000	1.789617 
1361.000000	1.789641 
1360.000000	1.789689 
1359.000000	1.789736 
1358.000000	1.789736 
1357.000000	1.789593 
1356.000000	1.789426 
1355.000000	1.789188 
1354.000000	1.788902 
1353.000000	1.788640 
1352.000000	1.788401 
1351.000000	1.788187 
1350.000000	1.788067 
1349.000000	1.787972 
1348.000000	1.787781 
1347.000000	1.787567 
1346.000000	1.787233 
1345.000000	1.786851 
1344.000000	1.786494 
1343.000000	1.786231 
1342.000000	1.786279 
1341.000000	1.786708 
1340.000000	1.787614 
1339.000000	1.789116 
1338.000000	1.791191 
1337.000000	1.793766 
1336.000000	1.796770 
1335.000000	1.799941 
1334.000000	1.803159 
1333.000000	1.806259 
1332.000000	1.809096 
1331.000000	1.811623 
1330.000000	1.813793 
1329.000000	1.815629 
1328.000000	1.817178 
1327.000000	1.818490 
1326.000000	1.819729 
1325.000000	1.820850 
1324.000000	1.821970 
1323.000000	1.823115 
1322.000000	1.824235 
1321.000000	1.825284 
1320.000000	1.826262 
1319.000000	1.827073 
1318.000000	1.827669 
1317.000000	1.828074 
1316.000000	1.828217 
1315.000000	1.828193 
1314.000000	1.828050 
1313.000000	1.827836 
1312.000000	1.827645 
1311.000000	1.827502 
1310.000000	1.827430 
1309.000000	1.827502 
1308.000000	1.827597 
1307.000000	1.827740 
1306.000000	1.827859 
1305.000000	1.827907 
1304.000000	1.827883 
1303.000000	1.827788 
1302.000000	1.827573 
1301.000000	1.827263 
1300.000000	1.826906 
1299.000000	1.826524 
1298.000000	1.826167 
1297.000000	1.825785 
1296.000000	1.825523 
1295.000000	1.825356 
1294.000000	1.825237 
1293.000000	1.825213 
1292.000000	1.825237 
1291.000000	1.825332 
1290.000000	1.825428 
1289.000000	1.825523 
1288.000000	1.825571 
1287.000000	1.825523 
1286.000000	1.825428 
1285.000000	1.825141 
1284.000000	1.824688 
1283.000000	1.823973 
1282.000000	1.823043 
1281.000000	1.821732 
1280.000000	1.820015 
1279.000000	1.817798 
1278.000000	1.815032 
1277.000000	1.811599 
1276.000000	1.807308 
1275.000000	1.802110 
1274.000000	1.795864 
1273.000000	1.788473 
1272.000000	1.779937 
1271.000000	1.770234 
1270.000000	1.759576 
1269.000000	1.748180 
1268.000000	1.736474 
1267.000000	1.725029 
1266.000000	1.714348 
1265.000000	1.705050 
1264.000000	1.697731 
1263.000000	1.692819 
1262.000000	1.690697 
1261.000000	1.691460 
1260.000000	1.695060 
1259.000000	1.701116 
1258.000000	1.709270 
1257.000000	1.718974 
1256.000000	1.729607 
1255.000000	1.740550 
1254.000000	1.751255 
1253.000000	1.761364 
1252.000000	1.770591 
1251.000000	1.778674 
1250.000000	1.785612 
1249.000000	1.791357 
1248.000000	1.796007 
1247.000000	1.799654 
1246.000000	1.802468 
1245.000000	1.804566 
1244.000000	1.806116 
1243.000000	1.807212 
1242.000000	1.808023 
1241.000000	1.808500 
1240.000000	1.808810 
1239.000000	1.808905 
1238.000000	1.808857 
1237.000000	1.808595 
1236.000000	1.808190 
1235.000000	1.807641 
1234.000000	1.806902 
1233.000000	1.805996 
1232.000000	1.804971 
1231.000000	1.803827 
1230.000000	1.802587 
1229.000000	1.801204 
1228.000000	1.799631 
1227.000000	1.797866 
1226.000000	1.795840 
1225.000000	1.793503 
1224.000000	1.790809 
1223.000000	1.787662 
1222.000000	1.784133 
1221.000000	1.780200 
1220.000000	1.775956 
1219.000000	1.771402 
1218.000000	1.766610 
1217.000000	1.761698 
1216.000000	1.756668 
1215.000000	1.751756 
1214.000000	1.746988 
1213.000000	1.742458 
1212.000000	1.738309 
1211.000000	1.734614 
1210.000000	1.731491 
1209.000000	1.728916 
1208.000000	1.726937 
1207.000000	1.725530 
1206.000000	1.724600 
1205.000000	1.724076 
1204.000000	1.723861 
1203.000000	1.723837 
1202.000000	1.724004 
1201.000000	1.724171 
1200.000000	1.724314 
1199.000000	1.724410 
1198.000000	1.724338 
1197.000000	1.724028 
1196.000000	1.723480 
1195.000000	1.722645 
1194.000000	1.721405 
1193.000000	1.719880 
1192.000000	1.718115 
1191.000000	1.716089 
1190.000000	1.713943 
1189.000000	1.711678 
1188.000000	1.709342 
1187.000000	1.707005 
1186.000000	1.704668 
1185.000000	1.702380 
1184.000000	1.700115 
1183.000000	1.697874 
1182.000000	1.695632 
1181.000000	1.693391 
1180.000000	1.691079 
1179.000000	1.688694 
1178.000000	1.686143 
1177.000000	1.683425 
1176.000000	1.680469 
1175.000000	1.677298 
1174.000000	1.673865 
1173.000000	1.670193 
1172.000000	1.666283 
1171.000000	1.662230 
1170.000000	1.657986 
1169.000000	1.653599 
1168.000000	1.649045 
1167.000000	1.644372 
1166.000000	1.639533 
1165.000000	1.634621 
1164.000000	1.629614 
1163.000000	1.624703 
1162.000000	1.619887 
1161.000000	1.615428 
1160.000000	1.611351 
1159.000000	1.607775 
1158.000000	1.604747 
1157.000000	1.602196 
1156.000000	1.600122 
1155.000000	1.598358 
1154.000000	1.596856 
1153.000000	1.595473 
1152.000000	1.594161 
1151.000000	1.592826 
1150.000000	1.591396 
1149.000000	1.589918 
1148.000000	1.588296 
1147.000000	1.586580 
1146.000000	1.584720 
1145.000000	1.582694 
1144.000000	1.580548 
1143.000000	1.578235 
1142.000000	1.575756 
1141.000000	1.573109 
1140.000000	1.570296 
1139.000000	1.567339 
1138.000000	1.564168 
1137.000000	1.560831 
1136.000000	1.557350 
1135.000000	1.553654 
1134.000000	1.549792 
1133.000000	1.545739 
1132.000000	1.541519 
1131.000000	1.537132 
1130.000000	1.532626 
1129.000000	1.528024 
1128.000000	1.523303 
1127.000000	1.518464 
1126.000000	1.513481 
1125.000000	1.508426 
1124.000000	1.503252 
1123.000000	1.497983 
1122.000000	1.492667 
1121.000000	1.487302 
1120.000000	1.481962 
1119.000000	1.476716 
1118.000000	1.471567 
1117.000000	1.466536 
1116.000000	1.461648 
1115.000000	1.456928 
1114.000000	1.452326 
1113.000000	1.447892 
1112.000000	1.443600 
1111.000000	1.439428 
1110.000000	1.435470 
1109.000000	1.431703 
1108.000000	1.428246 
1107.000000	1.425004 
1106.000000	1.422071 
1105.000000	1.419448 
1104.000000	1.417112 
1103.000000	1.415085 
1102.000000	1.413321 
1101.000000	1.411819 
1100.000000	1.410603 
1099.000000	1.409649 
1098.000000	1.408958 
1097.000000	1.408553 
1096.000000	1.408386 
1095.000000	1.408410 
1094.000000	1.408648 
1093.000000	1.409053 
1092.000000	1.409578 
1091.000000	1.410245 
1090.000000	1.411008 
1089.000000	1.411819 
1088.000000	1.412582 
1087.000000	1.413297 
1086.000000	1.413822 
1085.000000	1.414060 
1084.000000	1.413965 
1083.000000	1.413512 
1082.000000	1.412796 
1081.000000	1.411914 
1080.000000	1.410961 
1079.000000	1.410222 
1078.000000	1.409745 
1077.000000	1.409721 
1076.000000	1.410198 
1075.000000	1.411151 
1074.000000	1.412510 
1073.000000	1.414155 
1072.000000	1.415991 
1071.000000	1.417779 
1070.000000	1.419472 
1069.000000	1.420927 
1068.000000	1.422071 
1067.000000	1.422858 
1066.000000	1.423215 
1065.000000	1.423048 
1064.000000	1.422142 
1063.000000	1.420259 
1062.000000	1.417088 
1061.000000	1.412248 
1060.000000	1.405382 
1059.000000	1.396179 
1058.000000	1.384615 
1057.000000	1.370859 
1056.000000	1.355457 
1055.000000	1.339364 
1054.000000	1.323556 
1053.000000	1.309418 
1052.000000	1.298141 
1051.000000	1.290678 
1050.000000	1.287651 
1049.000000	1.289153 
1048.000000	1.294803 
1047.000000	1.303648 
1046.000000	1.314663 
1045.000000	1.326465 
1044.000000	1.338028 
1043.000000	1.348304 
1042.000000	1.356792 
1041.000000	1.363182 
1040.000000	1.367497 
1039.000000	1.370072 
1038.000000	1.371169 
1037.000000	1.371216 
1036.000000	1.370501 
1035.000000	1.369237 
1034.000000	1.367640 
1033.000000	1.365733 
1032.000000	1.363563 
1031.000000	1.361227 
1030.000000	1.358771 
1029.000000	1.356267 
1028.000000	1.353812 
1027.000000	1.351523 
1026.000000	1.349472 
1025.000000	1.347684 
1024.000000	1.346302 
1023.000000	1.345300 
1022.000000	1.344728 
1021.000000	1.344585 
1020.000000	1.344847 
1019.000000	1.345586 
1018.000000	1.346755 
1017.000000	1.348328 
1016.000000	1.350259 
1015.000000	1.352500 
1014.000000	1.355004 
1013.000000	1.357698 
1012.000000	1.360511 
1011.000000	1.363325 
1010.000000	1.366090 
1009.000000	1.368761 
1008.000000	1.371264 
1007.000000	1.373553 
1006.000000	1.375579 
1005.000000	1.377296 
1004.000000	1.378679 
1003.000000	1.379728 
1002.000000	1.380419 
1001.000000	1.380848 
1000.000000	1.381039 
999.000000	 1.381063 
998.000000	 1.380944 
997.000000	 1.380753 
996.000000	 1.380538 
995.000000	 1.380252 
994.000000	 1.379871 
993.000000	 1.379370 
992.000000	 1.378679 
991.000000	 1.377797 
990.000000	 1.376700 
989.000000	 1.375365 
988.000000	 1.373887 
987.000000	 1.372313 
986.000000	 1.370692 
985.000000	 1.369023 
984.000000	 1.367330 
983.000000	 1.365637 
982.000000	 1.363921 
981.000000	 1.362156 
980.000000	 1.360225 
979.000000	 1.358199 
978.000000	 1.356005 
977.000000	 1.353669 
976.000000	 1.351141 
975.000000	 1.348495 
974.000000	 1.345753 
973.000000	 1.342916 
972.000000	 1.340007 
971.000000	 1.337003 
970.000000	 1.333951 
969.000000	 1.330757 
968.000000	 1.327490 
967.000000	 1.324129 
966.000000	 1.320624 
965.000000	 1.317000 
964.000000	 1.313304 
963.000000	 1.309585 
962.000000	 1.305866 
961.000000	 1.302194 
960.000000	 1.298618 
959.000000	 1.295137 
958.000000	 1.291751 
957.000000	 1.288461 
956.000000	 1.285195 
955.000000	 1.281976 
954.000000	 1.278758 
953.000000	 1.275515 
952.000000	 1.272296 
951.000000	 1.269149 
950.000000	 1.266145 
949.000000	 1.263284 
948.000000	 1.260662 
947.000000	 1.258230 
946.000000	 1.255989 
945.000000	 1.253938 
944.000000	 1.252007 
943.000000	 1.250147 
942.000000	 1.248335 
941.000000	 1.246523 
940.000000	 1.244688 
939.000000	 1.242828 
938.000000	 1.240873 
937.000000	 1.238870 
936.000000	 1.236772 
935.000000	 1.234602 
934.000000	 1.232337 
933.000000	 1.229953 
932.000000	 1.227474 
931.000000	 1.224994 
930.000000	 1.222467 
929.000000	 1.219940 
928.000000	 1.217484 
927.000000	 1.215171 
926.000000	 1.212930 
925.000000	 1.210832 
924.000000	 1.208806 
923.000000	 1.206779 
922.000000	 1.204752 
921.000000	 1.202583 
920.000000	 1.200270 
919.000000	 1.197624 
918.000000	 1.194691 
917.000000	 1.191401 
916.000000	 1.187777 
915.000000	 1.183867 
914.000000	 1.179790 
913.000000	 1.175642 
912.000000	 1.171565 
911.000000	 1.167607 
910.000000	 1.163887 
909.000000	 1.160478 
908.000000	 1.157307 
907.000000	 1.154398 
906.000000	 1.151752 
905.000000	 1.149272 
904.000000	 1.146984 
903.000000	 1.144909 
902.000000	 1.142978 
901.000000	 1.141285 
900.000000	 1.139783 
899.000000	 1.138448 
898.000000	 1.137208 
897.000000	 1.136016 
896.000000	 1.134777 
895.000000	 1.133275 
894.000000	 1.131391 
893.000000	 1.129055 
892.000000	 1.126050 
891.000000	 1.122307 
890.000000	 1.117777 
889.000000	 1.112365 
888.000000	 1.106119 
887.000000	 1.099014 
886.000000	 1.091098 
885.000000	 1.082491 
884.000000	 1.073408 
883.000000	 1.064014 
882.000000	 1.054596 
881.000000	 1.045536 
880.000000	 1.037120 
879.000000	 1.029682 
878.000000	 1.023626 
877.000000	 1.019215 
876.000000	 1.016569 
875.000000	 1.015853 
874.000000	 1.017045 
873.000000	 1.019978 
872.000000	 1.024413 
871.000000	 1.030087 
870.000000	 1.036548 
869.000000	 1.043462 
868.000000	 1.050424 
867.000000	 1.057076 
866.000000	 1.063156 
865.000000	 1.068353 
864.000000	 1.072692 
863.000000	 1.076054 
862.000000	 1.078438 
861.000000	 1.079916 
860.000000	 1.080679 
859.000000	 1.080846 
858.000000	 1.080584 
857.000000	 1.079964 
856.000000	 1.079106 
855.000000	 1.078152 
854.000000	 1.077127 
853.000000	 1.076030 
852.000000	 1.074934 
851.000000	 1.073813 
850.000000	 1.072716 
849.000000	 1.071596 
848.000000	 1.070451 
847.000000	 1.069259 
846.000000	 1.067948 
845.000000	 1.066446 
844.000000	 1.064538 
843.000000	 1.062130 
842.000000	 1.059007 
841.000000	 1.055026 
840.000000	 1.049900 
839.000000	 1.043558 
838.000000	 1.035618 
837.000000	 1.026010 
836.000000	 1.014542 
835.000000	 1.001095 
834.000000	 0.985670 
833.000000	 0.968384 
832.000000	 0.949549 
831.000000	 0.929665 
830.000000	 0.909495 
829.000000	 0.889897 
828.000000	 0.871920 
827.000000	 0.856566 
826.000000	 0.844740 
825.000000	 0.837111 
824.000000	 0.833988 
823.000000	 0.835347 
822.000000	 0.840735 
821.000000	 0.849366 
820.000000	 0.860285 
819.000000	 0.872492 
818.000000	 0.884866 
817.000000	 0.896549 
816.000000	 0.906991 
815.000000	 0.915718 
814.000000	 0.922679 
813.000000	 0.927829 
812.000000	 0.931453 
811.000000	 0.933766 
810.000000	 0.935125 
809.000000	 0.935626 
808.000000	 0.935626 
807.000000	 0.935339 
806.000000	 0.934791 
805.000000	 0.934195 
804.000000	 0.933623 
803.000000	 0.933194 
802.000000	 0.932955 
801.000000	 0.932955 
800.000000	 0.933265 
799.000000	 0.933957 
798.000000	 0.934982 
797.000000	 0.936317 
796.000000	 0.938010 
795.000000	 0.940036 
794.000000	 0.942277 
793.000000	 0.944757 
792.000000	 0.947356 
791.000000	 0.950074 
790.000000	 0.952816 
789.000000	 0.955486 
788.000000	 0.958037 
787.000000	 0.960445 
786.000000	 0.962615 
785.000000	 0.964570 
784.000000	 0.966167 
783.000000	 0.967454 
782.000000	 0.968313 
781.000000	 0.968861 
780.000000	 0.969076 
779.000000	 0.968980 
778.000000	 0.968647 
777.000000	 0.968146 
776.000000	 0.967478 
775.000000	 0.966691 
774.000000	 0.965857 
773.000000	 0.964975 
772.000000	 0.964069 
771.000000	 0.963115 
770.000000	 0.962209 
769.000000	 0.961351 
768.000000	 0.960564 
767.000000	 0.959897 
766.000000	 0.959324 
765.000000	 0.958847 
764.000000	 0.958418 
763.000000	 0.957989 
762.000000	 0.957512 
761.000000	 0.956916 
760.000000	 0.956106 
759.000000	 0.954985 
758.000000	 0.953650 
757.000000	 0.952076 
756.000000	 0.950288 
755.000000	 0.948357 
754.000000	 0.946378 
753.000000	 0.944399 
752.000000	 0.942492 
751.000000	 0.940704 
750.000000	 0.939083 
749.000000	 0.937604 
748.000000	 0.936293 
747.000000	 0.935077 
746.000000	 0.933933 
745.000000	 0.932788 
744.000000	 0.931596 
743.000000	 0.930285 
742.000000	 0.928831 
741.000000	 0.927209 
740.000000	 0.925421 
739.000000	 0.923395 
738.000000	 0.921177 
737.000000	 0.918698 
736.000000	 0.916028 
735.000000	 0.913166 
734.000000	 0.910139 
733.000000	 0.907039 
732.000000	 0.903916 
731.000000	 0.900793 
730.000000	 0.897741 
729.000000	 0.894808 
728.000000	 0.892019 
727.000000	 0.889325 
726.000000	 0.886750 
725.000000	 0.884222 
724.000000	 0.881719 
723.000000	 0.879120 
722.000000	 0.876426 
721.000000	 0.873613 
720.000000	 0.870704 
719.000000	 0.867676 
718.000000	 0.864553 
717.000000	 0.861406 
716.000000	 0.858306 
715.000000	 0.855278 
714.000000	 0.852274 
713.000000	 0.849342 
712.000000	 0.846433 
711.000000	 0.843524 
710.000000	 0.840544 
709.000000	 0.837516 
708.000000	 0.834393 
707.000000	 0.831174 
706.000000	 0.827813 
705.000000	 0.824308 
704.000000	 0.820612 
703.000000	 0.816774 
702.000000	 0.812721 
701.000000	 0.808382 
700.000000	 0.803780 
699.000000	 0.798845 
698.000000	 0.793504 
697.000000	 0.787687 
696.000000	 0.781393 
695.000000	 0.774598 
694.000000	 0.767374 
693.000000	 0.759887 
692.000000	 0.752329 
691.000000	 0.744962 
690.000000	 0.738143 
689.000000	 0.732207 
688.000000	 0.727438 
687.000000	 0.723958 
686.000000	 0.721883 
685.000000	 0.721073 
684.000000	 0.721263 
683.000000	 0.722241 
682.000000	 0.723576 
681.000000	 0.725007 
680.000000	 0.726222 
679.000000	 0.727033 
678.000000	 0.727343 
677.000000	 0.727128 
676.000000	 0.726342 
675.000000	 0.725030 
674.000000	 0.723290 
673.000000	 0.721168 
672.000000	 0.718736 
671.000000	 0.716090 
670.000000	 0.713300 
669.000000	 0.710439 
668.000000	 0.707626 
667.000000	 0.704884 
666.000000	 0.702261 
665.000000	 0.699758 
664.000000	 0.697350 
663.000000	 0.695013 
662.000000	 0.692725 
661.000000	 0.690412 
660.000000	 0.688076 
659.000000	 0.685715 
658.000000	 0.683307 
657.000000	 0.680899 
656.000000	 0.678443 
655.000000	 0.675940 
654.000000	 0.673413 
653.000000	 0.670766 
652.000000	 0.668048 
651.000000	 0.665235 
650.000000	 0.662302 
649.000000	 0.659346 
648.000000	 0.656390 
647.000000	 0.653457 
646.000000	 0.650644 
645.000000	 0.647974 
644.000000	 0.645422 
643.000000	 0.642991 
642.000000	 0.640654 
641.000000	 0.638389 
640.000000	 0.636148 
639.000000	 0.633907 
638.000000	 0.631690 
637.000000	 0.629448 
636.000000	 0.627207 
635.000000	 0.624942 
634.000000	 0.622701 
633.000000	 0.620436 
632.000000	 0.618124 
631.000000	 0.615787 
630.000000	 0.613403 
629.000000	 0.610899 
628.000000	 0.608253 
627.000000	 0.605511 
626.000000	 0.602698 
625.000000	 0.599765 
624.000000	 0.596785 
623.000000	 0.593709 
622.000000	 0.590538 
621.000000	 0.587320 
620.000000	 0.583934 
619.000000	 0.580453 
618.000000	 0.576734 
617.000000	 0.572824 
616.000000	 0.568628 
615.000000	 0.564169 
614.000000	 0.559473 
613.000000	 0.554537 
612.000000	 0.549459 
611.000000	 0.544381 
610.000000	 0.539374 
609.000000	 0.534653 
608.000000	 0.530409 
607.000000	 0.526762 
606.000000	 0.523829 
605.000000	 0.521659 
604.000000	 0.520157 
603.000000	 0.519227 
602.000000	 0.518751 
601.000000	 0.518465 
600.000000	 0.518226 
599.000000	 0.517892 
598.000000	 0.517392 
597.000000	 0.516653 
596.000000	 0.515723 
595.000000	 0.514721 
594.000000	 0.513672 
593.000000	 0.512599 
592.000000	 0.511503 
591.000000	 0.510454 
590.000000	 0.509262 
589.000000	 0.508046 
588.000000	 0.506734 
587.000000	 0.505352 
586.000000	 0.503897 
585.000000	 0.502467 
584.000000	 0.501132 
583.000000	 0.499916 
582.000000	 0.498771 
581.000000	 0.497770 
580.000000	 0.496888 
579.000000	 0.496077 
578.000000	 0.495290 
577.000000	 0.494527 
576.000000	 0.493717 
575.000000	 0.492835 
574.000000	 0.491905 
573.000000	 0.490832 
572.000000	 0.489687 
571.000000	 0.488471 
570.000000	 0.487160 
569.000000	 0.485849 
568.000000	 0.484514 
567.000000	 0.483226 
566.000000	 0.481986 
565.000000	 0.480771 
564.000000	 0.479555 
563.000000	 0.478315 
562.000000	 0.477027 
561.000000	 0.475668 
560.000000	 0.474262 
559.000000	 0.472760 
558.000000	 0.471210 
557.000000	 0.469613 
556.000000	 0.467991 
555.000000	 0.466322 
554.000000	 0.464630 
553.000000	 0.462913 
552.000000	 0.461101 
551.000000	 0.459241 
550.000000	 0.457334 
549.000000	 0.455355 
548.000000	 0.453376 
547.000000	 0.451397 
546.000000	 0.449466 
545.000000	 0.447607 
544.000000	 0.445795 
543.000000	 0.444078 
542.000000	 0.442385 
541.000000	 0.440788 
540.000000	 0.439190 
539.000000	 0.437641 
538.000000	 0.436091 
537.000000	 0.434494 
536.000000	 0.432848 
535.000000	 0.431132 
534.000000	 0.429296 
533.000000	 0.427317 
532.000000	 0.425171 
531.000000	 0.422835 
530.000000	 0.420355 
529.000000	 0.417661 
528.000000	 0.414848 
527.000000	 0.411915 
526.000000	 0.408911 
525.000000	 0.405931 
524.000000	 0.402998 
523.000000	 0.400185 
522.000000	 0.397539 
521.000000	 0.395035 
520.000000	 0.392699 
519.000000	 0.390481 
518.000000	 0.388336 
517.000000	 0.386261 
516.000000	 0.384187 
515.000000	 0.382161 
514.000000	 0.380110 
513.000000	 0.378036 
512.000000	 0.375890 
511.000000	 0.373721 
510.000000	 0.371479 
509.000000	 0.369143 
508.000000	 0.366735 
507.000000	 0.364184 
506.000000	 0.361561 
505.000000	 0.358796 
504.000000	 0.355911 
503.000000	 0.352907 
502.000000	 0.349760 
501.000000	 0.346469 
500.000000	 0.343012 
499.000000	 0.339436 
498.000000	 0.335812 
497.000000	 0.332117 
496.000000	 0.328445 
495.000000	 0.324869 
494.000000	 0.321412 
493.000000	 0.318098 
492.000000	 0.314974 
491.000000	 0.311946 
490.000000	 0.308942 
489.000000	 0.305914 
488.000000	 0.302743 
487.000000	 0.299453 
486.000000	 0.295948 
485.000000	 0.292301 
484.000000	 0.288486 
483.000000	 0.284624 
482.000000	 0.280809 
481.000000	 0.277042 
480.000000	 0.273394 
479.000000	 0.269889 
478.000000	 0.266504 
477.000000	 0.263285 
476.000000	 0.260114 
475.000000	 0.257062 
474.000000	 0.254058 
473.000000	 0.251126 
472.000000	 0.248265 
471.000000	 0.245451 
470.000000	 0.242638 
469.000000	 0.239777 
468.000000	 0.236868 
467.000000	 0.233864 
466.000000	 0.230717 
465.000000	 0.227427 
464.000000	 0.223970 
463.000000	 0.220346 
462.000000	 0.216579 
461.000000	 0.212717 
460.000000	 0.208783 
459.000000	 0.204801 
458.000000	 0.200819 
457.000000	 0.196838 
456.000000	 0.192928 
455.000000	 0.189161 
454.000000	 0.185585 
453.000000	 0.182175 
452.000000	 0.179028 
451.000000	 0.176119 
450.000000	 0.173425 
449.000000	 0.170922 
448.000000	 0.168514 
447.000000	 0.166153 
446.000000	 0.163841 
445.000000	 0.161457 
444.000000	 0.159072 
443.000000	 0.156664 
442.000000	 0.154232 
441.000000	 0.151777 
440.000000	 0.149321 
439.000000	 0.146842 
438.000000	 0.144338 
437.000000	 0.141763 
436.000000	 0.139093 
435.000000	 0.136303 
434.000000	 0.133299 
433.000000	 0.130152 
432.000000	 0.126791 
431.000000	 0.123286 
430.000000	 0.119638 
429.000000	 0.115847 
428.000000	 0.112009 
427.000000	 0.108122 
426.000000	 0.104308 
425.000000	 0.100564 
424.000000	 0.096964 
423.000000	 0.093579 
422.000000	 0.090432 
421.000000	 0.087523 
420.000000	 0.084877 
419.000000	 0.082421 
418.000000	 0.080132 
417.000000	 0.077962 
416.000000	 0.075817 
415.000000	 0.073719 
414.000000	 0.071573 
413.000000	 0.069403 
412.000000	 0.067138 
411.000000	 0.064826 
410.000000	 0.062441 
409.000000	 0.059938 
408.000000	 0.057291 
407.000000	 0.054526 
406.000000	 0.051593 
405.000000	 0.048542 
404.000000	 0.045394 
403.000000	 0.042247 
402.000000	 0.039172 
401.000000	 0.036334 
400.000000	 0.033760 
399.000000	 0.031566 
398.000000	 0.029754 
397.000000	 0.028252 
396.000000	 0.027036 
395.000000	 0.026059 
394.000000	 0.025153 
393.000000	 0.024271 
392.000000	 0.023388 
391.000000	 0.022506 
390.000000	 0.021624 
389.000000	 0.020790 
388.000000	 0.019979 
387.000000	 0.019240 
386.000000	 0.018572 
385.000000	 0.017929 
384.000000	 0.017285 
383.000000	 0.016593 
382.000000	 0.015878 
381.000000	 0.015115 
380.000000	 0.014281 
379.000000	 0.013494 
378.000000	 0.012683 
377.000000	 0.011897 
376.000000	 0.011205 
375.000000	 0.010561 
374.000000	 0.009942 
373.000000	 0.009322 
372.000000	 0.008726 
371.000000	 0.008106 
370.000000	 0.007486 

