PE IR       SPECTRUM    SPECTRUM    ASCII       PEDS        1.60        
  -1
LP091C~1.ASC
17/05/19
21:39:18.00
17/05/19
21:39:18.00
tln
$LPE454_e0126$<ebV0>[-23.3,12.1,10.0,0.0,27,1,0]
370.000000
64









2002,4.07    
MIRTGS : RIGHTBACK : INTERNAL 2
MIR : ON : INTERNAL 2
OPTKBR

0.200000
8
8.000000
FILLER
SINGLE
SPECTRUM
UNLOCKED 256

DOUBLE

COMBINED
1
0
0


1.000000
BACKG


1
0
TRUE
51149
0
LEFT NOT FITTED RIGHT NOT FITTED 0
NONE
NONE
15600
12.000000
4.427000
51148
TRUE
1 0 8 72 0 0 0 0 

15798.010000






#HDR
-1
-1
#GR
CM-1
EGY
0.00002384185791015625
0.0
5000.000000
-1.000000
4631
8
2.426052
0.005221
#DATA
5000.000000	0.768780 
4999.000000	0.769162 
4998.000000	0.769519 
4997.000000	0.769901 
4996.000000	0.770330 
4995.000000	0.770854 
4994.000000	0.771450 
4993.000000	0.772190 
4992.000000	0.772929 
4991.000000	0.773668 
4990.000000	0.774335 
4989.000000	0.774931 
4988.000000	0.775361 
4987.000000	0.775623 
4986.000000	0.775694 
4985.000000	0.775671 
4984.000000	0.775575 
4983.000000	0.775456 
4982.000000	0.775480 
4981.000000	0.775647 
4980.000000	0.776028 
4979.000000	0.776576 
4978.000000	0.777387 
4977.000000	0.778341 
4976.000000	0.779342 
4975.000000	0.780272 
4974.000000	0.781130 
4973.000000	0.781846 
4972.000000	0.782418 
4971.000000	0.782823 
4970.000000	0.783133 
4969.000000	0.783419 
4968.000000	0.783681 
4967.000000	0.784015 
4966.000000	0.784420 
4965.000000	0.784897 
4964.000000	0.785446 
4963.000000	0.786089 
4962.000000	0.786781 
4961.000000	0.787496 
4960.000000	0.788235 
4959.000000	0.788998 
4958.000000	0.789761 
4957.000000	0.790500 
4956.000000	0.791168 
4955.000000	0.791788 
4954.000000	0.792264 
4953.000000	0.792646 
4952.000000	0.792884 
4951.000000	0.792980 
4950.000000	0.792956 
4949.000000	0.792932 
4948.000000	0.792908 
4947.000000	0.792908 
4946.000000	0.792956 
4945.000000	0.793051 
4944.000000	0.793194 
4943.000000	0.793385 
4942.000000	0.793576 
4941.000000	0.793814 
4940.000000	0.794053 
4939.000000	0.794363 
4938.000000	0.794768 
4937.000000	0.795269 
4936.000000	0.795888 
4935.000000	0.796532 
4934.000000	0.797224 
4933.000000	0.797939 
4932.000000	0.798559 
4931.000000	0.799036 
4930.000000	0.799369 
4929.000000	0.799512 
4928.000000	0.799512 
4927.000000	0.799489 
4926.000000	0.799393 
4925.000000	0.799345 
4924.000000	0.799393 
4923.000000	0.799608 
4922.000000	0.799942 
4921.000000	0.800418 
4920.000000	0.801086 
4919.000000	0.801801 
4918.000000	0.802516 
4917.000000	0.803184 
4916.000000	0.803756 
4915.000000	0.804233 
4914.000000	0.804543 
4913.000000	0.804781 
4912.000000	0.804948 
4911.000000	0.805115 
4910.000000	0.805377 
4909.000000	0.805735 
4908.000000	0.806236 
4907.000000	0.806879 
4906.000000	0.807619 
4905.000000	0.808405 
4904.000000	0.809240 
4903.000000	0.810074 
4902.000000	0.810813 
4901.000000	0.811553 
4900.000000	0.812292 
4899.000000	0.813031 
4898.000000	0.813746 
4897.000000	0.814509 
4896.000000	0.815248 
4895.000000	0.815916 
4894.000000	0.816488 
4893.000000	0.816845 
4892.000000	0.817036 
4891.000000	0.817036 
4890.000000	0.816893 
4889.000000	0.816655 
4888.000000	0.816416 
4887.000000	0.816249 
4886.000000	0.816226 
4885.000000	0.816321 
4884.000000	0.816607 
4883.000000	0.817012 
4882.000000	0.817561 
4881.000000	0.818157 
4880.000000	0.818800 
4879.000000	0.819373 
4878.000000	0.819921 
4877.000000	0.820398 
4876.000000	0.820779 
4875.000000	0.821042 
4874.000000	0.821280 
4873.000000	0.821471 
4872.000000	0.821638 
4871.000000	0.821828 
4870.000000	0.822043 
4869.000000	0.822305 
4868.000000	0.822710 
4867.000000	0.823163 
4866.000000	0.823760 
4865.000000	0.824427 
4864.000000	0.825214 
4863.000000	0.826072 
4862.000000	0.826930 
4861.000000	0.827836 
4860.000000	0.828647 
4859.000000	0.829362 
4858.000000	0.830030 
4857.000000	0.830531 
4856.000000	0.830864 
4855.000000	0.831079 
4854.000000	0.831174 
4853.000000	0.831198 
4852.000000	0.831174 
4851.000000	0.831198 
4850.000000	0.831294 
4849.000000	0.831556 
4848.000000	0.831985 
4847.000000	0.832605 
4846.000000	0.833392 
4845.000000	0.834321 
4844.000000	0.835371 
4843.000000	0.836443 
4842.000000	0.837469 
4841.000000	0.838446 
4840.000000	0.839304 
4839.000000	0.840067 
4838.000000	0.840711 
4837.000000	0.841331 
4836.000000	0.841903 
4835.000000	0.842475 
4834.000000	0.843095 
4833.000000	0.843739 
4832.000000	0.844478 
4831.000000	0.845265 
4830.000000	0.846147 
4829.000000	0.847053 
4828.000000	0.847983 
4827.000000	0.848960 
4826.000000	0.849914 
4825.000000	0.850939 
4824.000000	0.851917 
4823.000000	0.852894 
4822.000000	0.853872 
4821.000000	0.854825 
4820.000000	0.855731 
4819.000000	0.856590 
4818.000000	0.857377 
4817.000000	0.858044 
4816.000000	0.858545 
4815.000000	0.858950 
4814.000000	0.859308 
4813.000000	0.859618 
4812.000000	0.859999 
4811.000000	0.860404 
4810.000000	0.860977 
4809.000000	0.861692 
4808.000000	0.862479 
4807.000000	0.863361 
4806.000000	0.864219 
4805.000000	0.865101 
4804.000000	0.865888 
4803.000000	0.866603 
4802.000000	0.867247 
4801.000000	0.867843 
4800.000000	0.868415 
4799.000000	0.868964 
4798.000000	0.869560 
4797.000000	0.870156 
4796.000000	0.870752 
4795.000000	0.871372 
4794.000000	0.872015 
4793.000000	0.872659 
4792.000000	0.873303 
4791.000000	0.874018 
4790.000000	0.874781 
4789.000000	0.875592 
4788.000000	0.876426 
4787.000000	0.877261 
4786.000000	0.878024 
4785.000000	0.878667 
4784.000000	0.879192 
4783.000000	0.879549 
4782.000000	0.879788 
4781.000000	0.879883 
4780.000000	0.879931 
4779.000000	0.880002 
4778.000000	0.880146 
4777.000000	0.880384 
4776.000000	0.880765 
4775.000000	0.881338 
4774.000000	0.882053 
4773.000000	0.882911 
4772.000000	0.883841 
4771.000000	0.884819 
4770.000000	0.885748 
4769.000000	0.886559 
4768.000000	0.887274 
4767.000000	0.887846 
4766.000000	0.888299 
4765.000000	0.888705 
4764.000000	0.889110 
4763.000000	0.889539 
4762.000000	0.890088 
4761.000000	0.890660 
4760.000000	0.891280 
4759.000000	0.891923 
4758.000000	0.892543 
4757.000000	0.893115 
4756.000000	0.893568 
4755.000000	0.893950 
4754.000000	0.894212 
4753.000000	0.894379 
4752.000000	0.894522 
4751.000000	0.894665 
4750.000000	0.894784 
4749.000000	0.894904 
4748.000000	0.895023 
4747.000000	0.895214 
4746.000000	0.895452 
4745.000000	0.895762 
4744.000000	0.896143 
4743.000000	0.896573 
4742.000000	0.897073 
4741.000000	0.897574 
4740.000000	0.898075 
4739.000000	0.898551 
4738.000000	0.898981 
4737.000000	0.899362 
4736.000000	0.899744 
4735.000000	0.900125 
4734.000000	0.900506 
4733.000000	0.900912 
4732.000000	0.901269 
4731.000000	0.901675 
4730.000000	0.902032 
4729.000000	0.902342 
4728.000000	0.902605 
4727.000000	0.902819 
4726.000000	0.903010 
4725.000000	0.903153 
4724.000000	0.903344 
4723.000000	0.903534 
4722.000000	0.903797 
4721.000000	0.904083 
4720.000000	0.904440 
4719.000000	0.904774 
4718.000000	0.905156 
4717.000000	0.905537 
4716.000000	0.905942 
4715.000000	0.906372 
4714.000000	0.906801 
4713.000000	0.907230 
4712.000000	0.907683 
4711.000000	0.908041 
4710.000000	0.908350 
4709.000000	0.908541 
4708.000000	0.908613 
4707.000000	0.908589 
4706.000000	0.908541 
4705.000000	0.908517 
4704.000000	0.908541 
4703.000000	0.908637 
4702.000000	0.908803 
4701.000000	0.909018 
4700.000000	0.909209 
4699.000000	0.909423 
4698.000000	0.909566 
4697.000000	0.909662 
4696.000000	0.909805 
4695.000000	0.909924 
4694.000000	0.910139 
4693.000000	0.910449 
4692.000000	0.910782 
4691.000000	0.911164 
4690.000000	0.911498 
4689.000000	0.911664 
4688.000000	0.911569 
4687.000000	0.911211 
4686.000000	0.910568 
4685.000000	0.909662 
4684.000000	0.908541 
4683.000000	0.907397 
4682.000000	0.906229 
4681.000000	0.905203 
4680.000000	0.904369 
4679.000000	0.903844 
4678.000000	0.903701 
4677.000000	0.903916 
4676.000000	0.904464 
4675.000000	0.905370 
4674.000000	0.906443 
4673.000000	0.907635 
4672.000000	0.908875 
4671.000000	0.909972 
4670.000000	0.910878 
4669.000000	0.911521 
4668.000000	0.911951 
4667.000000	0.912117 
4666.000000	0.912141 
4665.000000	0.912141 
4664.000000	0.912141 
4663.000000	0.912237 
4662.000000	0.912404 
4661.000000	0.912618 
4660.000000	0.912833 
4659.000000	0.913047 
4658.000000	0.913166 
4657.000000	0.913238 
4656.000000	0.913238 
4655.000000	0.913166 
4654.000000	0.913023 
4653.000000	0.912809 
4652.000000	0.912570 
4651.000000	0.912308 
4650.000000	0.912094 
4649.000000	0.911998 
4648.000000	0.912189 
4647.000000	0.912618 
4646.000000	0.913333 
4645.000000	0.914287 
4644.000000	0.915336 
4643.000000	0.916433 
4642.000000	0.917410 
4641.000000	0.918245 
4640.000000	0.918841 
4639.000000	0.919294 
4638.000000	0.919628 
4637.000000	0.919914 
4636.000000	0.920248 
4635.000000	0.920677 
4634.000000	0.921249 
4633.000000	0.921964 
4632.000000	0.922799 
4631.000000	0.923633 
4630.000000	0.924468 
4629.000000	0.925135 
4628.000000	0.925588 
4627.000000	0.925755 
4626.000000	0.925564 
4625.000000	0.925087 
4624.000000	0.924491 
4623.000000	0.923943 
4622.000000	0.923752 
4621.000000	0.924158 
4620.000000	0.925374 
4619.000000	0.927329 
4618.000000	0.929808 
4617.000000	0.932693 
4616.000000	0.935721 
4615.000000	0.938701 
4614.000000	0.941371 
4613.000000	0.943493 
4612.000000	0.944828 
4611.000000	0.945281 
4610.000000	0.945043 
4609.000000	0.944232 
4608.000000	0.943183 
4607.000000	0.942325 
4606.000000	0.941944 
4605.000000	0.942158 
4604.000000	0.942826 
4603.000000	0.943613 
4602.000000	0.944161 
4601.000000	0.944137 
4600.000000	0.943589 
4599.000000	0.942659 
4598.000000	0.941705 
4597.000000	0.940680 
4596.000000	0.939297 
4595.000000	0.936412 
4594.000000	0.929856 
4593.000000	0.917434 
4592.000000	0.896883 
4591.000000	0.867462 
4590.000000	0.830125 
4589.000000	0.788569 
4588.000000	0.748348 
4587.000000	0.716114 
4586.000000	0.698184 
4585.000000	0.698995 
4584.000000	0.719833 
4583.000000	0.758433 
4582.000000	0.809431 
4581.000000	0.865435 
4580.000000	0.918722 
4579.000000	0.962638 
4578.000000	0.993180 
4577.000000	1.009178 
4576.000000	1.012372 
4575.000000	1.006245 
4574.000000	0.995087 
4573.000000	0.982713 
4572.000000	0.971817 
4571.000000	0.963687 
4570.000000	0.958251 
4569.000000	0.955033 
4568.000000	0.953173 
4567.000000	0.952196 
4566.000000	0.951790 
4565.000000	0.951886 
4564.000000	0.952720 
4563.000000	0.954341 
4562.000000	0.956630 
4561.000000	0.959396 
4560.000000	0.962257 
4559.000000	0.964665 
4558.000000	0.966334 
4557.000000	0.967097 
4556.000000	0.966954 
4555.000000	0.966000 
4554.000000	0.964522 
4553.000000	0.962853 
4552.000000	0.961303 
4551.000000	0.960254 
4550.000000	0.959825 
4549.000000	0.960087 
4548.000000	0.961160 
4547.000000	0.963068 
4546.000000	0.965619 
4545.000000	0.968551 
4544.000000	0.971436 
4543.000000	0.974059 
4542.000000	0.976252 
4541.000000	0.977945 
4540.000000	0.979185 
4539.000000	0.979971 
4538.000000	0.980544 
4537.000000	0.980997 
4536.000000	0.981402 
4535.000000	0.981879 
4534.000000	0.982475 
4533.000000	0.983142 
4532.000000	0.983881 
4531.000000	0.984668 
4530.000000	0.985479 
4529.000000	0.986242 
4528.000000	0.986957 
4527.000000	0.987577 
4526.000000	0.988078 
4525.000000	0.988411 
4524.000000	0.988554 
4523.000000	0.988554 
4522.000000	0.988411 
4521.000000	0.988221 
4520.000000	0.988101 
4519.000000	0.988125 
4518.000000	0.988459 
4517.000000	0.989151 
4516.000000	0.990223 
4515.000000	0.991606 
4514.000000	0.993251 
4513.000000	0.994920 
4512.000000	0.996518 
4511.000000	0.997877 
4510.000000	0.998806 
4509.000000	0.999331 
4508.000000	0.999402 
4507.000000	0.999069 
4506.000000	0.998473 
4505.000000	0.997757 
4504.000000	0.997066 
4503.000000	0.996518 
4502.000000	0.996160 
4501.000000	0.996065 
4500.000000	0.996232 
4499.000000	0.996589 
4498.000000	0.997138 
4497.000000	0.997829 
4496.000000	0.998616 
4495.000000	0.999498 
4494.000000	1.000475 
4493.000000	1.001548 
4492.000000	1.002669 
4491.000000	1.003813 
4490.000000	1.004981 
4489.000000	1.006126 
4488.000000	1.007080 
4487.000000	1.007866 
4486.000000	1.008367 
4485.000000	1.008653 
4484.000000	1.008701 
4483.000000	1.008605 
4482.000000	1.008391 
4481.000000	1.008129 
4480.000000	1.007938 
4479.000000	1.007771 
4478.000000	1.007652 
4477.000000	1.007580 
4476.000000	1.007556 
4475.000000	1.007580 
4474.000000	1.007652 
4473.000000	1.007795 
4472.000000	1.007962 
4471.000000	1.008176 
4470.000000	1.008439 
4469.000000	1.008725 
4468.000000	1.009035 
4467.000000	1.009368 
4466.000000	1.009702 
4465.000000	1.010084 
4464.000000	1.010465 
4463.000000	1.010823 
4462.000000	1.011157 
4461.000000	1.011443 
4460.000000	1.011681 
4459.000000	1.011848 
4458.000000	1.011919 
4457.000000	1.011943 
4456.000000	1.011943 
4455.000000	1.011943 
4454.000000	1.011991 
4453.000000	1.012158 
4452.000000	1.012396 
4451.000000	1.012706 
4450.000000	1.013040 
4449.000000	1.013374 
4448.000000	1.013660 
4447.000000	1.013875 
4446.000000	1.013970 
4445.000000	1.013994 
4444.000000	1.013898 
4443.000000	1.013708 
4442.000000	1.013517 
4441.000000	1.013302 
4440.000000	1.013159 
4439.000000	1.013112 
4438.000000	1.013135 
4437.000000	1.013255 
4436.000000	1.013541 
4435.000000	1.013922 
4434.000000	1.014375 
4433.000000	1.014924 
4432.000000	1.015448 
4431.000000	1.016020 
4430.000000	1.016569 
4429.000000	1.017093 
4428.000000	1.017594 
4427.000000	1.018047 
4426.000000	1.018404 
4425.000000	1.018714 
4424.000000	1.018953 
4423.000000	1.019072 
4422.000000	1.019072 
4421.000000	1.018977 
4420.000000	1.018810 
4419.000000	1.018571 
4418.000000	1.018381 
4417.000000	1.018238 
4416.000000	1.018166 
4415.000000	1.018214 
4414.000000	1.018428 
4413.000000	1.018762 
4412.000000	1.019191 
4411.000000	1.019716 
4410.000000	1.020359 
4409.000000	1.020956 
4408.000000	1.021575 
4407.000000	1.022148 
4406.000000	1.022648 
4405.000000	1.023054 
4404.000000	1.023364 
4403.000000	1.023578 
4402.000000	1.023697 
4401.000000	1.023769 
4400.000000	1.023793 
4399.000000	1.023793 
4398.000000	1.023793 
4397.000000	1.023840 
4396.000000	1.023888 
4395.000000	1.023960 
4394.000000	1.024055 
4393.000000	1.024150 
4392.000000	1.024293 
4391.000000	1.024484 
4390.000000	1.024723 
4389.000000	1.025056 
4388.000000	1.025509 
4387.000000	1.026058 
4386.000000	1.026678 
4385.000000	1.027417 
4384.000000	1.028203 
4383.000000	1.028990 
4382.000000	1.029777 
4381.000000	1.030564 
4380.000000	1.031327 
4379.000000	1.032114 
4378.000000	1.032876 
4377.000000	1.033639 
4376.000000	1.034355 
4375.000000	1.035094 
4374.000000	1.035785 
4373.000000	1.036453 
4372.000000	1.037120 
4371.000000	1.037716 
4370.000000	1.038289 
4369.000000	1.038837 
4368.000000	1.039409 
4367.000000	1.039981 
4366.000000	1.040649 
4365.000000	1.041388 
4364.000000	1.042246 
4363.000000	1.043152 
4362.000000	1.044178 
4361.000000	1.045250 
4360.000000	1.046371 
4359.000000	1.047492 
4358.000000	1.048541 
4357.000000	1.049542 
4356.000000	1.050424 
4355.000000	1.051235 
4354.000000	1.051950 
4353.000000	1.052594 
4352.000000	1.053190 
4351.000000	1.053833 
4350.000000	1.054525 
4349.000000	1.055288 
4348.000000	1.056122 
4347.000000	1.057076 
4346.000000	1.058101 
4345.000000	1.059126 
4344.000000	1.060175 
4343.000000	1.061177 
4342.000000	1.062178 
4341.000000	1.063203 
4340.000000	1.064229 
4339.000000	1.065349 
4338.000000	1.066541 
4337.000000	1.067829 
4336.000000	1.069164 
4335.000000	1.070523 
4334.000000	1.071882 
4333.000000	1.073193 
4332.000000	1.074457 
4331.000000	1.075625 
4330.000000	1.076698 
4329.000000	1.077723 
4328.000000	1.078724 
4327.000000	1.079678 
4326.000000	1.080584 
4325.000000	1.081466 
4324.000000	1.082324 
4323.000000	1.083207 
4322.000000	1.084113 
4321.000000	1.085066 
4320.000000	1.086139 
4319.000000	1.087284 
4318.000000	1.088571 
4317.000000	1.089882 
4316.000000	1.091265 
4315.000000	1.092696 
4314.000000	1.094102 
4313.000000	1.095509 
4312.000000	1.096868 
4311.000000	1.098203 
4310.000000	1.099538 
4309.000000	1.100802 
4308.000000	1.101994 
4307.000000	1.103138 
4306.000000	1.104211 
4305.000000	1.105260 
4304.000000	1.106238 
4303.000000	1.107215 
4302.000000	1.108217 
4301.000000	1.109361 
4300.000000	1.110553 
4299.000000	1.111912 
4298.000000	1.113343 
4297.000000	1.114845 
4296.000000	1.116442 
4295.000000	1.118016 
4294.000000	1.119589 
4293.000000	1.121163 
4292.000000	1.122665 
4291.000000	1.124167 
4290.000000	1.125574 
4289.000000	1.126956 
4288.000000	1.128268 
4287.000000	1.129484 
4286.000000	1.130580 
4285.000000	1.131582 
4284.000000	1.132512 
4283.000000	1.133322 
4282.000000	1.134061 
4281.000000	1.134729 
4280.000000	1.135444 
4279.000000	1.136136 
4278.000000	1.136922 
4277.000000	1.137804 
4276.000000	1.138806 
4275.000000	1.139950 
4274.000000	1.141214 
4273.000000	1.142597 
4272.000000	1.144027 
4271.000000	1.145458 
4270.000000	1.146888 
4269.000000	1.148152 
4268.000000	1.149320 
4267.000000	1.150321 
4266.000000	1.151132 
4265.000000	1.151823 
4264.000000	1.152443 
4263.000000	1.153063 
4262.000000	1.153731 
4261.000000	1.154541 
4260.000000	1.155424 
4259.000000	1.156449 
4258.000000	1.157522 
4257.000000	1.158666 
4256.000000	1.159763 
4255.000000	1.160812 
4254.000000	1.161766 
4253.000000	1.162648 
4252.000000	1.163482 
4251.000000	1.164269 
4250.000000	1.165056 
4249.000000	1.165819 
4248.000000	1.166534 
4247.000000	1.167249 
4246.000000	1.167893 
4245.000000	1.168513 
4244.000000	1.169085 
4243.000000	1.169562 
4242.000000	1.170063 
4241.000000	1.170563 
4240.000000	1.171088 
4239.000000	1.171684 
4238.000000	1.172304 
4237.000000	1.173067 
4236.000000	1.173853 
4235.000000	1.174759 
4234.000000	1.175785 
4233.000000	1.176834 
4232.000000	1.177930 
4231.000000	1.179003 
4230.000000	1.180005 
4229.000000	1.180887 
4228.000000	1.181578 
4227.000000	1.182079 
4226.000000	1.182341 
4225.000000	1.182460 
4224.000000	1.182389 
4223.000000	1.182293 
4222.000000	1.182222 
4221.000000	1.182174 
4220.000000	1.182270 
4219.000000	1.182508 
4218.000000	1.182913 
4217.000000	1.183533 
4216.000000	1.184248 
4215.000000	1.185107 
4214.000000	1.186037 
4213.000000	1.186990 
4212.000000	1.187944 
4211.000000	1.188802 
4210.000000	1.189541 
4209.000000	1.190161 
4208.000000	1.190614 
4207.000000	1.190924 
4206.000000	1.191139 
4205.000000	1.191282 
4204.000000	1.191425 
4203.000000	1.191496 
4202.000000	1.191568 
4201.000000	1.191616 
4200.000000	1.191759 
4199.000000	1.191878 
4198.000000	1.192069 
4197.000000	1.192378 
4196.000000	1.192760 
4195.000000	1.193332 
4194.000000	1.194024 
4193.000000	1.194834 
4192.000000	1.195693 
4191.000000	1.196622 
4190.000000	1.197576 
4189.000000	1.198482 
4188.000000	1.199364 
4187.000000	1.200199 
4186.000000	1.200985 
4185.000000	1.201748 
4184.000000	1.202487 
4183.000000	1.203179 
4182.000000	1.203846 
4181.000000	1.204395 
4180.000000	1.204895 
4179.000000	1.205277 
4178.000000	1.205587 
4177.000000	1.205849 
4176.000000	1.206064 
4175.000000	1.206254 
4174.000000	1.206445 
4173.000000	1.206684 
4172.000000	1.206946 
4171.000000	1.207256 
4170.000000	1.207590 
4169.000000	1.207923 
4168.000000	1.208281 
4167.000000	1.208615 
4166.000000	1.208972 
4165.000000	1.209354 
4164.000000	1.209807 
4163.000000	1.210355 
4162.000000	1.211166 
4161.000000	1.212167 
4160.000000	1.213407 
4159.000000	1.214766 
4158.000000	1.216220 
4157.000000	1.217627 
4156.000000	1.218867 
4155.000000	1.219892 
4154.000000	1.220631 
4153.000000	1.221108 
4152.000000	1.221370 
4151.000000	1.221537 
4150.000000	1.221728 
4149.000000	1.221942 
4148.000000	1.222205 
4147.000000	1.222515 
4146.000000	1.222801 
4145.000000	1.222944 
4144.000000	1.222944 
4143.000000	1.222753 
4142.000000	1.222395 
4141.000000	1.222038 
4140.000000	1.221728 
4139.000000	1.221585 
4138.000000	1.221680 
4137.000000	1.222038 
4136.000000	1.222610 
4135.000000	1.223325 
4134.000000	1.224136 
4133.000000	1.224994 
4132.000000	1.225924 
4131.000000	1.226997 
4130.000000	1.228284 
4129.000000	1.229882 
4128.000000	1.231813 
4127.000000	1.234078 
4126.000000	1.236677 
4125.000000	1.239490 
4124.000000	1.242446 
4123.000000	1.245379 
4122.000000	1.248121 
4121.000000	1.250481 
4120.000000	1.252317 
4119.000000	1.253461 
4118.000000	1.253819 
4117.000000	1.253318 
4116.000000	1.252031 
4115.000000	1.250147 
4114.000000	1.248049 
4113.000000	1.246118 
4112.000000	1.244735 
4111.000000	1.244282 
4110.000000	1.244878 
4109.000000	1.246523 
4108.000000	1.249003 
4107.000000	1.251864 
4106.000000	1.254606 
4105.000000	1.256656 
4104.000000	1.257658 
4103.000000	1.257538 
4102.000000	1.256299 
4101.000000	1.254439 
4100.000000	1.252436 
4099.000000	1.251006 
4098.000000	1.250624 
4097.000000	1.251816 
4096.000000	1.254701 
4095.000000	1.259231 
4094.000000	1.264953 
4093.000000	1.271414 
4092.000000	1.277971 
4091.000000	1.283955 
4090.000000	1.288914 
4089.000000	1.292538 
4088.000000	1.294755 
4087.000000	1.295661 
4086.000000	1.295566 
4085.000000	1.294827 
4084.000000	1.293849 
4083.000000	1.292896 
4082.000000	1.292204 
4081.000000	1.291918 
4080.000000	1.292037 
4079.000000	1.292538 
4078.000000	1.293325 
4077.000000	1.294374 
4076.000000	1.295590 
4075.000000	1.296854 
4074.000000	1.298117 
4073.000000	1.299214 
4072.000000	1.300120 
4071.000000	1.300716 
4070.000000	1.301026 
4069.000000	1.301074 
4068.000000	1.301026 
4067.000000	1.301050 
4066.000000	1.301336 
4065.000000	1.302003 
4064.000000	1.303195 
4063.000000	1.304817 
4062.000000	1.306796 
4061.000000	1.309013 
4060.000000	1.311230 
4059.000000	1.313400 
4058.000000	1.315379 
4057.000000	1.317143 
4056.000000	1.318836 
4055.000000	1.320433 
4054.000000	1.322054 
4053.000000	1.323747 
4052.000000	1.325583 
4051.000000	1.327538 
4050.000000	1.329588 
4049.000000	1.331686 
4048.000000	1.333761 
4047.000000	1.335692 
4046.000000	1.337480 
4045.000000	1.339030 
4044.000000	1.340317 
4043.000000	1.341342 
4042.000000	1.342153 
4041.000000	1.342797 
4040.000000	1.343393 
4039.000000	1.343941 
4038.000000	1.344633 
4037.000000	1.345467 
4036.000000	1.346516 
4035.000000	1.347804 
4034.000000	1.349329 
4033.000000	1.351070 
4032.000000	1.352953 
4031.000000	1.354861 
4030.000000	1.356816 
4029.000000	1.358699 
4028.000000	1.360464 
4027.000000	1.362013 
4026.000000	1.363325 
4025.000000	1.364421 
4024.000000	1.365232 
4023.000000	1.365828 
4022.000000	1.366281 
4021.000000	1.366615 
4020.000000	1.366901 
4019.000000	1.367163 
4018.000000	1.367497 
4017.000000	1.367902 
4016.000000	1.368403 
4015.000000	1.369047 
4014.000000	1.369833 
4013.000000	1.370763 
4012.000000	1.371788 
4011.000000	1.372957 
4010.000000	1.374220 
4009.000000	1.375555 
4008.000000	1.376962 
4007.000000	1.378393 
4006.000000	1.379895 
4005.000000	1.381421 
4004.000000	1.382970 
4003.000000	1.384568 
4002.000000	1.386094 
4001.000000	1.387524 
4000.000000	1.388859 
3999.000000	1.390004 
3998.000000	1.390933 
3997.000000	1.391601 
3996.000000	1.391983 
3995.000000	1.392197 
3994.000000	1.392245 
3993.000000	1.392292 
3992.000000	1.392388 
3991.000000	1.392626 
3990.000000	1.393055 
3989.000000	1.393651 
3988.000000	1.394414 
3987.000000	1.395320 
3986.000000	1.396274 
3985.000000	1.397228 
3984.000000	1.398086 
3983.000000	1.398849 
3982.000000	1.399517 
3981.000000	1.400041 
3980.000000	1.400518 
3979.000000	1.400923 
3978.000000	1.401329 
3977.000000	1.401710 
3976.000000	1.402068 
3975.000000	1.402473 
3974.000000	1.402902 
3973.000000	1.403307 
3972.000000	1.403641 
3971.000000	1.404023 
3970.000000	1.404333 
3969.000000	1.404643 
3968.000000	1.404953 
3967.000000	1.405334 
3966.000000	1.405763 
3965.000000	1.406240 
3964.000000	1.406788 
3963.000000	1.407384 
3962.000000	1.408004 
3961.000000	1.408576 
3960.000000	1.409101 
3959.000000	1.409530 
3958.000000	1.409888 
3957.000000	1.410150 
3956.000000	1.410388 
3955.000000	1.410603 
3954.000000	1.410818 
3953.000000	1.411080 
3952.000000	1.411366 
3951.000000	1.411700 
3950.000000	1.411962 
3949.000000	1.412224 
3948.000000	1.412487 
3947.000000	1.412725 
3946.000000	1.412940 
3945.000000	1.413202 
3944.000000	1.413512 
3943.000000	1.413846 
3942.000000	1.414275 
3941.000000	1.414728 
3940.000000	1.415133 
3939.000000	1.415514 
3938.000000	1.415777 
3937.000000	1.415920 
3936.000000	1.415896 
3935.000000	1.415801 
3934.000000	1.415634 
3933.000000	1.415443 
3932.000000	1.415276 
3931.000000	1.415205 
3930.000000	1.415276 
3929.000000	1.415491 
3928.000000	1.415872 
3927.000000	1.416373 
3926.000000	1.417016 
3925.000000	1.417732 
3924.000000	1.418495 
3923.000000	1.419281 
3922.000000	1.420092 
3921.000000	1.420879 
3920.000000	1.421689 
3919.000000	1.422524 
3918.000000	1.423358 
3917.000000	1.424145 
3916.000000	1.424884 
3915.000000	1.425552 
3914.000000	1.426005 
3913.000000	1.426267 
3912.000000	1.426267 
3911.000000	1.426053 
3910.000000	1.425528 
3909.000000	1.424765 
3908.000000	1.423859 
3907.000000	1.422905 
3906.000000	1.421999 
3905.000000	1.421284 
3904.000000	1.420879 
3903.000000	1.420855 
3902.000000	1.421260 
3901.000000	1.422071 
3900.000000	1.423239 
3899.000000	1.424646 
3898.000000	1.426076 
3897.000000	1.427364 
3896.000000	1.428413 
3895.000000	1.429033 
3894.000000	1.429319 
3893.000000	1.429224 
3892.000000	1.428771 
3891.000000	1.428198 
3890.000000	1.427555 
3889.000000	1.427006 
3888.000000	1.426672 
3887.000000	1.426672 
3886.000000	1.427030 
3885.000000	1.427793 
3884.000000	1.428914 
3883.000000	1.430296 
3882.000000	1.431846 
3881.000000	1.433396 
3880.000000	1.434779 
3879.000000	1.435852 
3878.000000	1.436495 
3877.000000	1.436710 
3876.000000	1.436543 
3875.000000	1.436114 
3874.000000	1.435565 
3873.000000	1.435065 
3872.000000	1.434803 
3871.000000	1.434850 
3870.000000	1.435256 
3869.000000	1.436066 
3868.000000	1.437163 
3867.000000	1.438546 
3866.000000	1.440048 
3865.000000	1.441526 
3864.000000	1.442837 
3863.000000	1.443767 
3862.000000	1.444172 
3861.000000	1.443982 
3860.000000	1.443099 
3859.000000	1.441669 
3858.000000	1.439833 
3857.000000	1.437926 
3856.000000	1.436376 
3855.000000	1.435518 
3854.000000	1.435613 
3853.000000	1.436877 
3852.000000	1.439213 
3851.000000	1.442480 
3850.000000	1.446294 
3849.000000	1.450204 
3848.000000	1.453804 
3847.000000	1.456761 
3846.000000	1.458859 
3845.000000	1.460051 
3844.000000	1.460433 
3843.000000	1.460170 
3842.000000	1.459503 
3841.000000	1.458716 
3840.000000	1.458144 
3839.000000	1.457929 
3838.000000	1.458191 
3837.000000	1.459002 
3836.000000	1.460385 
3835.000000	1.462221 
3834.000000	1.464438 
3833.000000	1.466846 
3832.000000	1.469373 
3831.000000	1.471829 
3830.000000	1.474094 
3829.000000	1.476073 
3828.000000	1.477742 
3827.000000	1.479101 
3826.000000	1.480054 
3825.000000	1.480698 
3824.000000	1.481056 
3823.000000	1.481223 
3822.000000	1.481294 
3821.000000	1.481366 
3820.000000	1.481604 
3819.000000	1.482129 
3818.000000	1.483058 
3817.000000	1.484417 
3816.000000	1.486253 
3815.000000	1.488423 
3814.000000	1.490855 
3813.000000	1.493310 
3812.000000	1.495695 
3811.000000	1.497697 
3810.000000	1.499319 
3809.000000	1.500511 
3808.000000	1.501297 
3807.000000	1.501727 
3806.000000	1.501989 
3805.000000	1.502299 
3804.000000	1.502728 
3803.000000	1.503443 
3802.000000	1.504540 
3801.000000	1.506018 
3800.000000	1.507854 
3799.000000	1.509976 
3798.000000	1.512312 
3797.000000	1.514744 
3796.000000	1.517152 
3795.000000	1.519465 
3794.000000	1.521563 
3793.000000	1.523423 
3792.000000	1.525044 
3791.000000	1.526403 
3790.000000	1.527595 
3789.000000	1.528596 
3788.000000	1.529502 
3787.000000	1.530337 
3786.000000	1.531147 
3785.000000	1.531887 
3784.000000	1.532626 
3783.000000	1.533365 
3782.000000	1.534080 
3781.000000	1.534795 
3780.000000	1.535534 
3779.000000	1.536297 
3778.000000	1.537132 
3777.000000	1.537942 
3776.000000	1.538729 
3775.000000	1.539468 
3774.000000	1.540112 
3773.000000	1.540684 
3772.000000	1.541161 
3771.000000	1.541566 
3770.000000	1.541900 
3769.000000	1.542258 
3768.000000	1.542663 
3767.000000	1.543140 
3766.000000	1.543760 
3765.000000	1.544380 
3764.000000	1.545000 
3763.000000	1.545572 
3762.000000	1.545929 
3761.000000	1.546001 
3760.000000	1.545667 
3759.000000	1.544880 
3758.000000	1.543664 
3757.000000	1.542043 
3756.000000	1.540064 
3755.000000	1.537942 
3754.000000	1.535773 
3753.000000	1.533722 
3752.000000	1.531958 
3751.000000	1.530623 
3750.000000	1.529788 
3749.000000	1.529550 
3748.000000	1.530027 
3747.000000	1.531124 
3746.000000	1.532864 
3745.000000	1.535105 
3744.000000	1.537656 
3743.000000	1.540350 
3742.000000	1.542925 
3741.000000	1.545166 
3740.000000	1.546955 
3739.000000	1.548218 
3738.000000	1.549077 
3737.000000	1.549649 
3736.000000	1.550126 
3735.000000	1.550722 
3734.000000	1.551604 
3733.000000	1.552867 
3732.000000	1.554393 
3731.000000	1.556158 
3730.000000	1.557946 
3729.000000	1.559662 
3728.000000	1.561141 
3727.000000	1.562380 
3726.000000	1.563334 
3725.000000	1.564097 
3724.000000	1.564717 
3723.000000	1.565217 
3722.000000	1.565599 
3721.000000	1.565837 
3720.000000	1.565861 
3719.000000	1.565623 
3718.000000	1.565098 
3717.000000	1.564288 
3716.000000	1.563286 
3715.000000	1.562285 
3714.000000	1.561498 
3713.000000	1.560997 
3712.000000	1.560997 
3711.000000	1.561474 
3710.000000	1.562428 
3709.000000	1.563692 
3708.000000	1.565170 
3707.000000	1.566624 
3706.000000	1.567935 
3705.000000	1.568984 
3704.000000	1.569795 
3703.000000	1.570296 
3702.000000	1.570630 
3701.000000	1.570868 
3700.000000	1.570940 
3699.000000	1.570892 
3698.000000	1.570606 
3697.000000	1.570010 
3696.000000	1.569056 
3695.000000	1.567745 
3694.000000	1.566123 
3693.000000	1.564407 
3692.000000	1.562786 
3691.000000	1.561450 
3690.000000	1.560640 
3689.000000	1.560521 
3688.000000	1.561021 
3687.000000	1.562070 
3686.000000	1.563358 
3685.000000	1.564669 
3684.000000	1.565670 
3683.000000	1.566123 
3682.000000	1.565885 
3681.000000	1.564931 
3680.000000	1.563334 
3679.000000	1.561331 
3678.000000	1.559114 
3677.000000	1.556992 
3676.000000	1.555252 
3675.000000	1.553988 
3674.000000	1.553416 
3673.000000	1.553511 
3672.000000	1.554298 
3671.000000	1.555657 
3670.000000	1.557540 
3669.000000	1.559758 
3668.000000	1.562142 
3667.000000	1.564502 
3666.000000	1.566648 
3665.000000	1.568412 
3664.000000	1.569676 
3663.000000	1.570367 
3662.000000	1.570510 
3661.000000	1.570153 
3660.000000	1.569366 
3659.000000	1.568317 
3658.000000	1.567077 
3657.000000	1.565766 
3656.000000	1.564407 
3655.000000	1.563072 
3654.000000	1.561808 
3653.000000	1.560711 
3652.000000	1.559877 
3651.000000	1.559352 
3650.000000	1.559257 
3649.000000	1.559638 
3648.000000	1.560497 
3647.000000	1.561760 
3646.000000	1.563310 
3645.000000	1.564931 
3644.000000	1.566481 
3643.000000	1.567840 
3642.000000	1.568889 
3641.000000	1.569628 
3640.000000	1.570081 
3639.000000	1.570224 
3638.000000	1.570081 
3637.000000	1.569747 
3636.000000	1.569175 
3635.000000	1.568436 
3634.000000	1.567530 
3633.000000	1.566553 
3632.000000	1.565623 
3631.000000	1.564884 
3630.000000	1.564455 
3629.000000	1.564455 
3628.000000	1.564884 
3627.000000	1.565647 
3626.000000	1.566720 
3625.000000	1.567912 
3624.000000	1.569080 
3623.000000	1.570153 
3622.000000	1.571035 
3621.000000	1.571750 
3620.000000	1.572322 
3619.000000	1.572751 
3618.000000	1.573109 
3617.000000	1.573395 
3616.000000	1.573610 
3615.000000	1.573753 
3614.000000	1.573920 
3613.000000	1.574110 
3612.000000	1.574373 
3611.000000	1.574850 
3610.000000	1.575541 
3609.000000	1.576566 
3608.000000	1.577854 
3607.000000	1.579332 
3606.000000	1.580858 
3605.000000	1.582336 
3604.000000	1.583600 
3603.000000	1.584482 
3602.000000	1.585054 
3601.000000	1.585316 
3600.000000	1.585340 
3599.000000	1.585221 
3598.000000	1.585149 
3597.000000	1.585125 
3596.000000	1.585268 
3595.000000	1.585555 
3594.000000	1.585936 
3593.000000	1.586461 
3592.000000	1.586985 
3591.000000	1.587510 
3590.000000	1.588034 
3589.000000	1.588582 
3588.000000	1.589155 
3587.000000	1.589775 
3586.000000	1.590490 
3585.000000	1.591229 
3584.000000	1.592016 
3583.000000	1.592779 
3582.000000	1.593470 
3581.000000	1.594114 
3580.000000	1.594638 
3579.000000	1.595044 
3578.000000	1.595425 
3577.000000	1.595735 
3576.000000	1.595997 
3575.000000	1.596164 
3574.000000	1.596283 
3573.000000	1.596331 
3572.000000	1.596283 
3571.000000	1.596188 
3570.000000	1.596117 
3569.000000	1.596164 
3568.000000	1.596426 
3567.000000	1.597023 
3566.000000	1.597976 
3565.000000	1.599264 
3564.000000	1.600909 
3563.000000	1.602745 
3562.000000	1.604628 
3561.000000	1.606345 
3560.000000	1.607847 
3559.000000	1.608967 
3558.000000	1.609635 
3557.000000	1.609897 
3556.000000	1.609826 
3555.000000	1.609468 
3554.000000	1.609015 
3553.000000	1.608514 
3552.000000	1.608085 
3551.000000	1.607799 
3550.000000	1.607680 
3549.000000	1.607751 
3548.000000	1.608014 
3547.000000	1.608371 
3546.000000	1.608872 
3545.000000	1.609349 
3544.000000	1.609802 
3543.000000	1.610255 
3542.000000	1.610684 
3541.000000	1.611065 
3540.000000	1.611423 
3539.000000	1.611804 
3538.000000	1.612186 
3537.000000	1.612615 
3536.000000	1.613020 
3535.000000	1.613426 
3534.000000	1.613831 
3533.000000	1.614165 
3532.000000	1.614451 
3531.000000	1.614713 
3530.000000	1.614952 
3529.000000	1.615190 
3528.000000	1.615452 
3527.000000	1.615786 
3526.000000	1.616144 
3525.000000	1.616549 
3524.000000	1.616930 
3523.000000	1.617336 
3522.000000	1.617646 
3521.000000	1.617860 
3520.000000	1.617980 
3519.000000	1.617956 
3518.000000	1.617860 
3517.000000	1.617717 
3516.000000	1.617574 
3515.000000	1.617455 
3514.000000	1.617360 
3513.000000	1.617336 
3512.000000	1.617312 
3511.000000	1.617288 
3510.000000	1.617240 
3509.000000	1.617121 
3508.000000	1.616930 
3507.000000	1.616668 
3506.000000	1.616430 
3505.000000	1.616239 
3504.000000	1.616120 
3503.000000	1.616120 
3502.000000	1.616215 
3501.000000	1.616382 
3500.000000	1.616573 
3499.000000	1.616644 
3498.000000	1.616597 
3497.000000	1.616334 
3496.000000	1.615834 
3495.000000	1.615071 
3494.000000	1.614165 
3493.000000	1.613092 
3492.000000	1.611971 
3491.000000	1.610803 
3490.000000	1.609683 
3489.000000	1.608610 
3488.000000	1.607584 
3487.000000	1.606607 
3486.000000	1.605725 
3485.000000	1.604890 
3484.000000	1.604175 
3483.000000	1.603603 
3482.000000	1.603150 
3481.000000	1.602864 
3480.000000	1.602673 
3479.000000	1.602578 
3478.000000	1.602482 
3477.000000	1.602339 
3476.000000	1.602053 
3475.000000	1.601600 
3474.000000	1.600956 
3473.000000	1.600146 
3472.000000	1.599264 
3471.000000	1.598381 
3470.000000	1.597523 
3469.000000	1.596760 
3468.000000	1.596188 
3467.000000	1.595830 
3466.000000	1.595592 
3465.000000	1.595497 
3464.000000	1.595520 
3463.000000	1.595544 
3462.000000	1.595544 
3461.000000	1.595473 
3460.000000	1.595330 
3459.000000	1.595044 
3458.000000	1.594591 
3457.000000	1.593995 
3456.000000	1.593232 
3455.000000	1.592302 
3454.000000	1.591277 
3453.000000	1.590132 
3452.000000	1.588964 
3451.000000	1.587748 
3450.000000	1.586604 
3449.000000	1.585555 
3448.000000	1.584601 
3447.000000	1.583743 
3446.000000	1.582956 
3445.000000	1.582217 
3444.000000	1.581478 
3443.000000	1.580715 
3442.000000	1.579904 
3441.000000	1.579070 
3440.000000	1.578211 
3439.000000	1.577401 
3438.000000	1.576709 
3437.000000	1.576137 
3436.000000	1.575756 
3435.000000	1.575589 
3434.000000	1.575541 
3433.000000	1.575636 
3432.000000	1.575732 
3431.000000	1.575851 
3430.000000	1.575922 
3429.000000	1.575922 
3428.000000	1.575851 
3427.000000	1.575708 
3426.000000	1.575517 
3425.000000	1.575303 
3424.000000	1.575160 
3423.000000	1.575040 
3422.000000	1.575064 
3421.000000	1.575183 
3420.000000	1.575469 
3419.000000	1.575899 
3418.000000	1.576399 
3417.000000	1.576972 
3416.000000	1.577520 
3415.000000	1.578044 
3414.000000	1.578474 
3413.000000	1.578831 
3412.000000	1.579117 
3411.000000	1.579356 
3410.000000	1.579618 
3409.000000	1.579952 
3408.000000	1.580381 
3407.000000	1.580882 
3406.000000	1.581549 
3405.000000	1.582241 
3404.000000	1.582980 
3403.000000	1.583695 
3402.000000	1.584410 
3401.000000	1.585125 
3400.000000	1.585817 
3399.000000	1.586508 
3398.000000	1.587224 
3397.000000	1.587963 
3396.000000	1.588726 
3395.000000	1.589465 
3394.000000	1.590180 
3393.000000	1.590847 
3392.000000	1.591420 
3391.000000	1.591968 
3390.000000	1.592445 
3389.000000	1.592898 
3388.000000	1.593351 
3387.000000	1.593852 
3386.000000	1.594400 
3385.000000	1.594972 
3384.000000	1.595640 
3383.000000	1.596331 
3382.000000	1.597118 
3381.000000	1.597929 
3380.000000	1.598834 
3379.000000	1.599812 
3378.000000	1.600885 
3377.000000	1.601958 
3376.000000	1.603078 
3375.000000	1.604247 
3374.000000	1.605367 
3373.000000	1.606440 
3372.000000	1.607489 
3371.000000	1.608443 
3370.000000	1.609468 
3369.000000	1.610493 
3368.000000	1.611614 
3367.000000	1.612830 
3366.000000	1.614117 
3365.000000	1.615500 
3364.000000	1.616930 
3363.000000	1.618385 
3362.000000	1.619791 
3361.000000	1.621127 
3360.000000	1.622414 
3359.000000	1.623606 
3358.000000	1.624751 
3357.000000	1.625847 
3356.000000	1.626920 
3355.000000	1.627969 
3354.000000	1.629090 
3353.000000	1.630258 
3352.000000	1.631546 
3351.000000	1.632952 
3350.000000	1.634430 
3349.000000	1.636052 
3348.000000	1.637744 
3347.000000	1.639485 
3346.000000	1.641225 
3345.000000	1.642966 
3344.000000	1.644635 
3343.000000	1.646280 
3342.000000	1.647853 
3341.000000	1.649379 
3340.000000	1.650905 
3339.000000	1.652383 
3338.000000	1.653838 
3337.000000	1.655268 
3336.000000	1.656699 
3335.000000	1.658105 
3334.000000	1.659512 
3333.000000	1.660990 
3332.000000	1.662540 
3331.000000	1.664161 
3330.000000	1.665902 
3329.000000	1.667714 
3328.000000	1.669597 
3327.000000	1.671457 
3326.000000	1.673293 
3325.000000	1.675128 
3324.000000	1.676964 
3323.000000	1.678776 
3322.000000	1.680564 
3321.000000	1.682329 
3320.000000	1.684093 
3319.000000	1.685833 
3318.000000	1.687502 
3317.000000	1.689124 
3316.000000	1.690602 
3315.000000	1.691985 
3314.000000	1.693248 
3313.000000	1.694393 
3312.000000	1.695489 
3311.000000	1.696538 
3310.000000	1.697540 
3309.000000	1.698517 
3308.000000	1.699519 
3307.000000	1.700472 
3306.000000	1.701450 
3305.000000	1.702404 
3304.000000	1.703357 
3303.000000	1.704406 
3302.000000	1.705479 
3301.000000	1.706671 
3300.000000	1.707935 
3299.000000	1.709270 
3298.000000	1.710629 
3297.000000	1.712036 
3296.000000	1.713395 
3295.000000	1.714706 
3294.000000	1.715922 
3293.000000	1.717090 
3292.000000	1.718258 
3291.000000	1.719427 
3290.000000	1.720643 
3289.000000	1.721954 
3288.000000	1.723289 
3287.000000	1.724696 
3286.000000	1.726102 
3285.000000	1.727461 
3284.000000	1.728701 
3283.000000	1.729869 
3282.000000	1.730918 
3281.000000	1.731896 
3280.000000	1.732850 
3279.000000	1.733827 
3278.000000	1.734828 
3277.000000	1.735973 
3276.000000	1.737260 
3275.000000	1.738643 
3274.000000	1.740145 
3273.000000	1.741695 
3272.000000	1.743292 
3271.000000	1.744842 
3270.000000	1.746344 
3269.000000	1.747775 
3268.000000	1.749134 
3267.000000	1.750397 
3266.000000	1.751518 
3265.000000	1.752567 
3264.000000	1.753473 
3263.000000	1.754236 
3262.000000	1.754832 
3261.000000	1.755237 
3260.000000	1.755475 
3259.000000	1.755595 
3258.000000	1.755642 
3257.000000	1.755738 
3256.000000	1.755905 
3255.000000	1.756215 
3254.000000	1.756739 
3253.000000	1.757478 
3252.000000	1.758408 
3251.000000	1.759505 
3250.000000	1.760578 
3249.000000	1.761651 
3248.000000	1.762652 
3247.000000	1.763582 
3246.000000	1.764345 
3245.000000	1.765012 
3244.000000	1.765584 
3243.000000	1.766133 
3242.000000	1.766657 
3241.000000	1.767158 
3240.000000	1.767706 
3239.000000	1.768255 
3238.000000	1.768779 
3237.000000	1.769256 
3236.000000	1.769685 
3235.000000	1.770043 
3234.000000	1.770353 
3233.000000	1.770615 
3232.000000	1.770830 
3231.000000	1.771044 
3230.000000	1.771259 
3229.000000	1.771545 
3228.000000	1.771855 
3227.000000	1.772284 
3226.000000	1.772713 
3225.000000	1.773166 
3224.000000	1.773571 
3223.000000	1.773953 
3222.000000	1.774263 
3221.000000	1.774430 
3220.000000	1.774501 
3219.000000	1.774549 
3218.000000	1.774525 
3217.000000	1.774477 
3216.000000	1.774454 
3215.000000	1.774454 
3214.000000	1.774501 
3213.000000	1.774573 
3212.000000	1.774740 
3211.000000	1.774883 
3210.000000	1.775050 
3209.000000	1.775193 
3208.000000	1.775312 
3207.000000	1.775336 
3206.000000	1.775312 
3205.000000	1.775264 
3204.000000	1.775240 
3203.000000	1.775240 
3202.000000	1.775336 
3201.000000	1.775574 
3200.000000	1.775979 
3199.000000	1.776456 
3198.000000	1.777052 
3197.000000	1.777648 
3196.000000	1.778244 
3195.000000	1.778745 
3194.000000	1.779198 
3193.000000	1.779532 
3192.000000	1.779794 
3191.000000	1.780009 
3190.000000	1.780200 
3189.000000	1.780390 
3188.000000	1.780557 
3187.000000	1.780748 
3186.000000	1.780915 
3185.000000	1.781105 
3184.000000	1.781272 
3183.000000	1.781415 
3182.000000	1.781654 
3181.000000	1.781940 
3180.000000	1.782274 
3179.000000	1.782703 
3178.000000	1.783180 
3177.000000	1.783657 
3176.000000	1.784133 
3175.000000	1.784539 
3174.000000	1.784873 
3173.000000	1.785111 
3172.000000	1.785278 
3171.000000	1.785445 
3170.000000	1.785612 
3169.000000	1.785826 
3168.000000	1.786136 
3167.000000	1.786613 
3166.000000	1.787209 
3165.000000	1.787972 
3164.000000	1.788759 
3163.000000	1.789569 
3162.000000	1.790308 
3161.000000	1.791000 
3160.000000	1.791548 
3159.000000	1.792001 
3158.000000	1.792311 
3157.000000	1.792621 
3156.000000	1.792907 
3155.000000	1.793265 
3154.000000	1.793766 
3153.000000	1.794457 
3152.000000	1.795339 
3151.000000	1.796364 
3150.000000	1.797580 
3149.000000	1.798939 
3148.000000	1.800346 
3147.000000	1.801753 
3146.000000	1.803088 
3145.000000	1.804399 
3144.000000	1.805567 
3143.000000	1.806592 
3142.000000	1.807498 
3141.000000	1.808261 
3140.000000	1.808857 
3139.000000	1.809382 
3138.000000	1.809811 
3137.000000	1.810216 
3136.000000	1.810622 
3135.000000	1.811075 
3134.000000	1.811623 
3133.000000	1.812219 
3132.000000	1.812982 
3131.000000	1.813840 
3130.000000	1.814842 
3129.000000	1.815962 
3128.000000	1.817202 
3127.000000	1.818561 
3126.000000	1.819968 
3125.000000	1.821398 
3124.000000	1.822900 
3123.000000	1.824378 
3122.000000	1.825809 
3121.000000	1.827216 
3120.000000	1.828598 
3119.000000	1.829957 
3118.000000	1.831316 
3117.000000	1.832652 
3116.000000	1.834034 
3115.000000	1.835441 
3114.000000	1.836848 
3113.000000	1.838302 
3112.000000	1.839733 
3111.000000	1.841163 
3110.000000	1.842570 
3109.000000	1.843953 
3108.000000	1.845264 
3107.000000	1.846551 
3106.000000	1.847815 
3105.000000	1.849126 
3104.000000	1.850485 
3103.000000	1.851940 
3102.000000	1.853537 
3101.000000	1.855301 
3100.000000	1.857233 
3099.000000	1.859331 
3098.000000	1.861524 
3097.000000	1.863741 
3096.000000	1.866030 
3095.000000	1.868271 
3094.000000	1.870512 
3093.000000	1.872754 
3092.000000	1.874995 
3091.000000	1.877284 
3090.000000	1.879620 
3089.000000	1.882052 
3088.000000	1.884508 
3087.000000	1.886940 
3086.000000	1.889371 
3085.000000	1.891732 
3084.000000	1.893949 
3083.000000	1.896047 
3082.000000	1.898002 
3081.000000	1.899790 
3080.000000	1.901507 
3079.000000	1.903128 
3078.000000	1.904654 
3077.000000	1.906108 
3076.000000	1.907491 
3075.000000	1.908731 
3074.000000	1.909875 
3073.000000	1.910924 
3072.000000	1.911854 
3071.000000	1.912713 
3070.000000	1.913499 
3069.000000	1.914286 
3068.000000	1.915097 
3067.000000	1.915955 
3066.000000	1.916885 
3065.000000	1.917958 
3064.000000	1.919174 
3063.000000	1.920533 
3062.000000	1.922082 
3061.000000	1.923775 
3060.000000	1.925611 
3059.000000	1.927542 
3058.000000	1.929616 
3057.000000	1.931715 
3056.000000	1.933884 
3055.000000	1.936054 
3054.000000	1.938199 
3053.000000	1.940321 
3052.000000	1.942348 
3051.000000	1.944327 
3050.000000	1.946163 
3049.000000	1.947879 
3048.000000	1.949453 
3047.000000	1.950836 
3046.000000	1.952075 
3045.000000	1.953220 
3044.000000	1.954293 
3043.000000	1.955318 
3042.000000	1.956295 
3041.000000	1.957297 
3040.000000	1.958250 
3039.000000	1.959204 
3038.000000	1.960110 
3037.000000	1.960945 
3036.000000	1.961684 
3035.000000	1.962256 
3034.000000	1.962661 
3033.000000	1.962780 
3032.000000	1.962661 
3031.000000	1.962161 
3030.000000	1.961231 
3029.000000	1.959943 
3028.000000	1.958298 
3027.000000	1.956319 
3026.000000	1.954102 
3025.000000	1.951789 
3024.000000	1.949453 
3023.000000	1.947307 
3022.000000	1.945471 
3021.000000	1.944088 
3020.000000	1.943325 
3019.000000	1.943278 
3018.000000	1.944041 
3017.000000	1.945638 
3016.000000	1.948142 
3015.000000	1.951456 
3014.000000	1.955509 
3013.000000	1.960158 
3012.000000	1.965284 
3011.000000	1.970648 
3010.000000	1.976037 
3009.000000	1.981234 
3008.000000	1.986122 
3007.000000	1.990509 
3006.000000	1.994419 
3005.000000	1.997733 
3004.000000	2.000570 
3003.000000	2.002930 
3002.000000	2.004981 
3001.000000	2.006745 
3000.000000	2.008366 
2999.000000	2.009940 
2998.000000	2.011418 
2997.000000	2.012825 
2996.000000	2.014160 
2995.000000	2.015423 
2994.000000	2.016520 
2993.000000	2.017402 
2992.000000	2.018046 
2991.000000	2.018404 
2990.000000	2.018451 
2989.000000	2.018141 
2988.000000	2.017498 
2987.000000	2.016544 
2986.000000	2.015304 
2985.000000	2.013802 
2984.000000	2.012085 
2983.000000	2.010226 
2982.000000	2.008175 
2981.000000	2.005958 
2980.000000	2.003550 
2979.000000	2.000880 
2978.000000	1.997947 
2977.000000	1.994657 
2976.000000	1.991009 
2975.000000	1.986908 
2974.000000	1.982355 
2973.000000	1.977372 
2972.000000	1.972031 
2971.000000	1.966333 
2970.000000	1.960444 
2969.000000	1.954436 
2968.000000	1.948428 
2967.000000	1.942539 
2966.000000	1.936864 
2965.000000	1.931548 
2964.000000	1.926732 
2963.000000	1.922416 
2962.000000	1.918745 
2961.000000	1.915717 
2960.000000	1.913356 
2959.000000	1.911568 
2958.000000	1.910328 
2957.000000	1.909494 
2956.000000	1.908898 
2955.000000	1.908421 
2954.000000	1.907873 
2953.000000	1.907110 
2952.000000	1.905941 
2951.000000	1.904249 
2950.000000	1.901888 
2949.000000	1.898741 
2948.000000	1.894831 
2947.000000	1.890110 
2946.000000	1.884484 
2945.000000	1.877975 
2944.000000	1.870727 
2943.000000	1.862788 
2942.000000	1.854252 
2941.000000	1.845264 
2940.000000	1.836085 
2939.000000	1.826858 
2938.000000	1.817750 
2937.000000	1.808953 
2936.000000	1.800560 
2935.000000	1.792573 
2934.000000	1.785039 
2933.000000	1.777935 
2932.000000	1.771306 
2931.000000	1.765203 
2930.000000	1.759767 
2929.000000	1.755213 
2928.000000	1.751756 
2927.000000	1.749753 
2926.000000	1.749444 
2925.000000	1.751160 
2924.000000	1.754903 
2923.000000	1.760792 
2922.000000	1.768684 
2921.000000	1.778340 
2920.000000	1.789426 
2919.000000	1.801538 
2918.000000	1.814246 
2917.000000	1.827144 
2916.000000	1.839852 
2915.000000	1.852035 
2914.000000	1.863551 
2913.000000	1.874208 
2912.000000	1.883959 
2911.000000	1.892733 
2910.000000	1.900601 
2909.000000	1.907634 
2908.000000	1.913881 
2907.000000	1.919412 
2906.000000	1.924371 
2905.000000	1.928877 
2904.000000	1.933002 
2903.000000	1.936864 
2902.000000	1.940488 
2901.000000	1.943969 
2900.000000	1.947307 
2899.000000	1.950573 
2898.000000	1.953768 
2897.000000	1.956915 
2896.000000	1.960039 
2895.000000	1.963162 
2894.000000	1.966261 
2893.000000	1.969289 
2892.000000	1.972293 
2891.000000	1.975202 
2890.000000	1.977920 
2889.000000	1.980447 
2888.000000	1.982760 
2887.000000	1.984858 
2886.000000	1.986646 
2885.000000	1.988172 
2884.000000	1.989436 
2883.000000	1.990389 
2882.000000	1.991081 
2881.000000	1.991391 
2880.000000	1.991343 
2879.000000	1.990842 
2878.000000	1.989841 
2877.000000	1.988291 
2876.000000	1.986050 
2875.000000	1.983046 
2874.000000	1.979207 
2873.000000	1.974439 
2872.000000	1.968669 
2871.000000	1.961898 
2870.000000	1.954174 
2869.000000	1.945614 
2868.000000	1.936507 
2867.000000	1.927137 
2866.000000	1.917958 
2865.000000	1.909375 
2864.000000	1.901817 
2863.000000	1.895785 
2862.000000	1.891613 
2861.000000	1.889538 
2860.000000	1.889729 
2859.000000	1.892089 
2858.000000	1.896500 
2857.000000	1.902770 
2856.000000	1.910543 
2855.000000	1.919507 
2854.000000	1.929306 
2853.000000	1.939654 
2852.000000	1.950216 
2851.000000	1.960825 
2850.000000	1.971268 
2849.000000	1.981472 
2848.000000	1.991295 
2847.000000	2.000665 
2846.000000	2.009487 
2845.000000	2.017784 
2844.000000	2.025485 
2843.000000	2.032661 
2842.000000	2.039241 
2841.000000	2.045273 
2840.000000	2.050805 
2839.000000	2.055931 
2838.000000	2.060604 
2837.000000	2.064943 
2836.000000	2.069067 
2835.000000	2.072930 
2834.000000	2.076625 
2833.000000	2.080225 
2832.000000	2.083730 
2831.000000	2.087235 
2830.000000	2.090740 
2829.000000	2.094316 
2828.000000	2.097940 
2827.000000	2.101516 
2826.000000	2.105116 
2825.000000	2.108597 
2824.000000	2.111887 
2823.000000	2.114987 
2822.000000	2.117848 
2821.000000	2.120447 
2820.000000	2.122831 
2819.000000	2.125024 
2818.000000	2.127122 
2817.000000	2.129173 
2816.000000	2.131175 
2815.000000	2.133202 
2814.000000	2.135252 
2813.000000	2.137327 
2812.000000	2.139425 
2811.000000	2.141475 
2810.000000	2.143526 
2809.000000	2.145552 
2808.000000	2.147483 
2807.000000	2.149367 
2806.000000	2.151203 
2805.000000	2.152967 
2804.000000	2.154731 
2803.000000	2.156376 
2802.000000	2.157974 
2801.000000	2.159500 
2800.000000	2.160978 
2799.000000	2.162432 
2798.000000	2.163887 
2797.000000	2.165365 
2796.000000	2.166914 
2795.000000	2.168536 
2794.000000	2.170228 
2793.000000	2.171969 
2792.000000	2.173733 
2791.000000	2.175569 
2790.000000	2.177429 
2789.000000	2.179312 
2788.000000	2.181267 
2787.000000	2.183294 
2786.000000	2.185511 
2785.000000	2.187824 
2784.000000	2.190327 
2783.000000	2.192878 
2782.000000	2.195501 
2781.000000	2.198100 
2780.000000	2.200579 
2779.000000	2.202939 
2778.000000	2.205085 
2777.000000	2.206993 
2776.000000	2.208757 
2775.000000	2.210307 
2774.000000	2.211761 
2773.000000	2.213144 
2772.000000	2.214455 
2771.000000	2.215766 
2770.000000	2.217054 
2769.000000	2.218365 
2768.000000	2.219653 
2767.000000	2.220940 
2766.000000	2.222180 
2765.000000	2.223372 
2764.000000	2.224469 
2763.000000	2.225494 
2762.000000	2.226471 
2761.000000	2.227354 
2760.000000	2.228140 
2759.000000	2.228856 
2758.000000	2.229523 
2757.000000	2.230119 
2756.000000	2.230691 
2755.000000	2.231192 
2754.000000	2.231693 
2753.000000	2.232098 
2752.000000	2.232503 
2751.000000	2.232909 
2750.000000	2.233314 
2749.000000	2.233767 
2748.000000	2.234292 
2747.000000	2.234840 
2746.000000	2.235436 
2745.000000	2.236032 
2744.000000	2.236652 
2743.000000	2.237176 
2742.000000	2.237606 
2741.000000	2.237939 
2740.000000	2.238106 
2739.000000	2.238225 
2738.000000	2.238273 
2737.000000	2.238249 
2736.000000	2.238202 
2735.000000	2.238130 
2734.000000	2.238082 
2733.000000	2.238130 
2732.000000	2.238273 
2731.000000	2.238488 
2730.000000	2.238798 
2729.000000	2.239203 
2728.000000	2.239632 
2727.000000	2.240109 
2726.000000	2.240538 
2725.000000	2.240967 
2724.000000	2.241253 
2723.000000	2.241444 
2722.000000	2.241492 
2721.000000	2.241373 
2720.000000	2.241110 
2719.000000	2.240681 
2718.000000	2.240180 
2717.000000	2.239561 
2716.000000	2.238893 
2715.000000	2.238202 
2714.000000	2.237486 
2713.000000	2.236747 
2712.000000	2.236032 
2711.000000	2.235293 
2710.000000	2.234578 
2709.000000	2.233839 
2708.000000	2.233147 
2707.000000	2.232551 
2706.000000	2.232003 
2705.000000	2.231526 
2704.000000	2.231121 
2703.000000	2.230787 
2702.000000	2.230453 
2701.000000	2.230143 
2700.000000	2.229809 
2699.000000	2.229452 
2698.000000	2.228999 
2697.000000	2.228474 
2696.000000	2.227950 
2695.000000	2.227401 
2694.000000	2.226924 
2693.000000	2.226471 
2692.000000	2.226042 
2691.000000	2.225661 
2690.000000	2.225279 
2689.000000	2.224850 
2688.000000	2.224349 
2687.000000	2.223730 
2686.000000	2.223086 
2685.000000	2.222347 
2684.000000	2.221584 
2683.000000	2.220845 
2682.000000	2.220129 
2681.000000	2.219486 
2680.000000	2.218866 
2679.000000	2.218317 
2678.000000	2.217769 
2677.000000	2.217221 
2676.000000	2.216672 
2675.000000	2.216100 
2674.000000	2.215528 
2673.000000	2.214956 
2672.000000	2.214431 
2671.000000	2.213883 
2670.000000	2.213382 
2669.000000	2.212858 
2668.000000	2.212262 
2667.000000	2.211689 
2666.000000	2.211022 
2665.000000	2.210259 
2664.000000	2.209472 
2663.000000	2.208614 
2662.000000	2.207756 
2661.000000	2.206873 
2660.000000	2.206015 
2659.000000	2.205133 
2658.000000	2.204298 
2657.000000	2.203464 
2656.000000	2.202725 
2655.000000	2.202057 
2654.000000	2.201485 
2653.000000	2.201056 
2652.000000	2.200698 
2651.000000	2.200531 
2650.000000	2.200388 
2649.000000	2.200293 
2648.000000	2.200245 
2647.000000	2.200222 
2646.000000	2.200222 
2645.000000	2.200269 
2644.000000	2.200293 
2643.000000	2.200412 
2642.000000	2.200555 
2641.000000	2.200722 
2640.000000	2.200865 
2639.000000	2.200937 
2638.000000	2.200913 
2637.000000	2.200770 
2636.000000	2.200484 
2635.000000	2.200102 
2634.000000	2.199697 
2633.000000	2.199268 
2632.000000	2.198934 
2631.000000	2.198719 
2630.000000	2.198624 
2629.000000	2.198648 
2628.000000	2.198839 
2627.000000	2.199053 
2626.000000	2.199268 
2625.000000	2.199506 
2624.000000	2.199769 
2623.000000	2.199935 
2622.000000	2.200126 
2621.000000	2.200388 
2620.000000	2.200722 
2619.000000	2.201128 
2618.000000	2.201652 
2617.000000	2.202177 
2616.000000	2.202725 
2615.000000	2.203273 
2614.000000	2.203726 
2613.000000	2.204036 
2612.000000	2.204227 
2611.000000	2.204275 
2610.000000	2.204227 
2609.000000	2.204108 
2608.000000	2.203941 
2607.000000	2.203822 
2606.000000	2.203726 
2605.000000	2.203750 
2604.000000	2.203822 
2603.000000	2.204012 
2602.000000	2.204322 
2601.000000	2.204704 
2600.000000	2.205157 
2599.000000	2.205657 
2598.000000	2.206134 
2597.000000	2.206611 
2596.000000	2.207064 
2595.000000	2.207469 
2594.000000	2.207899 
2593.000000	2.208352 
2592.000000	2.208876 
2591.000000	2.209496 
2590.000000	2.210187 
2589.000000	2.211022 
2588.000000	2.212023 
2587.000000	2.213191 
2586.000000	2.214550 
2585.000000	2.216076 
2584.000000	2.217698 
2583.000000	2.219462 
2582.000000	2.221298 
2581.000000	2.223181 
2580.000000	2.225065 
2579.000000	2.226877 
2578.000000	2.228641 
2577.000000	2.230310 
2576.000000	2.231884 
2575.000000	2.233338 
2574.000000	2.234745 
2573.000000	2.236127 
2572.000000	2.237510 
2571.000000	2.238941 
2570.000000	2.240419 
2569.000000	2.241945 
2568.000000	2.243518 
2567.000000	2.245140 
2566.000000	2.246761 
2565.000000	2.248406 
2564.000000	2.250027 
2563.000000	2.251625 
2562.000000	2.253198 
2561.000000	2.254724 
2560.000000	2.256250 
2559.000000	2.257776 
2558.000000	2.259278 
2557.000000	2.260756 
2556.000000	2.262234 
2555.000000	2.263665 
2554.000000	2.265024 
2553.000000	2.266287 
2552.000000	2.267479 
2551.000000	2.268552 
2550.000000	2.269530 
2549.000000	2.270460 
2548.000000	2.271318 
2547.000000	2.272129 
2546.000000	2.272963 
2545.000000	2.273774 
2544.000000	2.274656 
2543.000000	2.275538 
2542.000000	2.276468 
2541.000000	2.277398 
2540.000000	2.278327 
2539.000000	2.279186 
2538.000000	2.280020 
2537.000000	2.280807 
2536.000000	2.281546 
2535.000000	2.282261 
2534.000000	2.282953 
2533.000000	2.283668 
2532.000000	2.284383 
2531.000000	2.285122 
2530.000000	2.285933 
2529.000000	2.286815 
2528.000000	2.287745 
2527.000000	2.288722 
2526.000000	2.289748 
2525.000000	2.290844 
2524.000000	2.291941 
2523.000000	2.293014 
2522.000000	2.294087 
2521.000000	2.295160 
2520.000000	2.296209 
2519.000000	2.297210 
2518.000000	2.298164 
2517.000000	2.299070 
2516.000000	2.299880 
2515.000000	2.300572 
2514.000000	2.301168 
2513.000000	2.301669 
2512.000000	2.302050 
2511.000000	2.302432 
2510.000000	2.302742 
2509.000000	2.303099 
2508.000000	2.303433 
2507.000000	2.303838 
2506.000000	2.304291 
2505.000000	2.304720 
2504.000000	2.305126 
2503.000000	2.305436 
2502.000000	2.305722 
2501.000000	2.305889 
2500.000000	2.305984 
2499.000000	2.305984 
2498.000000	2.305960 
2497.000000	2.305960 
2496.000000	2.305984 
2495.000000	2.306056 
2494.000000	2.306127 
2493.000000	2.306246 
2492.000000	2.306294 
2491.000000	2.306318 
2490.000000	2.306294 
2489.000000	2.306175 
2488.000000	2.305984 
2487.000000	2.305722 
2486.000000	2.305340 
2485.000000	2.304935 
2484.000000	2.304458 
2483.000000	2.303934 
2482.000000	2.303290 
2481.000000	2.302551 
2480.000000	2.301788 
2479.000000	2.300977 
2478.000000	2.300143 
2477.000000	2.299380 
2476.000000	2.298736 
2475.000000	2.298188 
2474.000000	2.297806 
2473.000000	2.297544 
2472.000000	2.297377 
2471.000000	2.297234 
2470.000000	2.297067 
2469.000000	2.296805 
2468.000000	2.296400 
2467.000000	2.295827 
2466.000000	2.295112 
2465.000000	2.294301 
2464.000000	2.293348 
2463.000000	2.292370 
2462.000000	2.291369 
2461.000000	2.290344 
2460.000000	2.289342 
2459.000000	2.288341 
2458.000000	2.287364 
2457.000000	2.286362 
2456.000000	2.285361 
2455.000000	2.284288 
2454.000000	2.283191 
2453.000000	2.282071 
2452.000000	2.280950 
2451.000000	2.279829 
2450.000000	2.278733 
2449.000000	2.277660 
2448.000000	2.276635 
2447.000000	2.275586 
2446.000000	2.274537 
2445.000000	2.273440 
2444.000000	2.272295 
2443.000000	2.271127 
2442.000000	2.269935 
2441.000000	2.268743 
2440.000000	2.267551 
2439.000000	2.266430 
2438.000000	2.265429 
2437.000000	2.264547 
2436.000000	2.263689 
2435.000000	2.262902 
2434.000000	2.262091 
2433.000000	2.261257 
2432.000000	2.260398 
2431.000000	2.259445 
2430.000000	2.258443 
2429.000000	2.257394 
2428.000000	2.256298 
2427.000000	2.255225 
2426.000000	2.254199 
2425.000000	2.253270 
2424.000000	2.252483 
2423.000000	2.251768 
2422.000000	2.251195 
2421.000000	2.250695 
2420.000000	2.250266 
2419.000000	2.249860 
2418.000000	2.249407 
2417.000000	2.248883 
2416.000000	2.248239 
2415.000000	2.247405 
2414.000000	2.246332 
2413.000000	2.245116 
2412.000000	2.243757 
2411.000000	2.242326 
2410.000000	2.240872 
2409.000000	2.239489 
2408.000000	2.238273 
2407.000000	2.237296 
2406.000000	2.236580 
2405.000000	2.236104 
2404.000000	2.235794 
2403.000000	2.235651 
2402.000000	2.235531 
2401.000000	2.235388 
2400.000000	2.235126 
2399.000000	2.234768 
2398.000000	2.234244 
2397.000000	2.233552 
2396.000000	2.232789 
2395.000000	2.231979 
2394.000000	2.231168 
2393.000000	2.230477 
2392.000000	2.229905 
2391.000000	2.229475 
2390.000000	2.229189 
2389.000000	2.229046 
2388.000000	2.228951 
2387.000000	2.228856 
2386.000000	2.228689 
2385.000000	2.228498 
2384.000000	2.228116 
2383.000000	2.227687 
2382.000000	2.227139 
2381.000000	2.226543 
2380.000000	2.225852 
2379.000000	2.225089 
2378.000000	2.224230 
2377.000000	2.223253 
2376.000000	2.222108 
2375.000000	2.220845 
2374.000000	2.219414 
2373.000000	2.217888 
2372.000000	2.216362 
2371.000000	2.214860 
2370.000000	2.213478 
2369.000000	2.212190 
2368.000000	2.211117 
2367.000000	2.210259 
2366.000000	2.209639 
2365.000000	2.209281 
2364.000000	2.209210 
2363.000000	2.209448 
2362.000000	2.210021 
2361.000000	2.210927 
2360.000000	2.212190 
2359.000000	2.213764 
2358.000000	2.215647 
2357.000000	2.217745 
2356.000000	2.220034 
2355.000000	2.222394 
2354.000000	2.224779 
2353.000000	2.227115 
2352.000000	2.229309 
2351.000000	2.231311 
2350.000000	2.233099 
2349.000000	2.234601 
2348.000000	2.235817 
2347.000000	2.236771 
2346.000000	2.237486 
2345.000000	2.237963 
2344.000000	2.238345 
2343.000000	2.238655 
2342.000000	2.238965 
2341.000000	2.239394 
2340.000000	2.239942 
2339.000000	2.240681 
2338.000000	2.241587 
2337.000000	2.242708 
2336.000000	2.244043 
2335.000000	2.245593 
2334.000000	2.247333 
2333.000000	2.249264 
2332.000000	2.251338 
2331.000000	2.253556 
2330.000000	2.255892 
2329.000000	2.258253 
2328.000000	2.260613 
2327.000000	2.262973 
2326.000000	2.265238 
2325.000000	2.267408 
2324.000000	2.269482 
2323.000000	2.271461 
2322.000000	2.273392 
2321.000000	2.275323 
2320.000000	2.277231 
2319.000000	2.279162 
2318.000000	2.281165 
2317.000000	2.283167 
2316.000000	2.285170 
2315.000000	2.287101 
2314.000000	2.288961 
2313.000000	2.290725 
2312.000000	2.292418 
2311.000000	2.294087 
2310.000000	2.295756 
2309.000000	2.297472 
2308.000000	2.299284 
2307.000000	2.301168 
2306.000000	2.303194 
2305.000000	2.305245 
2304.000000	2.307271 
2303.000000	2.309250 
2302.000000	2.311110 
2301.000000	2.312850 
2300.000000	2.314400 
2299.000000	2.315831 
2298.000000	2.317118 
2297.000000	2.318358 
2296.000000	2.319574 
2295.000000	2.320790 
2294.000000	2.322053 
2293.000000	2.323341 
2292.000000	2.324628 
2291.000000	2.325868 
2290.000000	2.327108 
2289.000000	2.328252 
2288.000000	2.329301 
2287.000000	2.330279 
2286.000000	2.331161 
2285.000000	2.331972 
2284.000000	2.332782 
2283.000000	2.333617 
2282.000000	2.334523 
2281.000000	2.335453 
2280.000000	2.336478 
2279.000000	2.337527 
2278.000000	2.338671 
2277.000000	2.339863 
2276.000000	2.341032 
2275.000000	2.342176 
2274.000000	2.343297 
2273.000000	2.344346 
2272.000000	2.345299 
2271.000000	2.346158 
2270.000000	2.346897 
2269.000000	2.347493 
2268.000000	2.347922 
2267.000000	2.348232 
2266.000000	2.348423 
2265.000000	2.348589 
2264.000000	2.348732 
2263.000000	2.348947 
2262.000000	2.349281 
2261.000000	2.349710 
2260.000000	2.350258 
2259.000000	2.350878 
2258.000000	2.351546 
2257.000000	2.352213 
2256.000000	2.352786 
2255.000000	2.353286 
2254.000000	2.353644 
2253.000000	2.353954 
2252.000000	2.354145 
2251.000000	2.354192 
2250.000000	2.354192 
2249.000000	2.354145 
2248.000000	2.354073 
2247.000000	2.354001 
2246.000000	2.353978 
2245.000000	2.354001 
2244.000000	2.354097 
2243.000000	2.354264 
2242.000000	2.354478 
2241.000000	2.354741 
2240.000000	2.355003 
2239.000000	2.355194 
2238.000000	2.355313 
2237.000000	2.355337 
2236.000000	2.355241 
2235.000000	2.355051 
2234.000000	2.354764 
2233.000000	2.354431 
2232.000000	2.354049 
2231.000000	2.353572 
2230.000000	2.353096 
2229.000000	2.352595 
2228.000000	2.352046 
2227.000000	2.351474 
2226.000000	2.350950 
2225.000000	2.350449 
2224.000000	2.349972 
2223.000000	2.349472 
2222.000000	2.348971 
2221.000000	2.348470 
2220.000000	2.347874 
2219.000000	2.347254 
2218.000000	2.346563 
2217.000000	2.345824 
2216.000000	2.345061 
2215.000000	2.344250 
2214.000000	2.343463 
2213.000000	2.342653 
2212.000000	2.341842 
2211.000000	2.341055 
2210.000000	2.340292 
2209.000000	2.339529 
2208.000000	2.338743 
2207.000000	2.337932 
2206.000000	2.337121 
2205.000000	2.336335 
2204.000000	2.335524 
2203.000000	2.334690 
2202.000000	2.333903 
2201.000000	2.333164 
2200.000000	2.332448 
2199.000000	2.331733 
2198.000000	2.331018 
2197.000000	2.330279 
2196.000000	2.329516 
2195.000000	2.328705 
2194.000000	2.327823 
2193.000000	2.326941 
2192.000000	2.326011 
2191.000000	2.325129 
2190.000000	2.324271 
2189.000000	2.323436 
2188.000000	2.322649 
2187.000000	2.321863 
2186.000000	2.321076 
2185.000000	2.320218 
2184.000000	2.319359 
2183.000000	2.318429 
2182.000000	2.317523 
2181.000000	2.316665 
2180.000000	2.315902 
2179.000000	2.315258 
2178.000000	2.314710 
2177.000000	2.314257 
2176.000000	2.313828 
2175.000000	2.313423 
2174.000000	2.312922 
2173.000000	2.312326 
2172.000000	2.311611 
2171.000000	2.310800 
2170.000000	2.309894 
2169.000000	2.308964 
2168.000000	2.308058 
2167.000000	2.307152 
2166.000000	2.306342 
2165.000000	2.305626 
2164.000000	2.305030 
2163.000000	2.304530 
2162.000000	2.304196 
2161.000000	2.304005 
2160.000000	2.303957 
2159.000000	2.304053 
2158.000000	2.304291 
2157.000000	2.304649 
2156.000000	2.305078 
2155.000000	2.305555 
2154.000000	2.305984 
2153.000000	2.306365 
2152.000000	2.306628 
2151.000000	2.306795 
2150.000000	2.306842 
2149.000000	2.306818 
2148.000000	2.306723 
2147.000000	2.306532 
2146.000000	2.306294 
2145.000000	2.306056 
2144.000000	2.305769 
2143.000000	2.305459 
2142.000000	2.305150 
2141.000000	2.304863 
2140.000000	2.304601 
2139.000000	2.304410 
2138.000000	2.304387 
2137.000000	2.304482 
2136.000000	2.304673 
2135.000000	2.304935 
2134.000000	2.305221 
2133.000000	2.305459 
2132.000000	2.305674 
2131.000000	2.305889 
2130.000000	2.306079 
2129.000000	2.306342 
2128.000000	2.306699 
2127.000000	2.307152 
2126.000000	2.307772 
2125.000000	2.308464 
2124.000000	2.309155 
2123.000000	2.309751 
2122.000000	2.310252 
2121.000000	2.310490 
2120.000000	2.310514 
2119.000000	2.310347 
2118.000000	2.310037 
2117.000000	2.309656 
2116.000000	2.309274 
2115.000000	2.308940 
2114.000000	2.308773 
2113.000000	2.308773 
2112.000000	2.308845 
2111.000000	2.309107 
2110.000000	2.309370 
2109.000000	2.309632 
2108.000000	2.309870 
2107.000000	2.309966 
2106.000000	2.309966 
2105.000000	2.309823 
2104.000000	2.309608 
2103.000000	2.309298 
2102.000000	2.308988 
2101.000000	2.308654 
2100.000000	2.308368 
2099.000000	2.308106 
2098.000000	2.307868 
2097.000000	2.307605 
2096.000000	2.307319 
2095.000000	2.307009 
2094.000000	2.306675 
2093.000000	2.306389 
2092.000000	2.306175 
2091.000000	2.306079 
2090.000000	2.306151 
2089.000000	2.306389 
2088.000000	2.306866 
2087.000000	2.307534 
2086.000000	2.308440 
2085.000000	2.309441 
2084.000000	2.310609 
2083.000000	2.311873 
2082.000000	2.313256 
2081.000000	2.314686 
2080.000000	2.316260 
2079.000000	2.317929 
2078.000000	2.319741 
2077.000000	2.321696 
2076.000000	2.323698 
2075.000000	2.325773 
2074.000000	2.327847 
2073.000000	2.329850 
2072.000000	2.331781 
2071.000000	2.333664 
2070.000000	2.335476 
2069.000000	2.337217 
2068.000000	2.338957 
2067.000000	2.340650 
2066.000000	2.342391 
2065.000000	2.344131 
2064.000000	2.345848 
2063.000000	2.347564 
2062.000000	2.349209 
2061.000000	2.350831 
2060.000000	2.352499 
2059.000000	2.354216 
2058.000000	2.355980 
2057.000000	2.357912 
2056.000000	2.359986 
2055.000000	2.362251 
2054.000000	2.364659 
2053.000000	2.367138 
2052.000000	2.369642 
2051.000000	2.372097 
2050.000000	2.374410 
2049.000000	2.376532 
2048.000000	2.378463 
2047.000000	2.380204 
2046.000000	2.381873 
2045.000000	2.383470 
2044.000000	2.385091 
2043.000000	2.386760 
2042.000000	2.388525 
2041.000000	2.390336 
2040.000000	2.392148 
2039.000000	2.393960 
2038.000000	2.395677 
2037.000000	2.397298 
2036.000000	2.398824 
2035.000000	2.400231 
2034.000000	2.401518 
2033.000000	2.402806 
2032.000000	2.404022 
2031.000000	2.405190 
2030.000000	2.406334 
2029.000000	2.407407 
2028.000000	2.408385 
2027.000000	2.409195 
2026.000000	2.409839 
2025.000000	2.410316 
2024.000000	2.410650 
2023.000000	2.410888 
2022.000000	2.411103 
2021.000000	2.411365 
2020.000000	2.411746 
2019.000000	2.412295 
2018.000000	2.413034 
2017.000000	2.413964 
2016.000000	2.415037 
2015.000000	2.416181 
2014.000000	2.417349 
2013.000000	2.418446 
2012.000000	2.419471 
2011.000000	2.420401 
2010.000000	2.421188 
2009.000000	2.421832 
2008.000000	2.422428 
2007.000000	2.422976 
2006.000000	2.423501 
2005.000000	2.424049 
2004.000000	2.424550 
2003.000000	2.425050 
2002.000000	2.425432 
2001.000000	2.425765 
2000.000000	2.425980 
1999.000000	2.426052 
1998.000000	2.425956 
1997.000000	2.425718 
1996.000000	2.425432 
1995.000000	2.425074 
1994.000000	2.424716 
1993.000000	2.424383 
1992.000000	2.424120 
1991.000000	2.423906 
1990.000000	2.423739 
1989.000000	2.423548 
1988.000000	2.423381 
1987.000000	2.423167 
1986.000000	2.422881 
1985.000000	2.422523 
1984.000000	2.422046 
1983.000000	2.421450 
1982.000000	2.420806 
1981.000000	2.420043 
1980.000000	2.419185 
1979.000000	2.418255 
1978.000000	2.417254 
1977.000000	2.416205 
1976.000000	2.415156 
1975.000000	2.414059 
1974.000000	2.412986 
1973.000000	2.411985 
1972.000000	2.410984 
1971.000000	2.410054 
1970.000000	2.409172 
1969.000000	2.408361 
1968.000000	2.407598 
1967.000000	2.406859 
1966.000000	2.406191 
1965.000000	2.405571 
1964.000000	2.404928 
1963.000000	2.404284 
1962.000000	2.403616 
1961.000000	2.402877 
1960.000000	2.401995 
1959.000000	2.401041 
1958.000000	2.399992 
1957.000000	2.398848 
1956.000000	2.397727 
1955.000000	2.396607 
1954.000000	2.395510 
1953.000000	2.394437 
1952.000000	2.393412 
1951.000000	2.392411 
1950.000000	2.391409 
1949.000000	2.390360 
1948.000000	2.389311 
1947.000000	2.388238 
1946.000000	2.387213 
1945.000000	2.386212 
1944.000000	2.385282 
1943.000000	2.384448 
1942.000000	2.383756 
1941.000000	2.383184 
1940.000000	2.382707 
1939.000000	2.382254 
1938.000000	2.381777 
1937.000000	2.381277 
1936.000000	2.380704 
1935.000000	2.380013 
1934.000000	2.379226 
1933.000000	2.378320 
1932.000000	2.377271 
1931.000000	2.376151 
1930.000000	2.375006 
1929.000000	2.373790 
1928.000000	2.372527 
1927.000000	2.371263 
1926.000000	2.370023 
1925.000000	2.368760 
1924.000000	2.367472 
1923.000000	2.366209 
1922.000000	2.364969 
1921.000000	2.363681 
1920.000000	2.362418 
1919.000000	2.361154 
1918.000000	2.359914 
1917.000000	2.358675 
1916.000000	2.357530 
1915.000000	2.356433 
1914.000000	2.355408 
1913.000000	2.354478 
1912.000000	2.353620 
1911.000000	2.352762 
1910.000000	2.351975 
1909.000000	2.351212 
1908.000000	2.350449 
1907.000000	2.349662 
1906.000000	2.348828 
1905.000000	2.347922 
1904.000000	2.346944 
1903.000000	2.345943 
1902.000000	2.344870 
1901.000000	2.343797 
1900.000000	2.342677 
1899.000000	2.341628 
1898.000000	2.340602 
1897.000000	2.339673 
1896.000000	2.338910 
1895.000000	2.338266 
1894.000000	2.337837 
1893.000000	2.337574 
1892.000000	2.337479 
1891.000000	2.337598 
1890.000000	2.337837 
1889.000000	2.338242 
1888.000000	2.338814 
1887.000000	2.339458 
1886.000000	2.340102 
1885.000000	2.340769 
1884.000000	2.341413 
1883.000000	2.342033 
1882.000000	2.342605 
1881.000000	2.343106 
1880.000000	2.343535 
1879.000000	2.343916 
1878.000000	2.344226 
1877.000000	2.344465 
1876.000000	2.344655 
1875.000000	2.344775 
1874.000000	2.344870 
1873.000000	2.344942 
1872.000000	2.344989 
1871.000000	2.345108 
1870.000000	2.345252 
1869.000000	2.345514 
1868.000000	2.345871 
1867.000000	2.346324 
1866.000000	2.346897 
1865.000000	2.347540 
1864.000000	2.348279 
1863.000000	2.349066 
1862.000000	2.349901 
1861.000000	2.350711 
1860.000000	2.351546 
1859.000000	2.352356 
1858.000000	2.353191 
1857.000000	2.354073 
1856.000000	2.354979 
1855.000000	2.355885 
1854.000000	2.356767 
1853.000000	2.357602 
1852.000000	2.358293 
1851.000000	2.358818 
1850.000000	2.359104 
1849.000000	2.359199 
1848.000000	2.359175 
1847.000000	2.359104 
1846.000000	2.359151 
1845.000000	2.359437 
1844.000000	2.360081 
1843.000000	2.361059 
1842.000000	2.362442 
1841.000000	2.364087 
1840.000000	2.365922 
1839.000000	2.367782 
1838.000000	2.369499 
1837.000000	2.370977 
1836.000000	2.372121 
1835.000000	2.372956 
1834.000000	2.373433 
1833.000000	2.373671 
1832.000000	2.373790 
1831.000000	2.373838 
1830.000000	2.373981 
1829.000000	2.374267 
1828.000000	2.374792 
1827.000000	2.375602 
1826.000000	2.376675 
1825.000000	2.377963 
1824.000000	2.379441 
1823.000000	2.381014 
1822.000000	2.382636 
1821.000000	2.384233 
1820.000000	2.385759 
1819.000000	2.387213 
1818.000000	2.388572 
1817.000000	2.389788 
1816.000000	2.390909 
1815.000000	2.391958 
1814.000000	2.392983 
1813.000000	2.393984 
1812.000000	2.394986 
1811.000000	2.396011 
1810.000000	2.396988 
1809.000000	2.397918 
1808.000000	2.398729 
1807.000000	2.399349 
1806.000000	2.399754 
1805.000000	2.399969 
1804.000000	2.399969 
1803.000000	2.399778 
1802.000000	2.399396 
1801.000000	2.398848 
1800.000000	2.398133 
1799.000000	2.397274 
1798.000000	2.396297 
1797.000000	2.395248 
1796.000000	2.394175 
1795.000000	2.393198 
1794.000000	2.392458 
1793.000000	2.391982 
1792.000000	2.391886 
1791.000000	2.392053 
1790.000000	2.392530 
1789.000000	2.393150 
1788.000000	2.393770 
1787.000000	2.394318 
1786.000000	2.394723 
1785.000000	2.394938 
1784.000000	2.394938 
1783.000000	2.394723 
1782.000000	2.394270 
1781.000000	2.393579 
1780.000000	2.392601 
1779.000000	2.391266 
1778.000000	2.389526 
1777.000000	2.387475 
1776.000000	2.385258 
1775.000000	2.382969 
1774.000000	2.380943 
1773.000000	2.379322 
1772.000000	2.378249 
1771.000000	2.377796 
1770.000000	2.377963 
1769.000000	2.378582 
1768.000000	2.379417 
1767.000000	2.380204 
1766.000000	2.380752 
1765.000000	2.380919 
1764.000000	2.380585 
1763.000000	2.379846 
1762.000000	2.378654 
1761.000000	2.377080 
1760.000000	2.375197 
1759.000000	2.373027 
1758.000000	2.370595 
1757.000000	2.367925 
1756.000000	2.364993 
1755.000000	2.361893 
1754.000000	2.358675 
1753.000000	2.355456 
1752.000000	2.352285 
1751.000000	2.349305 
1750.000000	2.346563 
1749.000000	2.344012 
1748.000000	2.341604 
1747.000000	2.339220 
1746.000000	2.336740 
1745.000000	2.333998 
1744.000000	2.330851 
1743.000000	2.327227 
1742.000000	2.323055 
1741.000000	2.318334 
1740.000000	2.313208 
1739.000000	2.307868 
1738.000000	2.302551 
1737.000000	2.297568 
1736.000000	2.293324 
1735.000000	2.290034 
1734.000000	2.287912 
1733.000000	2.287101 
1732.000000	2.287364 
1731.000000	2.288556 
1730.000000	2.290320 
1729.000000	2.292180 
1728.000000	2.293705 
1727.000000	2.294540 
1726.000000	2.294325 
1725.000000	2.292990 
1724.000000	2.290511 
1723.000000	2.287101 
1722.000000	2.283000 
1721.000000	2.278685 
1720.000000	2.274537 
1719.000000	2.270936 
1718.000000	2.268218 
1717.000000	2.266502 
1716.000000	2.265763 
1715.000000	2.265906 
1714.000000	2.266573 
1713.000000	2.267384 
1712.000000	2.267932 
1711.000000	2.267837 
1710.000000	2.266860 
1709.000000	2.264809 
1708.000000	2.261662 
1707.000000	2.257466 
1706.000000	2.252388 
1705.000000	2.246737 
1704.000000	2.240681 
1703.000000	2.234673 
1702.000000	2.229022 
1701.000000	2.224111 
1700.000000	2.220249 
1699.000000	2.217745 
1698.000000	2.216625 
1697.000000	2.216863 
1696.000000	2.218246 
1695.000000	2.220273 
1694.000000	2.222442 
1693.000000	2.224254 
1692.000000	2.225136 
1691.000000	2.224802 
1690.000000	2.223134 
1689.000000	2.220344 
1688.000000	2.216792 
1687.000000	2.213001 
1686.000000	2.209472 
1685.000000	2.206659 
1684.000000	2.204847 
1683.000000	2.204084 
1682.000000	2.204108 
1681.000000	2.204585 
1680.000000	2.205133 
1679.000000	2.205395 
1678.000000	2.205061 
1677.000000	2.204108 
1676.000000	2.202510 
1675.000000	2.200531 
1674.000000	2.198290 
1673.000000	2.196073 
1672.000000	2.193951 
1671.000000	2.192044 
1670.000000	2.190327 
1669.000000	2.188777 
1668.000000	2.187347 
1667.000000	2.185964 
1666.000000	2.184605 
1665.000000	2.183222 
1664.000000	2.181625 
1663.000000	2.179670 
1662.000000	2.177119 
1661.000000	2.173733 
1660.000000	2.169299 
1659.000000	2.163815 
1658.000000	2.157402 
1657.000000	2.150440 
1656.000000	2.143406 
1655.000000	2.136874 
1654.000000	2.131414 
1653.000000	2.127313 
1652.000000	2.124786 
1651.000000	2.123785 
1650.000000	2.124071 
1649.000000	2.125191 
1648.000000	2.126693 
1647.000000	2.128267 
1646.000000	2.129459 
1645.000000	2.130079 
1644.000000	2.129912 
1643.000000	2.128958 
1642.000000	2.127194 
1641.000000	2.124691 
1640.000000	2.121639 
1639.000000	2.118301 
1638.000000	2.114915 
1637.000000	2.111721 
1636.000000	2.108955 
1635.000000	2.106785 
1634.000000	2.105116 
1633.000000	2.103805 
1632.000000	2.102589 
1631.000000	2.101182 
1630.000000	2.099299 
1629.000000	2.096796 
1628.000000	2.093577 
1627.000000	2.089595 
1626.000000	2.084970 
1625.000000	2.079772 
1624.000000	2.074050 
1623.000000	2.067804 
1622.000000	2.061033 
1621.000000	2.053737 
1620.000000	2.045845 
1619.000000	2.037358 
1618.000000	2.028322 
1617.000000	2.018880 
1616.000000	2.009105 
1615.000000	1.999235 
1614.000000	1.989412 
1613.000000	1.979923 
1612.000000	1.971077 
1611.000000	1.963067 
1610.000000	1.956224 
1609.000000	1.950812 
1608.000000	1.947021 
1607.000000	1.945018 
1606.000000	1.944756 
1605.000000	1.946043 
1604.000000	1.948714 
1603.000000	1.952338 
1602.000000	1.956605 
1601.000000	1.961207 
1600.000000	1.965808 
1599.000000	1.970219 
1598.000000	1.974320 
1597.000000	1.978015 
1596.000000	1.981234 
1595.000000	1.983952 
1594.000000	1.986145 
1593.000000	1.987743 
1592.000000	1.988792 
1591.000000	1.989269 
1590.000000	1.989245 
1589.000000	1.988768 
1588.000000	1.987838 
1587.000000	1.986503 
1586.000000	1.984739 
1585.000000	1.982545 
1584.000000	1.979851 
1583.000000	1.976680 
1582.000000	1.973080 
1581.000000	1.969194 
1580.000000	1.965212 
1579.000000	1.961374 
1578.000000	1.957917 
1577.000000	1.955080 
1576.000000	1.952910 
1575.000000	1.951479 
1574.000000	1.950669 
1573.000000	1.950287 
1572.000000	1.950097 
1571.000000	1.949834 
1570.000000	1.949143 
1569.000000	1.947712 
1568.000000	1.945233 
1567.000000	1.941561 
1566.000000	1.936602 
1565.000000	1.930403 
1564.000000	1.923251 
1563.000000	1.915669 
1562.000000	1.908302 
1561.000000	1.901841 
1560.000000	1.896977 
1559.000000	1.894211 
1558.000000	1.893782 
1557.000000	1.895689 
1556.000000	1.899528 
1555.000000	1.904726 
1554.000000	1.910591 
1553.000000	1.916360 
1552.000000	1.921439 
1551.000000	1.925349 
1550.000000	1.927804 
1549.000000	1.928830 
1548.000000	1.928639 
1547.000000	1.927590 
1546.000000	1.926183 
1545.000000	1.925158 
1544.000000	1.925158 
1543.000000	1.926851 
1542.000000	1.930761 
1541.000000	1.937127 
1540.000000	1.946043 
1539.000000	1.957321 
1538.000000	1.970481 
1537.000000	1.984906 
1536.000000	1.999831 
1535.000000	2.014565 
1534.000000	2.028441 
1533.000000	2.040958 
1532.000000	2.051687 
1531.000000	2.060484 
1530.000000	2.067375 
1529.000000	2.072334 
1528.000000	2.075529 
1527.000000	2.077293 
1526.000000	2.077913 
1525.000000	2.077674 
1524.000000	2.076935 
1523.000000	2.075958 
1522.000000	2.075028 
1521.000000	2.074241 
1520.000000	2.073645 
1519.000000	2.073192 
1518.000000	2.072763 
1517.000000	2.072191 
1516.000000	2.071237 
1515.000000	2.069664 
1514.000000	2.067255 
1513.000000	2.063918 
1512.000000	2.059578 
1511.000000	2.054142 
1510.000000	2.047634 
1509.000000	2.039861 
1508.000000	2.030563 
1507.000000	2.019047 
1506.000000	2.004694 
1505.000000	1.986551 
1504.000000	1.963829 
1503.000000	1.935935 
1502.000000	1.902794 
1501.000000	1.865077 
1500.000000	1.824212 
1499.000000	1.782321 
1498.000000	1.742053 
1497.000000	1.706194 
1496.000000	1.677465 
1495.000000	1.657795 
1494.000000	1.648449 
1493.000000	1.649475 
1492.000000	1.660370 
1491.000000	1.679444 
1490.000000	1.704812 
1489.000000	1.734113 
1488.000000	1.765370 
1487.000000	1.796531 
1486.000000	1.826167 
1485.000000	1.853084 
1484.000000	1.876640 
1483.000000	1.896476 
1482.000000	1.912498 
1481.000000	1.924896 
1480.000000	1.933884 
1479.000000	1.940035 
1478.000000	1.943850 
1477.000000	1.945900 
1476.000000	1.946568 
1475.000000	1.946449 
1474.000000	1.945877 
1473.000000	1.944947 
1472.000000	1.943683 
1471.000000	1.942133 
1470.000000	1.940155 
1469.000000	1.937460 
1468.000000	1.933884 
1467.000000	1.929211 
1466.000000	1.923346 
1465.000000	1.915907 
1464.000000	1.906776 
1463.000000	1.895833 
1462.000000	1.883029 
1461.000000	1.868367 
1460.000000	1.851916 
1459.000000	1.834106 
1458.000000	1.815509 
1457.000000	1.796984 
1456.000000	1.779317 
1455.000000	1.763510 
1454.000000	1.750564 
1453.000000	1.741433 
1452.000000	1.736569 
1451.000000	1.736187 
1450.000000	1.740217 
1449.000000	1.748108 
1448.000000	1.758909 
1447.000000	1.771521 
1446.000000	1.784753 
1445.000000	1.797533 
1444.000000	1.808929 
1443.000000	1.818370 
1442.000000	1.825642 
1441.000000	1.830887 
1440.000000	1.834416 
1439.000000	1.836681 
1438.000000	1.838183 
1437.000000	1.839327 
1436.000000	1.840376 
1435.000000	1.841449 
1434.000000	1.842474 
1433.000000	1.843523 
1432.000000	1.844453 
1431.000000	1.845073 
1430.000000	1.845383 
1429.000000	1.845288 
1428.000000	1.844811 
1427.000000	1.843857 
1426.000000	1.842427 
1425.000000	1.840543 
1424.000000	1.838302 
1423.000000	1.835799 
1422.000000	1.833128 
1421.000000	1.830410 
1420.000000	1.827740 
1419.000000	1.825141 
1418.000000	1.822543 
1417.000000	1.819705 
1416.000000	1.816344 
1415.000000	1.812148 
1414.000000	1.806688 
1413.000000	1.799702 
1412.000000	1.791024 
1411.000000	1.780796 
1410.000000	1.769161 
1409.000000	1.756691 
1408.000000	1.743984 
1407.000000	1.731801 
1406.000000	1.720905 
1405.000000	1.711988 
1404.000000	1.705574 
1403.000000	1.702022 
1402.000000	1.701307 
1401.000000	1.703429 
1400.000000	1.707959 
1399.000000	1.714468 
1398.000000	1.722359 
1397.000000	1.731014 
1396.000000	1.739811 
1395.000000	1.748108 
1394.000000	1.755356 
1393.000000	1.761174 
1392.000000	1.765251 
1391.000000	1.767516 
1390.000000	1.768088 
1389.000000	1.767301 
1388.000000	1.765561 
1387.000000	1.763510 
1386.000000	1.761722 
1385.000000	1.760625 
1384.000000	1.760530 
1383.000000	1.761603 
1382.000000	1.763749 
1381.000000	1.766657 
1380.000000	1.769995 
1379.000000	1.773357 
1378.000000	1.776552 
1377.000000	1.779317 
1376.000000	1.781630 
1375.000000	1.783442 
1374.000000	1.784944 
1373.000000	1.786208 
1372.000000	1.787328 
1371.000000	1.788353 
1370.000000	1.789236 
1369.000000	1.790070 
1368.000000	1.790714 
1367.000000	1.791214 
1366.000000	1.791548 
1365.000000	1.791787 
1364.000000	1.791954 
1363.000000	1.792073 
1362.000000	1.792192 
1361.000000	1.792335 
1360.000000	1.792454 
1359.000000	1.792550 
1358.000000	1.792526 
1357.000000	1.792335 
1356.000000	1.792049 
1355.000000	1.791667 
1354.000000	1.791167 
1353.000000	1.790571 
1352.000000	1.789975 
1351.000000	1.789402 
1350.000000	1.788902 
1349.000000	1.788449 
1348.000000	1.788091 
1347.000000	1.787805 
1346.000000	1.787638 
1345.000000	1.787614 
1344.000000	1.787805 
1343.000000	1.788234 
1342.000000	1.788973 
1341.000000	1.790094 
1340.000000	1.791596 
1339.000000	1.793503 
1338.000000	1.795816 
1337.000000	1.798415 
1336.000000	1.801228 
1335.000000	1.804137 
1334.000000	1.807045 
1333.000000	1.809787 
1332.000000	1.812362 
1331.000000	1.814627 
1330.000000	1.816630 
1329.000000	1.818346 
1328.000000	1.819777 
1327.000000	1.820945 
1326.000000	1.821875 
1325.000000	1.822638 
1324.000000	1.823282 
1323.000000	1.823806 
1322.000000	1.824283 
1321.000000	1.824712 
1320.000000	1.825118 
1319.000000	1.825571 
1318.000000	1.826047 
1317.000000	1.826596 
1316.000000	1.827192 
1315.000000	1.827812 
1314.000000	1.828408 
1313.000000	1.828908 
1312.000000	1.829314 
1311.000000	1.829600 
1310.000000	1.829695 
1309.000000	1.829600 
1308.000000	1.829385 
1307.000000	1.829051 
1306.000000	1.828694 
1305.000000	1.828312 
1304.000000	1.827979 
1303.000000	1.827740 
1302.000000	1.827645 
1301.000000	1.827692 
1300.000000	1.827812 
1299.000000	1.828169 
1298.000000	1.828527 
1297.000000	1.828932 
1296.000000	1.829338 
1295.000000	1.829743 
1294.000000	1.830053 
1293.000000	1.830267 
1292.000000	1.830387 
1291.000000	1.830387 
1290.000000	1.830363 
1289.000000	1.830267 
1288.000000	1.830077 
1287.000000	1.829814 
1286.000000	1.829481 
1285.000000	1.829004 
1284.000000	1.828241 
1283.000000	1.827216 
1282.000000	1.825881 
1281.000000	1.824140 
1280.000000	1.821923 
1279.000000	1.819229 
1278.000000	1.816034 
1277.000000	1.812219 
1276.000000	1.807689 
1275.000000	1.802301 
1274.000000	1.795983 
1273.000000	1.788640 
1272.000000	1.780176 
1271.000000	1.770591 
1270.000000	1.760077 
1269.000000	1.748847 
1268.000000	1.737332 
1267.000000	1.725959 
1266.000000	1.715397 
1265.000000	1.706266 
1264.000000	1.699161 
1263.000000	1.694536 
1262.000000	1.692795 
1261.000000	1.693987 
1260.000000	1.698040 
1259.000000	1.704549 
1258.000000	1.713085 
1257.000000	1.722979 
1256.000000	1.733660 
1255.000000	1.744461 
1254.000000	1.754903 
1253.000000	1.764607 
1252.000000	1.773357 
1251.000000	1.781010 
1250.000000	1.787590 
1249.000000	1.793098 
1248.000000	1.797723 
1247.000000	1.801562 
1246.000000	1.804709 
1245.000000	1.807284 
1244.000000	1.809310 
1243.000000	1.810932 
1242.000000	1.812124 
1241.000000	1.812887 
1240.000000	1.813340 
1239.000000	1.813435 
1238.000000	1.813173 
1237.000000	1.812577 
1236.000000	1.811718 
1235.000000	1.810598 
1234.000000	1.809263 
1233.000000	1.807785 
1232.000000	1.806187 
1231.000000	1.804494 
1230.000000	1.802754 
1229.000000	1.800942 
1228.000000	1.799082 
1227.000000	1.797175 
1226.000000	1.795196 
1225.000000	1.793026 
1224.000000	1.790666 
1223.000000	1.787972 
1222.000000	1.784944 
1221.000000	1.781535 
1220.000000	1.777696 
1219.000000	1.773452 
1218.000000	1.768851 
1217.000000	1.763987 
1216.000000	1.758885 
1215.000000	1.753735 
1214.000000	1.748728 
1213.000000	1.743912 
1212.000000	1.739549 
1211.000000	1.735734 
1210.000000	1.732516 
1209.000000	1.729941 
1208.000000	1.728010 
1207.000000	1.726627 
1206.000000	1.725745 
1205.000000	1.725196 
1204.000000	1.724982 
1203.000000	1.724934 
1202.000000	1.725077 
1201.000000	1.725220 
1200.000000	1.725411 
1199.000000	1.725578 
1198.000000	1.725602 
1197.000000	1.725459 
1196.000000	1.725125 
1195.000000	1.724553 
1194.000000	1.723694 
1193.000000	1.722574 
1192.000000	1.721191 
1191.000000	1.719522 
1190.000000	1.717662 
1189.000000	1.715588 
1188.000000	1.713395 
1187.000000	1.711034 
1186.000000	1.708555 
1185.000000	1.706027 
1184.000000	1.703453 
1183.000000	1.700830 
1182.000000	1.698207 
1181.000000	1.695537 
1180.000000	1.692795 
1179.000000	1.690006 
1178.000000	1.687192 
1177.000000	1.684284 
1176.000000	1.681303 
1175.000000	1.678204 
1174.000000	1.674914 
1173.000000	1.671385 
1172.000000	1.667618 
1171.000000	1.663517 
1170.000000	1.659083 
1169.000000	1.654338 
1168.000000	1.649379 
1167.000000	1.644158 
1166.000000	1.638841 
1165.000000	1.633524 
1164.000000	1.628303 
1163.000000	1.623296 
1162.000000	1.618552 
1161.000000	1.614165 
1160.000000	1.610207 
1159.000000	1.606726 
1158.000000	1.603698 
1157.000000	1.601147 
1156.000000	1.599001 
1155.000000	1.597166 
1154.000000	1.595616 
1153.000000	1.594233 
1152.000000	1.592922 
1151.000000	1.591658 
1150.000000	1.590323 
1149.000000	1.588916 
1148.000000	1.587367 
1147.000000	1.585721 
1146.000000	1.583933 
1145.000000	1.582026 
1144.000000	1.579952 
1143.000000	1.577734 
1142.000000	1.575303 
1141.000000	1.572704 
1140.000000	1.569914 
1139.000000	1.566886 
1138.000000	1.563644 
1137.000000	1.560235 
1136.000000	1.556634 
1135.000000	1.552891 
1134.000000	1.548957 
1133.000000	1.544880 
1132.000000	1.540708 
1131.000000	1.536393 
1130.000000	1.532006 
1129.000000	1.527500 
1128.000000	1.522850 
1127.000000	1.518130 
1126.000000	1.513314 
1125.000000	1.508402 
1124.000000	1.503419 
1123.000000	1.498389 
1122.000000	1.493263 
1121.000000	1.488065 
1120.000000	1.482844 
1119.000000	1.477527 
1118.000000	1.472163 
1117.000000	1.466727 
1116.000000	1.461243 
1115.000000	1.455807 
1114.000000	1.450443 
1113.000000	1.445221 
1112.000000	1.440215 
1111.000000	1.435565 
1110.000000	1.431322 
1109.000000	1.427531 
1108.000000	1.424312 
1107.000000	1.421570 
1106.000000	1.419329 
1105.000000	1.417517 
1104.000000	1.416039 
1103.000000	1.414799 
1102.000000	1.413750 
1101.000000	1.412796 
1100.000000	1.411962 
1099.000000	1.411223 
1098.000000	1.410579 
1097.000000	1.410079 
1096.000000	1.409745 
1095.000000	1.409554 
1094.000000	1.409554 
1093.000000	1.409697 
1092.000000	1.409959 
1091.000000	1.410341 
1090.000000	1.410770 
1089.000000	1.411199 
1088.000000	1.411628 
1087.000000	1.412010 
1086.000000	1.412320 
1085.000000	1.412534 
1084.000000	1.412534 
1083.000000	1.412415 
1082.000000	1.412200 
1081.000000	1.411867 
1080.000000	1.411485 
1079.000000	1.411128 
1078.000000	1.410937 
1077.000000	1.410984 
1076.000000	1.411318 
1075.000000	1.412034 
1074.000000	1.413035 
1073.000000	1.414322 
1072.000000	1.415801 
1071.000000	1.417303 
1070.000000	1.418733 
1069.000000	1.419973 
1068.000000	1.420927 
1067.000000	1.421475 
1066.000000	1.421666 
1065.000000	1.421332 
1064.000000	1.420331 
1063.000000	1.418471 
1062.000000	1.415467 
1061.000000	1.410889 
1060.000000	1.404333 
1059.000000	1.395463 
1058.000000	1.384258 
1057.000000	1.370763 
1056.000000	1.355600 
1055.000000	1.339483 
1054.000000	1.323604 
1053.000000	1.309299 
1052.000000	1.297736 
1051.000000	1.290011 
1050.000000	1.286649 
1049.000000	1.287722 
1048.000000	1.292943 
1047.000000	1.301455 
1046.000000	1.312088 
1045.000000	1.323628 
1044.000000	1.335000 
1043.000000	1.345205 
1042.000000	1.353693 
1041.000000	1.360177 
1040.000000	1.364707 
1039.000000	1.367473 
1038.000000	1.368832 
1037.000000	1.369047 
1036.000000	1.368451 
1035.000000	1.367282 
1034.000000	1.365685 
1033.000000	1.363730 
1032.000000	1.361536 
1031.000000	1.359200 
1030.000000	1.356792 
1029.000000	1.354408 
1028.000000	1.352167 
1027.000000	1.350164 
1026.000000	1.348447 
1025.000000	1.347041 
1024.000000	1.346039 
1023.000000	1.345419 
1022.000000	1.345205 
1021.000000	1.345372 
1020.000000	1.345944 
1019.000000	1.346969 
1018.000000	1.348376 
1017.000000	1.350164 
1016.000000	1.352286 
1015.000000	1.354622 
1014.000000	1.357102 
1013.000000	1.359653 
1012.000000	1.362133 
1011.000000	1.364493 
1010.000000	1.366758 
1009.000000	1.368856 
1008.000000	1.370787 
1007.000000	1.372623 
1006.000000	1.374435 
1005.000000	1.376152 
1004.000000	1.377820 
1003.000000	1.379275 
1002.000000	1.380586 
1001.000000	1.381707 
1000.000000	1.382517 
999.000000	 1.383018 
998.000000	 1.383185 
997.000000	 1.383042 
996.000000	 1.382613 
995.000000	 1.381969 
994.000000	 1.381158 
993.000000	 1.380181 
992.000000	 1.379108 
991.000000	 1.377940 
990.000000	 1.376652 
989.000000	 1.375222 
988.000000	 1.373696 
987.000000	 1.372075 
986.000000	 1.370358 
985.000000	 1.368522 
984.000000	 1.366615 
983.000000	 1.364660 
982.000000	 1.362729 
981.000000	 1.360750 
980.000000	 1.358771 
979.000000	 1.356768 
978.000000	 1.354670 
977.000000	 1.352524 
976.000000	 1.350259 
975.000000	 1.347875 
974.000000	 1.345396 
973.000000	 1.342749 
972.000000	 1.339936 
971.000000	 1.337027 
970.000000	 1.333951 
969.000000	 1.330780 
968.000000	 1.327514 
967.000000	 1.324152 
966.000000	 1.320767 
965.000000	 1.317310 
964.000000	 1.313853 
963.000000	 1.310372 
962.000000	 1.306915 
961.000000	 1.303458 
960.000000	 1.300024 
959.000000	 1.296615 
958.000000	 1.293230 
957.000000	 1.289868 
956.000000	 1.286482 
955.000000	 1.283121 
954.000000	 1.279783 
953.000000	 1.276516 
952.000000	 1.273298 
951.000000	 1.270127 
950.000000	 1.267051 
949.000000	 1.264142 
948.000000	 1.261305 
947.000000	 1.258587 
946.000000	 1.256012 
945.000000	 1.253604 
944.000000	 1.251339 
943.000000	 1.249289 
942.000000	 1.247334 
941.000000	 1.245522 
940.000000	 1.243782 
939.000000	 1.242041 
938.000000	 1.240277 
937.000000	 1.238441 
936.000000	 1.236510 
935.000000	 1.234459 
934.000000	 1.232290 
933.000000	 1.230001 
932.000000	 1.227641 
931.000000	 1.225256 
930.000000	 1.222896 
929.000000	 1.220631 
928.000000	 1.218390 
927.000000	 1.216244 
926.000000	 1.214170 
925.000000	 1.212072 
924.000000	 1.209950 
923.000000	 1.207709 
922.000000	 1.205348 
921.000000	 1.202797 
920.000000	 1.200056 
919.000000	 1.197075 
918.000000	 1.193928 
917.000000	 1.190590 
916.000000	 1.187086 
915.000000	 1.183462 
914.000000	 1.179718 
913.000000	 1.175975 
912.000000	 1.172256 
911.000000	 1.168632 
910.000000	 1.165151 
909.000000	 1.161885 
908.000000	 1.158857 
907.000000	 1.156044 
906.000000	 1.153469 
905.000000	 1.151084 
904.000000	 1.148867 
903.000000	 1.146793 
902.000000	 1.144814 
901.000000	 1.142930 
900.000000	 1.141142 
899.000000	 1.139473 
898.000000	 1.137828 
897.000000	 1.136231 
896.000000	 1.134610 
895.000000	 1.132869 
894.000000	 1.130890 
893.000000	 1.128578 
892.000000	 1.125788 
891.000000	 1.122498 
890.000000	 1.118421 
889.000000	 1.113510 
888.000000	 1.107716 
887.000000	 1.101016 
886.000000	 1.093363 
885.000000	 1.084923 
884.000000	 1.075839 
883.000000	 1.066398 
882.000000	 1.056861 
881.000000	 1.047635 
880.000000	 1.039099 
879.000000	 1.031589 
878.000000	 1.025485 
877.000000	 1.021027 
876.000000	 1.018404 
875.000000	 1.017642 
874.000000	 1.018691 
873.000000	 1.021385 
872.000000	 1.025462 
871.000000	 1.030635 
870.000000	 1.036524 
869.000000	 1.042771 
868.000000	 1.048994 
867.000000	 1.054954 
866.000000	 1.060414 
865.000000	 1.065230 
864.000000	 1.069378 
863.000000	 1.072835 
862.000000	 1.075601 
861.000000	 1.077723 
860.000000	 1.079273 
859.000000	 1.080298 
858.000000	 1.080822 
857.000000	 1.080894 
856.000000	 1.080465 
855.000000	 1.079726 
854.000000	 1.078677 
853.000000	 1.077437 
852.000000	 1.076054 
851.000000	 1.074624 
850.000000	 1.073217 
849.000000	 1.071858 
848.000000	 1.070451 
847.000000	 1.069021 
846.000000	 1.067447 
845.000000	 1.065564 
844.000000	 1.063275 
843.000000	 1.060533 
842.000000	 1.057076 
841.000000	 1.052975 
840.000000	 1.047849 
839.000000	 1.041674 
838.000000	 1.034212 
837.000000	 1.025247 
836.000000	 1.014518 
835.000000	 1.001858 
834.000000	 0.987172 
833.000000	 0.970506 
832.000000	 0.952124 
831.000000	 0.932550 
830.000000	 0.912523 
829.000000	 0.892877 
828.000000	 0.874733 
827.000000	 0.859117 
826.000000	 0.846934 
825.000000	 0.838947 
824.000000	 0.835466 
823.000000	 0.836491 
822.000000	 0.841593 
821.000000	 0.850057 
820.000000	 0.860905 
819.000000	 0.873112 
818.000000	 0.885605 
817.000000	 0.897526 
816.000000	 0.908160 
815.000000	 0.917100 
814.000000	 0.924229 
813.000000	 0.929522 
812.000000	 0.933241 
811.000000	 0.935649 
810.000000	 0.937080 
809.000000	 0.937724 
808.000000	 0.937867 
807.000000	 0.937700 
806.000000	 0.937390 
805.000000	 0.936937 
804.000000	 0.936532 
803.000000	 0.936245 
802.000000	 0.936126 
801.000000	 0.936245 
800.000000	 0.936698 
799.000000	 0.937533 
798.000000	 0.938773 
797.000000	 0.940370 
796.000000	 0.942349 
795.000000	 0.944662 
794.000000	 0.947213 
793.000000	 0.949907 
792.000000	 0.952649 
791.000000	 0.955390 
790.000000	 0.957989 
789.000000	 0.960373 
788.000000	 0.962495 
787.000000	 0.964283 
786.000000	 0.965833 
785.000000	 0.967049 
784.000000	 0.968003 
783.000000	 0.968742 
782.000000	 0.969243 
781.000000	 0.969529 
780.000000	 0.969600 
779.000000	 0.969481 
778.000000	 0.969171 
777.000000	 0.968670 
776.000000	 0.968003 
775.000000	 0.967192 
774.000000	 0.966286 
773.000000	 0.965285 
772.000000	 0.964260 
771.000000	 0.963282 
770.000000	 0.962328 
769.000000	 0.961446 
768.000000	 0.960612 
767.000000	 0.959825 
766.000000	 0.959038 
765.000000	 0.958251 
764.000000	 0.957393 
763.000000	 0.956487 
762.000000	 0.955510 
761.000000	 0.954484 
760.000000	 0.953412 
759.000000	 0.952315 
758.000000	 0.951290 
757.000000	 0.950241 
756.000000	 0.949215 
755.000000	 0.948238 
754.000000	 0.947213 
753.000000	 0.946187 
752.000000	 0.945115 
751.000000	 0.943970 
750.000000	 0.942754 
749.000000	 0.941514 
748.000000	 0.940227 
747.000000	 0.938892 
746.000000	 0.937509 
745.000000	 0.936007 
744.000000	 0.934433 
743.000000	 0.932693 
742.000000	 0.930786 
741.000000	 0.928711 
740.000000	 0.926494 
739.000000	 0.924134 
738.000000	 0.921726 
737.000000	 0.919246 
736.000000	 0.916767 
735.000000	 0.914287 
734.000000	 0.911760 
733.000000	 0.909161 
732.000000	 0.906491 
731.000000	 0.903654 
730.000000	 0.900697 
729.000000	 0.897550 
728.000000	 0.894308 
727.000000	 0.890946 
726.000000	 0.887560 
725.000000	 0.884199 
724.000000	 0.880956 
723.000000	 0.877833 
722.000000	 0.874829 
721.000000	 0.871968 
720.000000	 0.869154 
719.000000	 0.866389 
718.000000	 0.863599 
717.000000	 0.860738 
716.000000	 0.857806 
715.000000	 0.854802 
714.000000	 0.851798 
713.000000	 0.848817 
712.000000	 0.845885 
711.000000	 0.843071 
710.000000	 0.840258 
709.000000	 0.837469 
708.000000	 0.834631 
707.000000	 0.831699 
706.000000	 0.828528 
705.000000	 0.825142 
704.000000	 0.821518 
703.000000	 0.817680 
702.000000	 0.813674 
701.000000	 0.809454 
700.000000	 0.805068 
699.000000	 0.800418 
698.000000	 0.795388 
697.000000	 0.789880 
696.000000	 0.783872 
695.000000	 0.777244 
694.000000	 0.770020 
693.000000	 0.762367 
692.000000	 0.754594 
691.000000	 0.746989 
690.000000	 0.739955 
689.000000	 0.733804 
688.000000	 0.728893 
687.000000	 0.725317 
686.000000	 0.723075 
685.000000	 0.722026 
684.000000	 0.721907 
683.000000	 0.722360 
682.000000	 0.723004 
681.000000	 0.723624 
680.000000	 0.723958 
679.000000	 0.723934 
678.000000	 0.723528 
677.000000	 0.722765 
676.000000	 0.721716 
675.000000	 0.720453 
674.000000	 0.718998 
673.000000	 0.717377 
672.000000	 0.715589 
671.000000	 0.713586 
670.000000	 0.711393 
669.000000	 0.709033 
668.000000	 0.706577 
667.000000	 0.704097 
666.000000	 0.701618 
665.000000	 0.699257 
664.000000	 0.697040 
663.000000	 0.694918 
662.000000	 0.692915 
661.000000	 0.690984 
660.000000	 0.689029 
659.000000	 0.687050 
658.000000	 0.684976 
657.000000	 0.682735 
656.000000	 0.680375 
655.000000	 0.677871 
654.000000	 0.675249 
653.000000	 0.672483 
652.000000	 0.669622 
651.000000	 0.666713 
650.000000	 0.663781 
649.000000	 0.660824 
648.000000	 0.657939 
647.000000	 0.655102 
646.000000	 0.652289 
645.000000	 0.649571 
644.000000	 0.646901 
643.000000	 0.644230 
642.000000	 0.641584 
641.000000	 0.638914 
640.000000	 0.636219 
639.000000	 0.633502 
638.000000	 0.630712 
637.000000	 0.627923 
636.000000	 0.625181 
635.000000	 0.622439 
634.000000	 0.619745 
633.000000	 0.617074 
632.000000	 0.614500 
631.000000	 0.611948 
630.000000	 0.609445 
629.000000	 0.606966 
628.000000	 0.604462 
627.000000	 0.601959 
626.000000	 0.599431 
625.000000	 0.596880 
624.000000	 0.594305 
623.000000	 0.591683 
622.000000	 0.588989 
621.000000	 0.586247 
620.000000	 0.583362 
619.000000	 0.580334 
618.000000	 0.577068 
617.000000	 0.573539 
616.000000	 0.569677 
615.000000	 0.565409 
614.000000	 0.560784 
613.000000	 0.555849 
612.000000	 0.550675 
611.000000	 0.545406 
610.000000	 0.540208 
609.000000	 0.535273 
608.000000	 0.530815 
607.000000	 0.526952 
606.000000	 0.523853 
605.000000	 0.521492 
604.000000	 0.519871 
603.000000	 0.518941 
602.000000	 0.518488 
601.000000	 0.518321 
600.000000	 0.518298 
599.000000	 0.518250 
598.000000	 0.517988 
597.000000	 0.517439 
596.000000	 0.516581 
595.000000	 0.515484 
594.000000	 0.514078 
593.000000	 0.512528 
592.000000	 0.510859 
591.000000	 0.509190 
590.000000	 0.507593 
589.000000	 0.506043 
588.000000	 0.504612 
587.000000	 0.503325 
586.000000	 0.502133 
585.000000	 0.501012 
584.000000	 0.499963 
583.000000	 0.498914 
582.000000	 0.497937 
581.000000	 0.496935 
580.000000	 0.495934 
579.000000	 0.495004 
578.000000	 0.494098 
577.000000	 0.493240 
576.000000	 0.492501 
575.000000	 0.491833 
574.000000	 0.491189 
573.000000	 0.490593 
572.000000	 0.489997 
571.000000	 0.489330 
570.000000	 0.488567 
569.000000	 0.487709 
568.000000	 0.486731 
567.000000	 0.485634 
566.000000	 0.484347 
565.000000	 0.482940 
564.000000	 0.481367 
563.000000	 0.479698 
562.000000	 0.477910 
561.000000	 0.476026 
560.000000	 0.474119 
559.000000	 0.472187 
558.000000	 0.470256 
557.000000	 0.468373 
556.000000	 0.466489 
555.000000	 0.464630 
554.000000	 0.462770 
553.000000	 0.460958 
552.000000	 0.459146 
551.000000	 0.457358 
550.000000	 0.455546 
549.000000	 0.453758 
548.000000	 0.451970 
547.000000	 0.450158 
546.000000	 0.448346 
545.000000	 0.446462 
544.000000	 0.444531 
543.000000	 0.442552 
542.000000	 0.440549 
541.000000	 0.438547 
540.000000	 0.436615 
539.000000	 0.434756 
538.000000	 0.432968 
537.000000	 0.431251 
536.000000	 0.429582 
535.000000	 0.427913 
534.000000	 0.426220 
533.000000	 0.424432 
532.000000	 0.422573 
531.000000	 0.420546 
530.000000	 0.418376 
529.000000	 0.416088 
528.000000	 0.413703 
527.000000	 0.411200 
526.000000	 0.408625 
525.000000	 0.406002 
524.000000	 0.403356 
523.000000	 0.400733 
522.000000	 0.398135 
521.000000	 0.395584 
520.000000	 0.393104 
519.000000	 0.390744 
518.000000	 0.388479 
517.000000	 0.386309 
516.000000	 0.384235 
515.000000	 0.382208 
514.000000	 0.380206 
513.000000	 0.378108 
512.000000	 0.375890 
511.000000	 0.373506 
510.000000	 0.370907 
509.000000	 0.368237 
508.000000	 0.365495 
507.000000	 0.362849 
506.000000	 0.360417 
505.000000	 0.358295 
504.000000	 0.356507 
503.000000	 0.354981 
502.000000	 0.353550 
501.000000	 0.352025 
500.000000	 0.350213 
499.000000	 0.347924 
498.000000	 0.344991 
497.000000	 0.341439 
496.000000	 0.337338 
495.000000	 0.332808 
494.000000	 0.328087 
493.000000	 0.323367 
492.000000	 0.318837 
491.000000	 0.314569 
490.000000	 0.310635 
489.000000	 0.306987 
488.000000	 0.303602 
487.000000	 0.300335 
486.000000	 0.297093 
485.000000	 0.293850 
484.000000	 0.290513 
483.000000	 0.287032 
482.000000	 0.283479 
481.000000	 0.279903 
480.000000	 0.276255 
479.000000	 0.272703 
478.000000	 0.269222 
477.000000	 0.265860 
476.000000	 0.262665 
475.000000	 0.259637 
474.000000	 0.256752 
473.000000	 0.254034 
472.000000	 0.251436 
471.000000	 0.248885 
470.000000	 0.246334 
469.000000	 0.243735 
468.000000	 0.240993 
467.000000	 0.238013 
466.000000	 0.234794 
465.000000	 0.231218 
464.000000	 0.227379 
463.000000	 0.223278 
462.000000	 0.219058 
461.000000	 0.214743 
460.000000	 0.210452 
459.000000	 0.206303 
458.000000	 0.202298 
457.000000	 0.198411 
456.000000	 0.194644 
455.000000	 0.190925 
454.000000	 0.187206 
453.000000	 0.183415 
452.000000	 0.179576 
451.000000	 0.175738 
450.000000	 0.171971 
449.000000	 0.168323 
448.000000	 0.164914 
447.000000	 0.161743 
446.000000	 0.158834 
445.000000	 0.156188 
444.000000	 0.153732 
443.000000	 0.151491 
442.000000	 0.149345 
441.000000	 0.147294 
440.000000	 0.145220 
439.000000	 0.143122 
438.000000	 0.140953 
437.000000	 0.138688 
436.000000	 0.136232 
435.000000	 0.133538 
434.000000	 0.130724 
433.000000	 0.127744 
432.000000	 0.124549 
431.000000	 0.121259 
430.000000	 0.117897 
429.000000	 0.114536 
428.000000	 0.111126 
427.000000	 0.107693 
426.000000	 0.104284 
425.000000	 0.100898 
424.000000	 0.097489 
423.000000	 0.094079 
422.000000	 0.090765 
421.000000	 0.087523 
420.000000	 0.084400 
419.000000	 0.081396 
418.000000	 0.078558 
417.000000	 0.075864 
416.000000	 0.073242 
415.000000	 0.070667 
414.000000	 0.068140 
413.000000	 0.065612 
412.000000	 0.063085 
411.000000	 0.060629 
410.000000	 0.058245 
409.000000	 0.055956 
408.000000	 0.053882 
407.000000	 0.051879 
406.000000	 0.050020 
405.000000	 0.048184 
404.000000	 0.046348 
403.000000	 0.044441 
402.000000	 0.042414 
401.000000	 0.040340 
400.000000	 0.038170 
399.000000	 0.036001 
398.000000	 0.033855 
397.000000	 0.031852 
396.000000	 0.029993 
395.000000	 0.028347 
394.000000	 0.026965 
393.000000	 0.025773 
392.000000	 0.024771 
391.000000	 0.023984 
390.000000	 0.023317 
389.000000	 0.022745 
388.000000	 0.022172 
387.000000	 0.021600 
386.000000	 0.020980 
385.000000	 0.020241 
384.000000	 0.019311 
383.000000	 0.018215 
382.000000	 0.016927 
381.000000	 0.015521 
380.000000	 0.013947 
379.000000	 0.012326 
378.000000	 0.010752 
377.000000	 0.009202 
376.000000	 0.007867 
375.000000	 0.006747 
374.000000	 0.005936 
373.000000	 0.005435 
372.000000	 0.005221 
371.000000	 0.005316 
370.000000	 0.005602 

