PE IR       SPECTRUM    SPECTRUM    ASCII       PEDS        1.60        
  -1
LP081C~1.ASC
17/05/19
19:50:42.00
17/05/19
19:50:42.00
tln
$LPE454_e0125$<ebV0>[-23.3,12.1,10.0,0.0,27,1,0]
370.000000
64









2002,4.07    
MIRTGS : RIGHTBACK : INTERNAL 2
MIR : ON : INTERNAL 2
OPTKBR

0.200000
8
8.000000
FILLER
SINGLE
SPECTRUM
UNLOCKED 256

DOUBLE

COMBINED
1
0
0


1.000000
BACKG


1
0
TRUE
51149
0
LEFT NOT FITTED RIGHT NOT FITTED 0
NONE
NONE
15600
12.000000
4.427000
51148
TRUE
1 0 8 72 0 0 0 0 

15798.010000






#HDR
-1
-1
#GR
CM-1
EGY
0.00002384185791015625
0.0
5000.000000
-1.000000
4631
8
2.427363
0.005984
#DATA
5000.000000	0.772905 
4999.000000	0.773143 
4998.000000	0.773429 
4997.000000	0.773715 
4996.000000	0.774049 
4995.000000	0.774335 
4994.000000	0.774693 
4993.000000	0.775027 
4992.000000	0.775480 
4991.000000	0.775957 
4990.000000	0.776505 
4989.000000	0.777101 
4988.000000	0.777697 
4987.000000	0.778222 
4986.000000	0.778651 
4985.000000	0.778961 
4984.000000	0.779151 
4983.000000	0.779271 
4982.000000	0.779318 
4981.000000	0.779390 
4980.000000	0.779581 
4979.000000	0.779891 
4978.000000	0.780344 
4977.000000	0.780963 
4976.000000	0.781631 
4975.000000	0.782346 
4974.000000	0.783014 
4973.000000	0.783634 
4972.000000	0.784206 
4971.000000	0.784683 
4970.000000	0.785183 
4969.000000	0.785708 
4968.000000	0.786280 
4967.000000	0.786900 
4966.000000	0.787544 
4965.000000	0.788164 
4964.000000	0.788807 
4963.000000	0.789332 
4962.000000	0.789809 
4961.000000	0.790190 
4960.000000	0.790572 
4959.000000	0.790929 
4958.000000	0.791311 
4957.000000	0.791764 
4956.000000	0.792312 
4955.000000	0.792837 
4954.000000	0.793313 
4953.000000	0.793790 
4952.000000	0.794148 
4951.000000	0.794458 
4950.000000	0.794625 
4949.000000	0.794696 
4948.000000	0.794768 
4947.000000	0.794816 
4946.000000	0.794887 
4945.000000	0.795054 
4944.000000	0.795292 
4943.000000	0.795626 
4942.000000	0.796055 
4941.000000	0.796532 
4940.000000	0.797009 
4939.000000	0.797533 
4938.000000	0.798034 
4937.000000	0.798511 
4936.000000	0.798988 
4935.000000	0.799465 
4934.000000	0.799989 
4933.000000	0.800561 
4932.000000	0.801229 
4931.000000	0.801992 
4930.000000	0.802850 
4929.000000	0.803852 
4928.000000	0.804901 
4927.000000	0.805974 
4926.000000	0.807046 
4925.000000	0.808072 
4924.000000	0.808978 
4923.000000	0.809741 
4922.000000	0.810313 
4921.000000	0.810694 
4920.000000	0.810790 
4919.000000	0.810599 
4918.000000	0.810194 
4917.000000	0.809597 
4916.000000	0.808882 
4915.000000	0.808119 
4914.000000	0.807452 
4913.000000	0.806975 
4912.000000	0.806689 
4911.000000	0.806641 
4910.000000	0.806879 
4909.000000	0.807309 
4908.000000	0.807785 
4907.000000	0.808334 
4906.000000	0.808787 
4905.000000	0.809192 
4904.000000	0.809478 
4903.000000	0.809693 
4902.000000	0.809836 
4901.000000	0.810003 
4900.000000	0.810194 
4899.000000	0.810480 
4898.000000	0.810837 
4897.000000	0.811314 
4896.000000	0.811815 
4895.000000	0.812339 
4894.000000	0.812864 
4893.000000	0.813341 
4892.000000	0.813770 
4891.000000	0.814151 
4890.000000	0.814509 
4889.000000	0.814914 
4888.000000	0.815415 
4887.000000	0.816035 
4886.000000	0.816845 
4885.000000	0.817799 
4884.000000	0.818920 
4883.000000	0.819993 
4882.000000	0.821065 
4881.000000	0.821995 
4880.000000	0.822687 
4879.000000	0.823116 
4878.000000	0.823330 
4877.000000	0.823378 
4876.000000	0.823330 
4875.000000	0.823354 
4874.000000	0.823473 
4873.000000	0.823831 
4872.000000	0.824451 
4871.000000	0.825333 
4870.000000	0.826454 
4869.000000	0.827741 
4868.000000	0.829100 
4867.000000	0.830411 
4866.000000	0.831627 
4865.000000	0.832700 
4864.000000	0.833535 
4863.000000	0.834178 
4862.000000	0.834608 
4861.000000	0.834870 
4860.000000	0.835013 
4859.000000	0.835084 
4858.000000	0.835156 
4857.000000	0.835275 
4856.000000	0.835418 
4855.000000	0.835657 
4854.000000	0.835943 
4853.000000	0.836348 
4852.000000	0.836849 
4851.000000	0.837421 
4850.000000	0.838017 
4849.000000	0.838708 
4848.000000	0.839447 
4847.000000	0.840234 
4846.000000	0.841069 
4845.000000	0.841951 
4844.000000	0.842905 
4843.000000	0.843977 
4842.000000	0.845050 
4841.000000	0.846147 
4840.000000	0.847196 
4839.000000	0.848197 
4838.000000	0.849103 
4837.000000	0.849866 
4836.000000	0.850439 
4835.000000	0.850868 
4834.000000	0.851130 
4833.000000	0.851297 
4832.000000	0.851392 
4831.000000	0.851535 
4830.000000	0.851726 
4829.000000	0.852012 
4828.000000	0.852417 
4827.000000	0.852966 
4826.000000	0.853610 
4825.000000	0.854277 
4824.000000	0.854992 
4823.000000	0.855731 
4822.000000	0.856447 
4821.000000	0.857090 
4820.000000	0.857734 
4819.000000	0.858330 
4818.000000	0.858926 
4817.000000	0.859498 
4816.000000	0.860095 
4815.000000	0.860714 
4814.000000	0.861334 
4813.000000	0.862026 
4812.000000	0.862693 
4811.000000	0.863385 
4810.000000	0.864100 
4809.000000	0.864791 
4808.000000	0.865459 
4807.000000	0.866103 
4806.000000	0.866675 
4805.000000	0.867176 
4804.000000	0.867676 
4803.000000	0.868129 
4802.000000	0.868582 
4801.000000	0.869035 
4800.000000	0.869464 
4799.000000	0.869917 
4798.000000	0.870394 
4797.000000	0.870847 
4796.000000	0.871300 
4795.000000	0.871658 
4794.000000	0.871968 
4793.000000	0.872254 
4792.000000	0.872516 
4791.000000	0.872802 
4790.000000	0.873160 
4789.000000	0.873637 
4788.000000	0.874257 
4787.000000	0.875020 
4786.000000	0.875878 
4785.000000	0.876784 
4784.000000	0.877690 
4783.000000	0.878548 
4782.000000	0.879263 
4781.000000	0.879788 
4780.000000	0.880122 
4779.000000	0.880265 
4778.000000	0.880289 
4777.000000	0.880241 
4776.000000	0.880193 
4775.000000	0.880265 
4774.000000	0.880503 
4773.000000	0.880932 
4772.000000	0.881576 
4771.000000	0.882411 
4770.000000	0.883340 
4769.000000	0.884294 
4768.000000	0.885248 
4767.000000	0.886130 
4766.000000	0.886917 
4765.000000	0.887584 
4764.000000	0.888156 
4763.000000	0.888657 
4762.000000	0.889110 
4761.000000	0.889492 
4760.000000	0.889825 
4759.000000	0.890088 
4758.000000	0.890278 
4757.000000	0.890398 
4756.000000	0.890517 
4755.000000	0.890636 
4754.000000	0.890874 
4753.000000	0.891280 
4752.000000	0.891828 
4751.000000	0.892567 
4750.000000	0.893354 
4749.000000	0.894260 
4748.000000	0.895047 
4747.000000	0.895786 
4746.000000	0.896406 
4745.000000	0.896906 
4744.000000	0.897240 
4743.000000	0.897526 
4742.000000	0.897741 
4741.000000	0.897955 
4740.000000	0.898170 
4739.000000	0.898337 
4738.000000	0.898432 
4737.000000	0.898456 
4736.000000	0.898432 
4735.000000	0.898241 
4734.000000	0.898027 
4733.000000	0.897765 
4732.000000	0.897550 
4731.000000	0.897407 
4730.000000	0.897336 
4729.000000	0.897359 
4728.000000	0.897431 
4727.000000	0.897550 
4726.000000	0.897622 
4725.000000	0.897645 
4724.000000	0.897526 
4723.000000	0.897336 
4722.000000	0.897026 
4721.000000	0.896668 
4720.000000	0.896334 
4719.000000	0.896048 
4718.000000	0.895905 
4717.000000	0.896000 
4716.000000	0.896239 
4715.000000	0.896692 
4714.000000	0.897240 
4713.000000	0.897812 
4712.000000	0.898361 
4711.000000	0.898861 
4710.000000	0.899219 
4709.000000	0.899434 
4708.000000	0.899505 
4707.000000	0.899481 
4706.000000	0.899291 
4705.000000	0.899076 
4704.000000	0.898814 
4703.000000	0.898599 
4702.000000	0.898385 
4701.000000	0.898194 
4700.000000	0.898051 
4699.000000	0.897979 
4698.000000	0.897932 
4697.000000	0.897932 
4696.000000	0.898051 
4695.000000	0.898218 
4694.000000	0.898480 
4693.000000	0.898885 
4692.000000	0.899338 
4691.000000	0.899910 
4690.000000	0.900578 
4689.000000	0.901269 
4688.000000	0.901985 
4687.000000	0.902605 
4686.000000	0.903129 
4685.000000	0.903606 
4684.000000	0.903964 
4683.000000	0.904226 
4682.000000	0.904440 
4681.000000	0.904655 
4680.000000	0.904846 
4679.000000	0.905013 
4678.000000	0.905132 
4677.000000	0.905203 
4676.000000	0.905156 
4675.000000	0.905036 
4674.000000	0.904822 
4673.000000	0.904560 
4672.000000	0.904273 
4671.000000	0.904011 
4670.000000	0.903868 
4669.000000	0.903749 
4668.000000	0.903725 
4667.000000	0.903654 
4666.000000	0.903582 
4665.000000	0.903463 
4664.000000	0.903224 
4663.000000	0.902915 
4662.000000	0.902581 
4661.000000	0.902223 
4660.000000	0.901937 
4659.000000	0.901770 
4658.000000	0.901627 
4657.000000	0.901579 
4656.000000	0.901579 
4655.000000	0.901603 
4654.000000	0.901627 
4653.000000	0.901675 
4652.000000	0.901746 
4651.000000	0.901913 
4650.000000	0.902152 
4649.000000	0.902485 
4648.000000	0.902938 
4647.000000	0.903463 
4646.000000	0.904107 
4645.000000	0.904798 
4644.000000	0.905609 
4643.000000	0.906395 
4642.000000	0.907182 
4641.000000	0.907897 
4640.000000	0.908493 
4639.000000	0.909042 
4638.000000	0.909495 
4637.000000	0.909900 
4636.000000	0.910234 
4635.000000	0.910615 
4634.000000	0.911045 
4633.000000	0.911498 
4632.000000	0.912046 
4631.000000	0.912594 
4630.000000	0.913143 
4629.000000	0.913667 
4628.000000	0.914144 
4627.000000	0.914454 
4626.000000	0.914621 
4625.000000	0.914669 
4624.000000	0.914525 
4623.000000	0.914311 
4622.000000	0.914072 
4621.000000	0.913858 
4620.000000	0.913667 
4619.000000	0.913572 
4618.000000	0.913548 
4617.000000	0.913667 
4616.000000	0.913953 
4615.000000	0.914525 
4614.000000	0.915408 
4613.000000	0.916647 
4612.000000	0.918221 
4611.000000	0.920104 
4610.000000	0.922131 
4609.000000	0.924134 
4608.000000	0.925970 
4607.000000	0.927472 
4606.000000	0.928616 
4605.000000	0.929379 
4604.000000	0.929832 
4603.000000	0.930070 
4602.000000	0.930237 
4601.000000	0.930356 
4600.000000	0.930404 
4599.000000	0.930309 
4598.000000	0.930070 
4597.000000	0.929617 
4596.000000	0.929188 
4595.000000	0.929021 
4594.000000	0.929236 
4593.000000	0.929999 
4592.000000	0.931262 
4591.000000	0.933051 
4590.000000	0.935220 
4589.000000	0.937628 
4588.000000	0.940108 
4587.000000	0.942540 
4586.000000	0.944924 
4585.000000	0.947237 
4584.000000	0.949406 
4583.000000	0.951385 
4582.000000	0.953221 
4581.000000	0.954961 
4580.000000	0.956535 
4579.000000	0.958156 
4578.000000	0.959992 
4577.000000	0.962352 
4576.000000	0.965404 
4575.000000	0.969362 
4574.000000	0.974512 
4573.000000	0.981068 
4572.000000	0.989556 
4571.000000	1.000690 
4570.000000	1.015377 
4569.000000	1.034617 
4568.000000	1.058816 
4567.000000	1.087737 
4566.000000	1.119780 
4565.000000	1.152420 
4564.000000	1.182103 
4563.000000	1.205110 
4562.000000	1.217913 
4561.000000	1.218438 
4560.000000	1.206135 
4559.000000	1.182436 
4558.000000	1.150250 
4557.000000	1.113510 
4556.000000	1.076292 
4555.000000	1.041984 
4554.000000	1.012730 
4553.000000	0.989270 
4552.000000	0.971174 
4551.000000	0.957369 
4550.000000	0.946593 
4549.000000	0.937962 
4548.000000	0.931167 
4547.000000	0.926351 
4546.000000	0.923800 
4545.000000	0.923752 
4544.000000	0.926184 
4543.000000	0.930690 
4542.000000	0.936532 
4541.000000	0.942802 
4540.000000	0.948667 
4539.000000	0.953674 
4538.000000	0.957512 
4537.000000	0.960350 
4536.000000	0.962376 
4535.000000	0.963902 
4534.000000	0.965166 
4533.000000	0.966072 
4532.000000	0.966668 
4531.000000	0.966787 
4530.000000	0.966501 
4529.000000	0.965833 
4528.000000	0.964975 
4527.000000	0.964212 
4526.000000	0.963783 
4525.000000	0.963902 
4524.000000	0.964498 
4523.000000	0.965523 
4522.000000	0.967001 
4521.000000	0.968813 
4520.000000	0.970840 
4519.000000	0.972938 
4518.000000	0.975131 
4517.000000	0.977325 
4516.000000	0.979423 
4515.000000	0.981450 
4514.000000	0.983333 
4513.000000	0.984907 
4512.000000	0.986218 
4511.000000	0.987172 
4510.000000	0.987768 
4509.000000	0.988101 
4508.000000	0.988221 
4507.000000	0.988221 
4506.000000	0.988101 
4505.000000	0.988006 
4504.000000	0.987958 
4503.000000	0.987982 
4502.000000	0.988078 
4501.000000	0.988245 
4500.000000	0.988459 
4499.000000	0.988698 
4498.000000	0.988888 
4497.000000	0.988960 
4496.000000	0.989007 
4495.000000	0.989055 
4494.000000	0.989103 
4493.000000	0.989270 
4492.000000	0.989627 
4491.000000	0.990152 
4490.000000	0.990915 
4489.000000	0.991868 
4488.000000	0.992965 
4487.000000	0.994062 
4486.000000	0.995182 
4485.000000	0.996184 
4484.000000	0.997042 
4483.000000	0.997686 
4482.000000	0.998163 
4481.000000	0.998473 
4480.000000	0.998687 
4479.000000	0.998806 
4478.000000	0.998902 
4477.000000	0.998973 
4476.000000	0.999116 
4475.000000	0.999307 
4474.000000	0.999546 
4473.000000	0.999903 
4472.000000	1.000332 
4471.000000	1.000857 
4470.000000	1.001405 
4469.000000	1.001954 
4468.000000	1.002478 
4467.000000	1.002931 
4466.000000	1.003336 
4465.000000	1.003599 
4464.000000	1.003789 
4463.000000	1.003909 
4462.000000	1.004004 
4461.000000	1.004099 
4460.000000	1.004195 
4459.000000	1.004314 
4458.000000	1.004409 
4457.000000	1.004552 
4456.000000	1.004648 
4455.000000	1.004719 
4454.000000	1.004719 
4453.000000	1.004576 
4452.000000	1.004385 
4451.000000	1.004147 
4450.000000	1.003861 
4449.000000	1.003575 
4448.000000	1.003336 
4447.000000	1.003170 
4446.000000	1.003074 
4445.000000	1.003098 
4444.000000	1.003193 
4443.000000	1.003336 
4442.000000	1.003503 
4441.000000	1.003670 
4440.000000	1.003789 
4439.000000	1.003837 
4438.000000	1.003909 
4437.000000	1.003956 
4436.000000	1.004004 
4435.000000	1.004052 
4434.000000	1.004147 
4433.000000	1.004242 
4432.000000	1.004290 
4431.000000	1.004314 
4430.000000	1.004290 
4429.000000	1.004195 
4428.000000	1.004028 
4427.000000	1.003861 
4426.000000	1.003766 
4425.000000	1.003789 
4424.000000	1.003980 
4423.000000	1.004409 
4422.000000	1.005125 
4421.000000	1.006102 
4420.000000	1.007318 
4419.000000	1.008605 
4418.000000	1.009941 
4417.000000	1.011157 
4416.000000	1.012182 
4415.000000	1.012945 
4414.000000	1.013350 
4413.000000	1.013469 
4412.000000	1.013398 
4411.000000	1.013135 
4410.000000	1.012849 
4409.000000	1.012682 
4408.000000	1.012611 
4407.000000	1.012778 
4406.000000	1.013159 
4405.000000	1.013803 
4404.000000	1.014590 
4403.000000	1.015472 
4402.000000	1.016426 
4401.000000	1.017379 
4400.000000	1.018285 
4399.000000	1.019167 
4398.000000	1.020002 
4397.000000	1.020789 
4396.000000	1.021528 
4395.000000	1.022291 
4394.000000	1.022982 
4393.000000	1.023626 
4392.000000	1.024198 
4391.000000	1.024699 
4390.000000	1.025032 
4389.000000	1.025247 
4388.000000	1.025342 
4387.000000	1.025319 
4386.000000	1.025271 
4385.000000	1.025223 
4384.000000	1.025223 
4383.000000	1.025342 
4382.000000	1.025581 
4381.000000	1.025938 
4380.000000	1.026487 
4379.000000	1.027107 
4378.000000	1.027846 
4377.000000	1.028633 
4376.000000	1.029515 
4375.000000	1.030468 
4374.000000	1.031470 
4373.000000	1.032519 
4372.000000	1.033663 
4371.000000	1.034832 
4370.000000	1.036071 
4369.000000	1.037240 
4368.000000	1.038360 
4367.000000	1.039385 
4366.000000	1.040291 
4365.000000	1.041102 
4364.000000	1.041793 
4363.000000	1.042509 
4362.000000	1.043272 
4361.000000	1.044154 
4360.000000	1.045179 
4359.000000	1.046419 
4358.000000	1.047801 
4357.000000	1.049280 
4356.000000	1.050734 
4355.000000	1.052117 
4354.000000	1.053309 
4353.000000	1.054286 
4352.000000	1.055026 
4351.000000	1.055550 
4350.000000	1.055979 
4349.000000	1.056385 
4348.000000	1.056933 
4347.000000	1.057696 
4346.000000	1.058697 
4345.000000	1.059985 
4344.000000	1.061558 
4343.000000	1.063323 
4342.000000	1.065206 
4341.000000	1.067113 
4340.000000	1.068949 
4339.000000	1.070666 
4338.000000	1.072192 
4337.000000	1.073527 
4336.000000	1.074695 
4335.000000	1.075720 
4334.000000	1.076698 
4333.000000	1.077675 
4332.000000	1.078796 
4331.000000	1.080060 
4330.000000	1.081514 
4329.000000	1.083087 
4328.000000	1.084709 
4327.000000	1.086211 
4326.000000	1.087474 
4325.000000	1.088476 
4324.000000	1.089072 
4323.000000	1.089429 
4322.000000	1.089620 
4321.000000	1.089859 
4320.000000	1.090312 
4319.000000	1.091098 
4318.000000	1.092267 
4317.000000	1.093840 
4316.000000	1.095700 
4315.000000	1.097679 
4314.000000	1.099586 
4313.000000	1.101326 
4312.000000	1.102828 
4311.000000	1.104021 
4310.000000	1.105022 
4309.000000	1.105833 
4308.000000	1.106595 
4307.000000	1.107382 
4306.000000	1.108217 
4305.000000	1.109099 
4304.000000	1.110076 
4303.000000	1.111030 
4302.000000	1.112008 
4301.000000	1.112961 
4300.000000	1.113963 
4299.000000	1.115012 
4298.000000	1.116156 
4297.000000	1.117420 
4296.000000	1.118898 
4295.000000	1.120543 
4294.000000	1.122379 
4293.000000	1.124358 
4292.000000	1.126432 
4291.000000	1.128625 
4290.000000	1.130819 
4289.000000	1.132988 
4288.000000	1.135110 
4287.000000	1.137161 
4286.000000	1.139092 
4285.000000	1.140904 
4284.000000	1.142525 
4283.000000	1.143908 
4282.000000	1.145005 
4281.000000	1.145768 
4280.000000	1.146245 
4279.000000	1.146483 
4278.000000	1.146554 
4277.000000	1.146602 
4276.000000	1.146721 
4275.000000	1.147031 
4274.000000	1.147580 
4273.000000	1.148343 
4272.000000	1.149296 
4271.000000	1.150321 
4270.000000	1.151299 
4269.000000	1.152205 
4268.000000	1.152968 
4267.000000	1.153659 
4266.000000	1.154470 
4265.000000	1.155519 
4264.000000	1.156997 
4263.000000	1.159024 
4262.000000	1.161646 
4261.000000	1.164746 
4260.000000	1.168084 
4259.000000	1.171302 
4258.000000	1.174020 
4257.000000	1.175880 
4256.000000	1.176619 
4255.000000	1.176095 
4254.000000	1.174402 
4253.000000	1.171827 
4252.000000	1.168751 
4251.000000	1.165628 
4250.000000	1.162862 
4249.000000	1.160860 
4248.000000	1.159787 
4247.000000	1.159691 
4246.000000	1.160454 
4245.000000	1.161980 
4244.000000	1.163911 
4243.000000	1.166009 
4242.000000	1.168060 
4241.000000	1.169919 
4240.000000	1.171469 
4239.000000	1.172733 
4238.000000	1.173734 
4237.000000	1.174545 
4236.000000	1.175212 
4235.000000	1.175785 
4234.000000	1.176285 
4233.000000	1.176834 
4232.000000	1.177453 
4231.000000	1.178145 
4230.000000	1.178979 
4229.000000	1.179981 
4228.000000	1.181149 
4227.000000	1.182484 
4226.000000	1.183915 
4225.000000	1.185321 
4224.000000	1.186585 
4223.000000	1.187539 
4222.000000	1.188063 
4221.000000	1.188135 
4220.000000	1.187777 
4219.000000	1.187109 
4218.000000	1.186394 
4217.000000	1.185774 
4216.000000	1.185560 
4215.000000	1.185846 
4214.000000	1.186680 
4213.000000	1.187944 
4212.000000	1.189517 
4211.000000	1.191020 
4210.000000	1.192259 
4209.000000	1.193046 
4208.000000	1.193261 
4207.000000	1.192975 
4206.000000	1.192378 
4205.000000	1.191687 
4204.000000	1.191115 
4203.000000	1.190853 
4202.000000	1.190996 
4201.000000	1.191616 
4200.000000	1.192593 
4199.000000	1.193785 
4198.000000	1.195049 
4197.000000	1.196289 
4196.000000	1.197338 
4195.000000	1.198172 
4194.000000	1.198720 
4193.000000	1.199030 
4192.000000	1.199102 
4191.000000	1.198983 
4190.000000	1.198768 
4189.000000	1.198577 
4188.000000	1.198458 
4187.000000	1.198530 
4186.000000	1.198887 
4185.000000	1.199555 
4184.000000	1.200580 
4183.000000	1.201868 
4182.000000	1.203346 
4181.000000	1.204824 
4180.000000	1.206278 
4179.000000	1.207518 
4178.000000	1.208472 
4177.000000	1.209068 
4176.000000	1.209354 
4175.000000	1.209282 
4174.000000	1.209020 
4173.000000	1.208615 
4172.000000	1.208209 
4171.000000	1.207876 
4170.000000	1.207780 
4169.000000	1.207971 
4168.000000	1.208496 
4167.000000	1.209330 
4166.000000	1.210379 
4165.000000	1.211500 
4164.000000	1.212620 
4163.000000	1.213598 
4162.000000	1.214337 
4161.000000	1.214838 
4160.000000	1.215124 
4159.000000	1.215291 
4158.000000	1.215386 
4157.000000	1.215577 
4156.000000	1.215815 
4155.000000	1.216197 
4154.000000	1.216673 
4153.000000	1.217246 
4152.000000	1.217818 
4151.000000	1.218414 
4150.000000	1.219034 
4149.000000	1.219654 
4148.000000	1.220250 
4147.000000	1.220870 
4146.000000	1.221561 
4145.000000	1.222300 
4144.000000	1.223039 
4143.000000	1.223826 
4142.000000	1.224613 
4141.000000	1.225376 
4140.000000	1.226091 
4139.000000	1.226806 
4138.000000	1.227474 
4137.000000	1.228117 
4136.000000	1.228785 
4135.000000	1.229476 
4134.000000	1.230216 
4133.000000	1.230978 
4132.000000	1.231789 
4131.000000	1.232576 
4130.000000	1.233315 
4129.000000	1.233983 
4128.000000	1.234555 
4127.000000	1.235008 
4126.000000	1.235485 
4125.000000	1.236033 
4124.000000	1.236724 
4123.000000	1.237607 
4122.000000	1.238751 
4121.000000	1.240134 
4120.000000	1.241683 
4119.000000	1.243281 
4118.000000	1.244854 
4117.000000	1.246309 
4116.000000	1.247501 
4115.000000	1.248526 
4114.000000	1.249337 
4113.000000	1.249957 
4112.000000	1.250505 
4111.000000	1.251006 
4110.000000	1.251530 
4109.000000	1.252055 
4108.000000	1.252698 
4107.000000	1.253390 
4106.000000	1.254153 
4105.000000	1.254987 
4104.000000	1.255941 
4103.000000	1.257014 
4102.000000	1.258301 
4101.000000	1.259708 
4100.000000	1.261258 
4099.000000	1.262927 
4098.000000	1.264619 
4097.000000	1.266288 
4096.000000	1.267862 
4095.000000	1.269316 
4094.000000	1.270651 
4093.000000	1.271891 
4092.000000	1.273083 
4091.000000	1.274251 
4090.000000	1.275491 
4089.000000	1.276826 
4088.000000	1.278281 
4087.000000	1.279830 
4086.000000	1.281380 
4085.000000	1.282858 
4084.000000	1.284241 
4083.000000	1.285481 
4082.000000	1.286649 
4081.000000	1.287651 
4080.000000	1.288604 
4079.000000	1.289606 
4078.000000	1.290655 
4077.000000	1.291775 
4076.000000	1.292991 
4075.000000	1.294279 
4074.000000	1.295566 
4073.000000	1.296854 
4072.000000	1.297998 
4071.000000	1.299047 
4070.000000	1.299977 
4069.000000	1.300883 
4068.000000	1.301765 
4067.000000	1.302742 
4066.000000	1.303815 
4065.000000	1.305079 
4064.000000	1.306438 
4063.000000	1.307916 
4062.000000	1.309490 
4061.000000	1.311039 
4060.000000	1.312565 
4059.000000	1.313996 
4058.000000	1.315307 
4057.000000	1.316547 
4056.000000	1.317763 
4055.000000	1.318907 
4054.000000	1.320075 
4053.000000	1.321315 
4052.000000	1.322531 
4051.000000	1.323771 
4050.000000	1.324987 
4049.000000	1.326203 
4048.000000	1.327443 
4047.000000	1.328659 
4046.000000	1.329898 
4045.000000	1.331233 
4044.000000	1.332664 
4043.000000	1.334214 
4042.000000	1.335883 
4041.000000	1.337647 
4040.000000	1.339459 
4039.000000	1.341247 
4038.000000	1.342940 
4037.000000	1.344466 
4036.000000	1.345825 
4035.000000	1.347041 
4034.000000	1.348114 
4033.000000	1.349067 
4032.000000	1.349997 
4031.000000	1.350951 
4030.000000	1.351928 
4029.000000	1.353001 
4028.000000	1.354074 
4027.000000	1.355147 
4026.000000	1.356124 
4025.000000	1.357102 
4024.000000	1.357984 
4023.000000	1.358819 
4022.000000	1.359677 
4021.000000	1.360559 
4020.000000	1.361560 
4019.000000	1.362705 
4018.000000	1.363945 
4017.000000	1.365327 
4016.000000	1.366734 
4015.000000	1.368117 
4014.000000	1.369428 
4013.000000	1.370644 
4012.000000	1.371788 
4011.000000	1.372861 
4010.000000	1.373934 
4009.000000	1.375007 
4008.000000	1.376104 
4007.000000	1.377296 
4006.000000	1.378560 
4005.000000	1.379823 
4004.000000	1.381087 
4003.000000	1.382327 
4002.000000	1.383352 
4001.000000	1.384258 
4000.000000	1.384997 
3999.000000	1.385569 
3998.000000	1.386046 
3997.000000	1.386475 
3996.000000	1.386928 
3995.000000	1.387500 
3994.000000	1.388192 
3993.000000	1.389002 
3992.000000	1.389908 
3991.000000	1.390886 
3990.000000	1.391816 
3989.000000	1.392674 
3988.000000	1.393508 
3987.000000	1.394271 
3986.000000	1.394939 
3985.000000	1.395583 
3984.000000	1.396274 
3983.000000	1.397061 
3982.000000	1.397871 
3981.000000	1.398706 
3980.000000	1.399564 
3979.000000	1.400375 
3978.000000	1.401138 
3977.000000	1.401758 
3976.000000	1.402330 
3975.000000	1.402688 
3974.000000	1.402926 
3973.000000	1.403045 
3972.000000	1.403045 
3971.000000	1.402950 
3970.000000	1.402831 
3969.000000	1.402688 
3968.000000	1.402640 
3967.000000	1.402688 
3966.000000	1.402926 
3965.000000	1.403379 
3964.000000	1.404047 
3963.000000	1.404881 
3962.000000	1.405858 
3961.000000	1.406931 
3960.000000	1.407957 
3959.000000	1.408910 
3958.000000	1.409697 
3957.000000	1.410293 
3956.000000	1.410651 
3955.000000	1.410794 
3954.000000	1.410794 
3953.000000	1.410651 
3952.000000	1.410460 
3951.000000	1.410245 
3950.000000	1.410079 
3949.000000	1.410031 
3948.000000	1.410150 
3947.000000	1.410460 
3946.000000	1.410961 
3945.000000	1.411652 
3944.000000	1.412415 
3943.000000	1.413202 
3942.000000	1.413989 
3941.000000	1.414632 
3940.000000	1.415181 
3939.000000	1.415538 
3938.000000	1.415777 
3937.000000	1.415944 
3936.000000	1.416110 
3935.000000	1.416373 
3934.000000	1.416707 
3933.000000	1.417207 
3932.000000	1.417827 
3931.000000	1.418519 
3930.000000	1.419258 
3929.000000	1.419949 
3928.000000	1.420521 
3927.000000	1.421022 
3926.000000	1.421332 
3925.000000	1.421475 
3924.000000	1.421523 
3923.000000	1.421403 
3922.000000	1.421236 
3921.000000	1.421117 
3920.000000	1.421022 
3919.000000	1.421093 
3918.000000	1.421284 
3917.000000	1.421642 
3916.000000	1.422142 
3915.000000	1.422762 
3914.000000	1.423406 
3913.000000	1.423978 
3912.000000	1.424455 
3911.000000	1.424765 
3910.000000	1.424837 
3909.000000	1.424717 
3908.000000	1.424360 
3907.000000	1.423883 
3906.000000	1.423382 
3905.000000	1.422905 
3904.000000	1.422595 
3903.000000	1.422548 
3902.000000	1.422786 
3901.000000	1.423358 
3900.000000	1.424217 
3899.000000	1.425337 
3898.000000	1.426601 
3897.000000	1.427888 
3896.000000	1.429128 
3895.000000	1.430201 
3894.000000	1.431035 
3893.000000	1.431632 
3892.000000	1.432037 
3891.000000	1.432323 
3890.000000	1.432490 
3889.000000	1.432633 
3888.000000	1.432871 
3887.000000	1.433205 
3886.000000	1.433634 
3885.000000	1.434183 
3884.000000	1.434826 
3883.000000	1.435494 
3882.000000	1.436161 
3881.000000	1.436758 
3880.000000	1.437211 
3879.000000	1.437497 
3878.000000	1.437616 
3877.000000	1.437592 
3876.000000	1.437473 
3875.000000	1.437354 
3874.000000	1.437282 
3873.000000	1.437354 
3872.000000	1.437592 
3871.000000	1.438069 
3870.000000	1.438713 
3869.000000	1.439499 
3868.000000	1.440429 
3867.000000	1.441431 
3866.000000	1.442480 
3865.000000	1.443529 
3864.000000	1.444482 
3863.000000	1.445221 
3862.000000	1.445555 
3861.000000	1.445412 
3860.000000	1.444697 
3859.000000	1.443481 
3858.000000	1.441907 
3857.000000	1.440143 
3856.000000	1.438689 
3855.000000	1.437807 
3854.000000	1.437878 
3853.000000	1.439070 
3852.000000	1.441383 
3851.000000	1.444625 
3850.000000	1.448535 
3849.000000	1.452612 
3848.000000	1.456499 
3847.000000	1.459813 
3846.000000	1.462268 
3845.000000	1.463842 
3844.000000	1.464605 
3843.000000	1.464676 
3842.000000	1.464366 
3841.000000	1.463961 
3840.000000	1.463651 
3839.000000	1.463651 
3838.000000	1.464104 
3837.000000	1.465082 
3836.000000	1.466608 
3835.000000	1.468563 
3834.000000	1.470875 
3833.000000	1.473426 
3832.000000	1.476073 
3831.000000	1.478672 
3830.000000	1.481032 
3829.000000	1.483082 
3828.000000	1.484608 
3827.000000	1.485586 
3826.000000	1.485991 
3825.000000	1.485848 
3824.000000	1.485252 
3823.000000	1.484394 
3822.000000	1.483511 
3821.000000	1.482796 
3820.000000	1.482486 
3819.000000	1.482772 
3818.000000	1.483702 
3817.000000	1.485323 
3816.000000	1.487469 
3815.000000	1.489973 
3814.000000	1.492643 
3813.000000	1.495242 
3812.000000	1.497578 
3811.000000	1.499438 
3810.000000	1.500773 
3809.000000	1.501512 
3808.000000	1.501750 
3807.000000	1.501607 
3806.000000	1.501297 
3805.000000	1.501011 
3804.000000	1.500988 
3803.000000	1.501417 
3802.000000	1.502442 
3801.000000	1.504087 
3800.000000	1.506280 
3799.000000	1.508998 
3798.000000	1.512002 
3797.000000	1.515150 
3796.000000	1.518201 
3795.000000	1.521039 
3794.000000	1.523542 
3793.000000	1.525664 
3792.000000	1.527428 
3791.000000	1.528859 
3790.000000	1.530027 
3789.000000	1.531028 
3788.000000	1.531934 
3787.000000	1.532769 
3786.000000	1.533532 
3785.000000	1.534271 
3784.000000	1.535010 
3783.000000	1.535749 
3782.000000	1.536440 
3781.000000	1.537108 
3780.000000	1.537752 
3779.000000	1.538324 
3778.000000	1.538896 
3777.000000	1.539444 
3776.000000	1.539897 
3775.000000	1.540422 
3774.000000	1.540994 
3773.000000	1.541686 
3772.000000	1.542520 
3771.000000	1.543498 
3770.000000	1.544690 
3769.000000	1.545929 
3768.000000	1.547193 
3767.000000	1.548409 
3766.000000	1.549482 
3765.000000	1.550316 
3764.000000	1.550912 
3763.000000	1.551318 
3762.000000	1.551437 
3761.000000	1.551318 
3760.000000	1.550912 
3759.000000	1.550245 
3758.000000	1.549291 
3757.000000	1.548027 
3756.000000	1.546454 
3755.000000	1.544666 
3754.000000	1.542711 
3753.000000	1.540732 
3752.000000	1.538825 
3751.000000	1.537132 
3750.000000	1.535820 
3749.000000	1.534914 
3748.000000	1.534581 
3747.000000	1.534795 
3746.000000	1.535606 
3745.000000	1.536941 
3744.000000	1.538681 
3743.000000	1.540637 
3742.000000	1.542663 
3741.000000	1.544570 
3740.000000	1.546263 
3739.000000	1.547646 
3738.000000	1.548695 
3737.000000	1.549553 
3736.000000	1.550364 
3735.000000	1.551294 
3734.000000	1.552462 
3733.000000	1.553893 
3732.000000	1.555633 
3731.000000	1.557540 
3730.000000	1.559519 
3729.000000	1.561379 
3728.000000	1.563024 
3727.000000	1.564407 
3726.000000	1.565599 
3725.000000	1.566529 
3724.000000	1.567316 
3723.000000	1.567983 
3722.000000	1.568531 
3721.000000	1.568937 
3720.000000	1.569151 
3719.000000	1.569056 
3718.000000	1.568651 
3717.000000	1.567912 
3716.000000	1.566886 
3715.000000	1.565742 
3714.000000	1.564645 
3713.000000	1.563739 
3712.000000	1.563215 
3711.000000	1.563096 
3710.000000	1.563453 
3709.000000	1.564192 
3708.000000	1.565217 
3707.000000	1.566338 
3706.000000	1.567435 
3705.000000	1.568436 
3704.000000	1.569247 
3703.000000	1.569890 
3702.000000	1.570343 
3701.000000	1.570677 
3700.000000	1.570868 
3699.000000	1.570868 
3698.000000	1.570677 
3697.000000	1.570177 
3696.000000	1.569366 
3695.000000	1.568198 
3694.000000	1.566791 
3693.000000	1.565265 
3692.000000	1.563811 
3691.000000	1.562619 
3690.000000	1.561903 
3689.000000	1.561784 
3688.000000	1.562285 
3687.000000	1.563310 
3686.000000	1.564621 
3685.000000	1.565933 
3684.000000	1.567006 
3683.000000	1.567506 
3682.000000	1.567316 
3681.000000	1.566386 
3680.000000	1.564717 
3679.000000	1.562571 
3678.000000	1.560163 
3677.000000	1.557850 
3676.000000	1.555895 
3675.000000	1.554489 
3674.000000	1.553797 
3673.000000	1.553893 
3672.000000	1.554775 
3671.000000	1.556301 
3670.000000	1.558375 
3669.000000	1.560759 
3668.000000	1.563286 
3667.000000	1.565670 
3666.000000	1.567745 
3665.000000	1.569342 
3664.000000	1.570343 
3663.000000	1.570773 
3662.000000	1.570653 
3661.000000	1.570081 
3660.000000	1.569104 
3659.000000	1.567912 
3658.000000	1.566553 
3657.000000	1.565074 
3656.000000	1.563549 
3655.000000	1.561975 
3654.000000	1.560401 
3653.000000	1.558971 
3652.000000	1.557826 
3651.000000	1.557135 
3650.000000	1.557016 
3649.000000	1.557588 
3648.000000	1.558804 
3647.000000	1.560664 
3646.000000	1.562905 
3645.000000	1.565361 
3644.000000	1.567769 
3643.000000	1.569986 
3642.000000	1.571798 
3641.000000	1.573181 
3640.000000	1.574039 
3639.000000	1.574349 
3638.000000	1.574158 
3637.000000	1.573491 
3636.000000	1.572322 
3635.000000	1.570773 
3634.000000	1.568961 
3633.000000	1.567077 
3632.000000	1.565313 
3631.000000	1.563906 
3630.000000	1.563024 
3629.000000	1.562786 
3628.000000	1.563143 
3627.000000	1.564025 
3626.000000	1.565194 
3625.000000	1.566481 
3624.000000	1.567673 
3623.000000	1.568675 
3622.000000	1.569390 
3621.000000	1.569938 
3620.000000	1.570391 
3619.000000	1.570773 
3618.000000	1.571202 
3617.000000	1.571679 
3616.000000	1.572227 
3615.000000	1.572751 
3614.000000	1.573252 
3613.000000	1.573657 
3612.000000	1.574015 
3611.000000	1.574325 
3610.000000	1.574730 
3609.000000	1.575255 
3608.000000	1.575922 
3607.000000	1.576733 
3606.000000	1.577687 
3605.000000	1.578688 
3604.000000	1.579666 
3603.000000	1.580572 
3602.000000	1.581311 
3601.000000	1.581931 
3600.000000	1.582384 
3599.000000	1.582741 
3598.000000	1.583051 
3597.000000	1.583290 
3596.000000	1.583552 
3595.000000	1.583766 
3594.000000	1.583981 
3593.000000	1.584124 
3592.000000	1.584267 
3591.000000	1.584362 
3590.000000	1.584458 
3589.000000	1.584625 
3588.000000	1.584935 
3587.000000	1.585412 
3586.000000	1.586055 
3585.000000	1.586961 
3584.000000	1.588058 
3583.000000	1.589298 
3582.000000	1.590609 
3581.000000	1.591897 
3580.000000	1.593136 
3579.000000	1.594257 
3578.000000	1.595211 
3577.000000	1.595973 
3576.000000	1.596546 
3575.000000	1.596951 
3574.000000	1.597189 
3573.000000	1.597332 
3572.000000	1.597404 
3571.000000	1.597452 
3570.000000	1.597595 
3569.000000	1.597833 
3568.000000	1.598334 
3567.000000	1.599049 
3566.000000	1.600003 
3565.000000	1.601195 
3564.000000	1.602530 
3563.000000	1.603937 
3562.000000	1.605319 
3561.000000	1.606559 
3560.000000	1.607561 
3559.000000	1.608300 
3558.000000	1.608800 
3557.000000	1.609063 
3556.000000	1.609230 
3555.000000	1.609325 
3554.000000	1.609468 
3553.000000	1.609683 
3552.000000	1.610088 
3551.000000	1.610612 
3550.000000	1.611256 
3549.000000	1.612019 
3548.000000	1.612830 
3547.000000	1.613616 
3546.000000	1.614379 
3545.000000	1.615071 
3544.000000	1.615619 
3543.000000	1.616001 
3542.000000	1.616120 
3541.000000	1.616120 
3540.000000	1.615929 
3539.000000	1.615571 
3538.000000	1.615142 
3537.000000	1.614665 
3536.000000	1.614212 
3535.000000	1.613903 
3534.000000	1.613712 
3533.000000	1.613664 
3532.000000	1.613831 
3531.000000	1.614117 
3530.000000	1.614546 
3529.000000	1.615023 
3528.000000	1.615548 
3527.000000	1.616048 
3526.000000	1.616501 
3525.000000	1.616859 
3524.000000	1.617169 
3523.000000	1.617431 
3522.000000	1.617622 
3521.000000	1.617789 
3520.000000	1.617860 
3519.000000	1.617860 
3518.000000	1.617789 
3517.000000	1.617622 
3516.000000	1.617336 
3515.000000	1.616930 
3514.000000	1.616477 
3513.000000	1.615953 
3512.000000	1.615428 
3511.000000	1.614975 
3510.000000	1.614570 
3509.000000	1.614308 
3508.000000	1.614212 
3507.000000	1.614260 
3506.000000	1.614403 
3505.000000	1.614665 
3504.000000	1.614952 
3503.000000	1.615190 
3502.000000	1.615309 
3501.000000	1.615309 
3500.000000	1.615118 
3499.000000	1.614737 
3498.000000	1.614141 
3497.000000	1.613426 
3496.000000	1.612687 
3495.000000	1.611948 
3494.000000	1.611256 
3493.000000	1.610708 
3492.000000	1.610255 
3491.000000	1.609945 
3490.000000	1.609659 
3489.000000	1.609468 
3488.000000	1.609301 
3487.000000	1.609063 
3486.000000	1.608777 
3485.000000	1.608371 
3484.000000	1.607918 
3483.000000	1.607370 
3482.000000	1.606702 
3481.000000	1.605963 
3480.000000	1.605105 
3479.000000	1.604247 
3478.000000	1.603341 
3477.000000	1.602578 
3476.000000	1.601886 
3475.000000	1.601338 
3474.000000	1.601004 
3473.000000	1.600861 
3472.000000	1.600861 
3471.000000	1.600933 
3470.000000	1.601004 
3469.000000	1.601052 
3468.000000	1.600980 
3467.000000	1.600790 
3466.000000	1.600456 
3465.000000	1.600027 
3464.000000	1.599454 
3463.000000	1.598834 
3462.000000	1.598167 
3461.000000	1.597452 
3460.000000	1.596713 
3459.000000	1.595973 
3458.000000	1.595234 
3457.000000	1.594543 
3456.000000	1.593875 
3455.000000	1.593232 
3454.000000	1.592612 
3453.000000	1.591944 
3452.000000	1.591229 
3451.000000	1.590418 
3450.000000	1.589488 
3449.000000	1.588463 
3448.000000	1.587343 
3447.000000	1.586151 
3446.000000	1.584959 
3445.000000	1.583719 
3444.000000	1.582527 
3443.000000	1.581406 
3442.000000	1.580405 
3441.000000	1.579546 
3440.000000	1.578831 
3439.000000	1.578235 
3438.000000	1.577782 
3437.000000	1.577425 
3436.000000	1.577138 
3435.000000	1.576900 
3434.000000	1.576685 
3433.000000	1.576495 
3432.000000	1.576304 
3431.000000	1.576113 
3430.000000	1.575970 
3429.000000	1.575827 
3428.000000	1.575779 
3427.000000	1.575803 
3426.000000	1.575922 
3425.000000	1.576113 
3424.000000	1.576352 
3423.000000	1.576685 
3422.000000	1.576995 
3421.000000	1.577258 
3420.000000	1.577496 
3419.000000	1.577687 
3418.000000	1.577854 
3417.000000	1.577997 
3416.000000	1.578164 
3415.000000	1.578354 
3414.000000	1.578664 
3413.000000	1.579070 
3412.000000	1.579594 
3411.000000	1.580238 
3410.000000	1.581001 
3409.000000	1.581811 
3408.000000	1.582717 
3407.000000	1.583600 
3406.000000	1.584529 
3405.000000	1.585388 
3404.000000	1.586246 
3403.000000	1.587057 
3402.000000	1.587820 
3401.000000	1.588535 
3400.000000	1.589250 
3399.000000	1.589941 
3398.000000	1.590633 
3397.000000	1.591300 
3396.000000	1.591944 
3395.000000	1.592588 
3394.000000	1.593232 
3393.000000	1.593828 
3392.000000	1.594424 
3391.000000	1.595067 
3390.000000	1.595687 
3389.000000	1.596379 
3388.000000	1.597094 
3387.000000	1.597809 
3386.000000	1.598501 
3385.000000	1.599121 
3384.000000	1.599693 
3383.000000	1.600074 
3382.000000	1.600337 
3381.000000	1.600551 
3380.000000	1.600694 
3379.000000	1.600885 
3378.000000	1.601171 
3377.000000	1.601600 
3376.000000	1.602220 
3375.000000	1.603055 
3374.000000	1.604104 
3373.000000	1.605319 
3372.000000	1.606631 
3371.000000	1.608061 
3370.000000	1.609516 
3369.000000	1.611018 
3368.000000	1.612496 
3367.000000	1.614022 
3366.000000	1.615500 
3365.000000	1.617002 
3364.000000	1.618480 
3363.000000	1.619982 
3362.000000	1.621484 
3361.000000	1.622986 
3360.000000	1.624512 
3359.000000	1.626062 
3358.000000	1.627635 
3357.000000	1.629257 
3356.000000	1.630926 
3355.000000	1.632571 
3354.000000	1.634216 
3353.000000	1.635837 
3352.000000	1.637339 
3351.000000	1.638793 
3350.000000	1.640152 
3349.000000	1.641440 
3348.000000	1.642704 
3347.000000	1.643943 
3346.000000	1.645183 
3345.000000	1.646399 
3344.000000	1.647663 
3343.000000	1.648974 
3342.000000	1.650285 
3341.000000	1.651549 
3340.000000	1.652836 
3339.000000	1.654076 
3338.000000	1.655292 
3337.000000	1.656484 
3336.000000	1.657605 
3335.000000	1.658701 
3334.000000	1.659798 
3333.000000	1.660919 
3332.000000	1.662087 
3331.000000	1.663327 
3330.000000	1.664686 
3329.000000	1.666164 
3328.000000	1.667809 
3327.000000	1.669549 
3326.000000	1.671409 
3325.000000	1.673340 
3324.000000	1.675319 
3323.000000	1.677274 
3322.000000	1.679158 
3321.000000	1.681041 
3320.000000	1.682829 
3319.000000	1.684498 
3318.000000	1.686072 
3317.000000	1.687574 
3316.000000	1.689028 
3315.000000	1.690387 
3314.000000	1.691746 
3313.000000	1.693058 
3312.000000	1.694369 
3311.000000	1.695680 
3310.000000	1.696968 
3309.000000	1.698327 
3308.000000	1.699662 
3307.000000	1.701021 
3306.000000	1.702380 
3305.000000	1.703739 
3304.000000	1.705098 
3303.000000	1.706433 
3302.000000	1.707744 
3301.000000	1.708984 
3300.000000	1.710224 
3299.000000	1.711416 
3298.000000	1.712560 
3297.000000	1.713681 
3296.000000	1.714801 
3295.000000	1.715970 
3294.000000	1.717162 
3293.000000	1.718449 
3292.000000	1.719784 
3291.000000	1.721239 
3290.000000	1.722764 
3289.000000	1.724338 
3288.000000	1.725912 
3287.000000	1.727485 
3286.000000	1.728963 
3285.000000	1.730346 
3284.000000	1.731634 
3283.000000	1.732754 
3282.000000	1.733779 
3281.000000	1.734685 
3280.000000	1.735568 
3279.000000	1.736378 
3278.000000	1.737189 
3277.000000	1.738071 
3276.000000	1.739001 
3275.000000	1.739954 
3274.000000	1.740980 
3273.000000	1.742100 
3272.000000	1.743245 
3271.000000	1.744365 
3270.000000	1.745510 
3269.000000	1.746678 
3268.000000	1.747798 
3267.000000	1.748895 
3266.000000	1.749992 
3265.000000	1.750969 
3264.000000	1.751923 
3263.000000	1.752877 
3262.000000	1.753735 
3261.000000	1.754570 
3260.000000	1.755380 
3259.000000	1.756072 
3258.000000	1.756715 
3257.000000	1.757311 
3256.000000	1.757836 
3255.000000	1.758289 
3254.000000	1.758790 
3253.000000	1.759290 
3252.000000	1.759886 
3251.000000	1.760530 
3250.000000	1.761293 
3249.000000	1.762104 
3248.000000	1.762962 
3247.000000	1.763820 
3246.000000	1.764655 
3245.000000	1.765489 
3244.000000	1.766276 
3243.000000	1.767039 
3242.000000	1.767754 
3241.000000	1.768469 
3240.000000	1.769137 
3239.000000	1.769781 
3238.000000	1.770401 
3237.000000	1.770925 
3236.000000	1.771402 
3235.000000	1.771807 
3234.000000	1.772093 
3233.000000	1.772356 
3232.000000	1.772594 
3231.000000	1.772832 
3230.000000	1.773095 
3229.000000	1.773405 
3228.000000	1.773762 
3227.000000	1.774215 
3226.000000	1.774692 
3225.000000	1.775193 
3224.000000	1.775670 
3223.000000	1.776051 
3222.000000	1.776385 
3221.000000	1.776599 
3220.000000	1.776719 
3219.000000	1.776766 
3218.000000	1.776766 
3217.000000	1.776742 
3216.000000	1.776742 
3215.000000	1.776790 
3214.000000	1.776885 
3213.000000	1.777076 
3212.000000	1.777291 
3211.000000	1.777458 
3210.000000	1.777505 
3209.000000	1.777505 
3208.000000	1.777362 
3207.000000	1.777100 
3206.000000	1.776838 
3205.000000	1.776647 
3204.000000	1.776576 
3203.000000	1.776742 
3202.000000	1.777100 
3201.000000	1.777696 
3200.000000	1.778459 
3199.000000	1.779246 
3198.000000	1.780056 
3197.000000	1.780724 
3196.000000	1.781249 
3195.000000	1.781582 
3194.000000	1.781749 
3193.000000	1.781821 
3192.000000	1.781845 
3191.000000	1.781892 
3190.000000	1.781940 
3189.000000	1.782059 
3188.000000	1.782250 
3187.000000	1.782464 
3186.000000	1.782727 
3185.000000	1.782989 
3184.000000	1.783323 
3183.000000	1.783728 
3182.000000	1.784157 
3181.000000	1.784658 
3180.000000	1.785182 
3179.000000	1.785612 
3178.000000	1.785993 
3177.000000	1.786231 
3176.000000	1.786351 
3175.000000	1.786351 
3174.000000	1.786255 
3173.000000	1.786112 
3172.000000	1.786017 
3171.000000	1.785945 
3170.000000	1.785969 
3169.000000	1.786065 
3168.000000	1.786279 
3167.000000	1.786637 
3166.000000	1.787137 
3165.000000	1.787757 
3164.000000	1.788520 
3163.000000	1.789402 
3162.000000	1.790356 
3161.000000	1.791381 
3160.000000	1.792407 
3159.000000	1.793408 
3158.000000	1.794362 
3157.000000	1.795315 
3156.000000	1.796197 
3155.000000	1.796984 
3154.000000	1.797747 
3153.000000	1.798510 
3152.000000	1.799178 
3151.000000	1.799798 
3150.000000	1.800298 
3149.000000	1.800656 
3148.000000	1.800894 
3147.000000	1.801013 
3146.000000	1.801109 
3145.000000	1.801300 
3144.000000	1.801609 
3143.000000	1.802158 
3142.000000	1.803040 
3141.000000	1.804208 
3140.000000	1.805686 
3139.000000	1.807355 
3138.000000	1.809120 
3137.000000	1.810860 
3136.000000	1.812434 
3135.000000	1.813769 
3134.000000	1.814818 
3133.000000	1.815557 
3132.000000	1.816010 
3131.000000	1.816225 
3130.000000	1.816272 
3129.000000	1.816296 
3128.000000	1.816463 
3127.000000	1.816797 
3126.000000	1.817393 
3125.000000	1.818323 
3124.000000	1.819634 
3123.000000	1.821208 
3122.000000	1.823115 
3121.000000	1.825189 
3120.000000	1.827406 
3119.000000	1.829648 
3118.000000	1.831865 
3117.000000	1.834011 
3116.000000	1.836061 
3115.000000	1.837992 
3114.000000	1.839780 
3113.000000	1.841449 
3112.000000	1.843094 
3111.000000	1.844620 
3110.000000	1.846098 
3109.000000	1.847529 
3108.000000	1.848912 
3107.000000	1.850271 
3106.000000	1.851630 
3105.000000	1.852989 
3104.000000	1.854419 
3103.000000	1.855945 
3102.000000	1.857614 
3101.000000	1.859426 
3100.000000	1.861405 
3099.000000	1.863479 
3098.000000	1.865625 
3097.000000	1.867747 
3096.000000	1.869821 
3095.000000	1.871776 
3094.000000	1.873660 
3093.000000	1.875472 
3092.000000	1.877212 
3091.000000	1.878952 
3090.000000	1.880717 
3089.000000	1.882553 
3088.000000	1.884508 
3087.000000	1.886487 
3086.000000	1.888537 
3085.000000	1.890563 
3084.000000	1.892542 
3083.000000	1.894474 
3082.000000	1.896286 
3081.000000	1.898002 
3080.000000	1.899623 
3079.000000	1.901102 
3078.000000	1.902556 
3077.000000	1.903915 
3076.000000	1.905250 
3075.000000	1.906490 
3074.000000	1.907706 
3073.000000	1.908874 
3072.000000	1.910042 
3071.000000	1.911234 
3070.000000	1.912474 
3069.000000	1.913833 
3068.000000	1.915264 
3067.000000	1.916885 
3066.000000	1.918649 
3065.000000	1.920533 
3064.000000	1.922488 
3063.000000	1.924514 
3062.000000	1.926565 
3061.000000	1.928639 
3060.000000	1.930665 
3059.000000	1.932644 
3058.000000	1.934528 
3057.000000	1.936364 
3056.000000	1.938128 
3055.000000	1.939749 
3054.000000	1.941227 
3053.000000	1.942682 
3052.000000	1.943993 
3051.000000	1.945281 
3050.000000	1.946520 
3049.000000	1.947808 
3048.000000	1.949095 
3047.000000	1.950430 
3046.000000	1.951813 
3045.000000	1.953220 
3044.000000	1.954603 
3043.000000	1.955962 
3042.000000	1.957249 
3041.000000	1.958465 
3040.000000	1.959562 
3039.000000	1.960539 
3038.000000	1.961374 
3037.000000	1.962065 
3036.000000	1.962685 
3035.000000	1.963186 
3034.000000	1.963543 
3033.000000	1.963734 
3032.000000	1.963734 
3031.000000	1.963543 
3030.000000	1.963043 
3029.000000	1.962232 
3028.000000	1.961064 
3027.000000	1.959490 
3026.000000	1.957631 
3025.000000	1.955485 
3024.000000	1.953172 
3023.000000	1.950860 
3022.000000	1.948761 
3021.000000	1.947093 
3020.000000	1.946020 
3019.000000	1.945805 
3018.000000	1.946568 
3017.000000	1.948356 
3016.000000	1.951146 
3015.000000	1.954865 
3014.000000	1.959276 
3013.000000	1.964187 
3012.000000	1.969337 
3011.000000	1.974511 
3010.000000	1.979565 
3009.000000	1.984286 
3008.000000	1.988625 
3007.000000	1.992535 
3006.000000	1.995992 
3005.000000	1.999044 
3004.000000	2.001690 
3003.000000	2.003979 
3002.000000	2.005934 
3001.000000	2.007579 
3000.000000	2.009010 
2999.000000	2.010226 
2998.000000	2.011346 
2997.000000	2.012419 
2996.000000	2.013492 
2995.000000	2.014565 
2994.000000	2.015686 
2993.000000	2.016782 
2992.000000	2.017760 
2991.000000	2.018547 
2990.000000	2.019023 
2989.000000	2.019095 
2988.000000	2.018761 
2987.000000	2.017927 
2986.000000	2.016639 
2985.000000	2.014946 
2984.000000	2.012920 
2983.000000	2.010631 
2982.000000	2.008152 
2981.000000	2.005553 
2980.000000	2.002787 
2979.000000	1.999831 
2978.000000	1.996636 
2977.000000	1.993155 
2976.000000	1.989221 
2975.000000	1.984810 
2974.000000	1.979947 
2973.000000	1.974678 
2972.000000	1.969027 
2971.000000	1.963210 
2970.000000	1.957297 
2969.000000	1.951503 
2968.000000	1.945900 
2967.000000	1.940655 
2966.000000	1.935839 
2965.000000	1.931476 
2964.000000	1.927661 
2963.000000	1.924347 
2962.000000	1.921534 
2961.000000	1.919221 
2960.000000	1.917338 
2959.000000	1.915788 
2958.000000	1.914572 
2957.000000	1.913595 
2956.000000	1.912760 
2955.000000	1.911926 
2954.000000	1.911044 
2953.000000	1.909995 
2952.000000	1.908636 
2951.000000	1.906871 
2950.000000	1.904511 
2949.000000	1.901459 
2948.000000	1.897573 
2947.000000	1.892924 
2946.000000	1.887297 
2945.000000	1.880812 
2944.000000	1.873588 
2943.000000	1.865720 
2942.000000	1.857280 
2941.000000	1.848530 
2940.000000	1.839613 
2939.000000	1.830625 
2938.000000	1.821732 
2937.000000	1.812982 
2936.000000	1.804494 
2935.000000	1.796317 
2934.000000	1.788496 
2933.000000	1.781105 
2932.000000	1.774287 
2931.000000	1.768088 
2930.000000	1.762723 
2929.000000	1.758360 
2928.000000	1.755189 
2927.000000	1.753449 
2926.000000	1.753282 
2925.000000	1.754951 
2924.000000	1.758456 
2923.000000	1.763892 
2922.000000	1.771187 
2921.000000	1.780176 
2920.000000	1.790595 
2919.000000	1.802086 
2918.000000	1.814341 
2917.000000	1.826906 
2916.000000	1.839470 
2915.000000	1.851630 
2914.000000	1.863121 
2913.000000	1.873803 
2912.000000	1.883506 
2911.000000	1.892256 
2910.000000	1.899981 
2909.000000	1.906847 
2908.000000	1.912903 
2907.000000	1.918268 
2906.000000	1.923084 
2905.000000	1.927495 
2904.000000	1.931619 
2903.000000	1.935529 
2902.000000	1.939344 
2901.000000	1.943087 
2900.000000	1.946759 
2899.000000	1.950383 
2898.000000	1.953911 
2897.000000	1.957297 
2896.000000	1.960635 
2895.000000	1.963782 
2894.000000	1.966738 
2893.000000	1.969575 
2892.000000	1.972270 
2891.000000	1.974797 
2890.000000	1.977157 
2889.000000	1.979327 
2888.000000	1.981329 
2887.000000	1.983094 
2886.000000	1.984620 
2885.000000	1.985836 
2884.000000	1.986789 
2883.000000	1.987457 
2882.000000	1.987862 
2881.000000	1.988005 
2880.000000	1.987886 
2879.000000	1.987528 
2878.000000	1.986885 
2877.000000	1.985859 
2876.000000	1.984381 
2875.000000	1.982259 
2874.000000	1.979398 
2873.000000	1.975536 
2872.000000	1.970529 
2871.000000	1.964330 
2870.000000	1.956963 
2869.000000	1.948475 
2868.000000	1.939225 
2867.000000	1.929569 
2866.000000	1.919913 
2865.000000	1.910901 
2864.000000	1.903009 
2863.000000	1.896739 
2862.000000	1.892375 
2861.000000	1.890230 
2860.000000	1.890254 
2859.000000	1.892375 
2858.000000	1.896429 
2857.000000	1.902103 
2856.000000	1.909160 
2855.000000	1.917290 
2854.000000	1.926255 
2853.000000	1.935839 
2852.000000	1.945829 
2851.000000	1.956081 
2850.000000	1.966404 
2849.000000	1.976656 
2848.000000	1.986742 
2847.000000	1.996517 
2846.000000	2.005863 
2845.000000	2.014684 
2844.000000	2.022957 
2843.000000	2.030682 
2842.000000	2.037835 
2841.000000	2.044391 
2840.000000	2.050447 
2839.000000	2.056050 
2838.000000	2.061176 
2837.000000	2.065968 
2836.000000	2.070474 
2835.000000	2.074742 
2834.000000	2.078795 
2833.000000	2.082633 
2832.000000	2.086281 
2831.000000	2.089786 
2830.000000	2.093052 
2829.000000	2.096152 
2828.000000	2.099037 
2827.000000	2.101802 
2826.000000	2.104425 
2825.000000	2.106928 
2824.000000	2.109432 
2823.000000	2.111935 
2822.000000	2.114486 
2821.000000	2.117061 
2820.000000	2.119684 
2819.000000	2.122330 
2818.000000	2.125024 
2817.000000	2.127671 
2816.000000	2.130293 
2815.000000	2.132844 
2814.000000	2.135324 
2813.000000	2.137708 
2812.000000	2.139973 
2811.000000	2.142167 
2810.000000	2.144360 
2809.000000	2.146506 
2808.000000	2.148675 
2807.000000	2.150893 
2806.000000	2.153134 
2805.000000	2.155351 
2804.000000	2.157545 
2803.000000	2.159619 
2802.000000	2.161598 
2801.000000	2.163386 
2800.000000	2.165031 
2799.000000	2.166581 
2798.000000	2.168035 
2797.000000	2.169466 
2796.000000	2.170944 
2795.000000	2.172470 
2794.000000	2.174091 
2793.000000	2.175831 
2792.000000	2.177715 
2791.000000	2.179670 
2790.000000	2.181744 
2789.000000	2.183866 
2788.000000	2.186012 
2787.000000	2.188181 
2786.000000	2.190375 
2785.000000	2.192521 
2784.000000	2.194619 
2783.000000	2.196645 
2782.000000	2.198529 
2781.000000	2.200269 
2780.000000	2.201867 
2779.000000	2.203297 
2778.000000	2.204561 
2777.000000	2.205777 
2776.000000	2.206945 
2775.000000	2.208065 
2774.000000	2.209234 
2773.000000	2.210450 
2772.000000	2.211689 
2771.000000	2.212953 
2770.000000	2.214264 
2769.000000	2.215552 
2768.000000	2.216792 
2767.000000	2.217984 
2766.000000	2.219152 
2765.000000	2.220296 
2764.000000	2.221465 
2763.000000	2.222633 
2762.000000	2.223825 
2761.000000	2.225041 
2760.000000	2.226281 
2759.000000	2.227520 
2758.000000	2.228689 
2757.000000	2.229833 
2756.000000	2.230930 
2755.000000	2.231931 
2754.000000	2.232885 
2753.000000	2.233743 
2752.000000	2.234458 
2751.000000	2.235031 
2750.000000	2.235507 
2749.000000	2.235841 
2748.000000	2.236032 
2747.000000	2.236127 
2746.000000	2.236127 
2745.000000	2.236127 
2744.000000	2.236199 
2743.000000	2.236318 
2742.000000	2.236509 
2741.000000	2.236771 
2740.000000	2.237057 
2739.000000	2.237343 
2738.000000	2.237582 
2737.000000	2.237796 
2736.000000	2.237987 
2735.000000	2.238154 
2734.000000	2.238345 
2733.000000	2.238512 
2732.000000	2.238702 
2731.000000	2.238941 
2730.000000	2.239179 
2729.000000	2.239394 
2728.000000	2.239537 
2727.000000	2.239608 
2726.000000	2.239561 
2725.000000	2.239441 
2724.000000	2.239251 
2723.000000	2.238988 
2722.000000	2.238702 
2721.000000	2.238368 
2720.000000	2.238035 
2719.000000	2.237701 
2718.000000	2.237343 
2717.000000	2.236938 
2716.000000	2.236437 
2715.000000	2.235889 
2714.000000	2.235221 
2713.000000	2.234458 
2712.000000	2.233648 
2711.000000	2.232789 
2710.000000	2.231907 
2709.000000	2.231025 
2708.000000	2.230191 
2707.000000	2.229452 
2706.000000	2.228832 
2705.000000	2.228379 
2704.000000	2.227997 
2703.000000	2.227759 
2702.000000	2.227616 
2701.000000	2.227616 
2700.000000	2.227640 
2699.000000	2.227687 
2698.000000	2.227759 
2697.000000	2.227783 
2696.000000	2.227711 
2695.000000	2.227568 
2694.000000	2.227354 
2693.000000	2.227067 
2692.000000	2.226758 
2691.000000	2.226424 
2690.000000	2.226114 
2689.000000	2.225852 
2688.000000	2.225661 
2687.000000	2.225446 
2686.000000	2.225184 
2685.000000	2.224802 
2684.000000	2.224302 
2683.000000	2.223610 
2682.000000	2.222752 
2681.000000	2.221751 
2680.000000	2.220654 
2679.000000	2.219557 
2678.000000	2.218556 
2677.000000	2.217650 
2676.000000	2.216935 
2675.000000	2.216386 
2674.000000	2.216005 
2673.000000	2.215671 
2672.000000	2.215361 
2671.000000	2.214860 
2670.000000	2.214193 
2669.000000	2.213311 
2668.000000	2.212214 
2667.000000	2.210903 
2666.000000	2.209520 
2665.000000	2.208137 
2664.000000	2.206802 
2663.000000	2.205610 
2662.000000	2.204585 
2661.000000	2.203774 
2660.000000	2.203106 
2659.000000	2.202558 
2658.000000	2.202105 
2657.000000	2.201676 
2656.000000	2.201271 
2655.000000	2.200889 
2654.000000	2.200460 
2653.000000	2.200007 
2652.000000	2.199530 
2651.000000	2.199101 
2650.000000	2.198672 
2649.000000	2.198290 
2648.000000	2.197933 
2647.000000	2.197647 
2646.000000	2.197432 
2645.000000	2.197217 
2644.000000	2.197051 
2643.000000	2.196931 
2642.000000	2.196860 
2641.000000	2.196836 
2640.000000	2.196907 
2639.000000	2.197003 
2638.000000	2.197170 
2637.000000	2.197456 
2636.000000	2.197813 
2635.000000	2.198243 
2634.000000	2.198743 
2633.000000	2.199316 
2632.000000	2.199888 
2631.000000	2.200436 
2630.000000	2.200937 
2629.000000	2.201366 
2628.000000	2.201700 
2627.000000	2.201938 
2626.000000	2.202081 
2625.000000	2.202153 
2624.000000	2.202177 
2623.000000	2.202177 
2622.000000	2.202105 
2621.000000	2.202057 
2620.000000	2.201962 
2619.000000	2.201867 
2618.000000	2.201795 
2617.000000	2.201724 
2616.000000	2.201700 
2615.000000	2.201771 
2614.000000	2.201867 
2613.000000	2.202105 
2612.000000	2.202391 
2611.000000	2.202749 
2610.000000	2.203202 
2609.000000	2.203679 
2608.000000	2.204155 
2607.000000	2.204608 
2606.000000	2.204990 
2605.000000	2.205371 
2604.000000	2.205634 
2603.000000	2.205824 
2602.000000	2.205967 
2601.000000	2.206110 
2600.000000	2.206254 
2599.000000	2.206444 
2598.000000	2.206707 
2597.000000	2.207040 
2596.000000	2.207589 
2595.000000	2.208209 
2594.000000	2.208971 
2593.000000	2.209854 
2592.000000	2.210855 
2591.000000	2.211904 
2590.000000	2.213001 
2589.000000	2.214097 
2588.000000	2.215242 
2587.000000	2.216339 
2586.000000	2.217459 
2585.000000	2.218604 
2584.000000	2.219724 
2583.000000	2.220940 
2582.000000	2.222251 
2581.000000	2.223658 
2580.000000	2.225208 
2579.000000	2.226829 
2578.000000	2.228546 
2577.000000	2.230310 
2576.000000	2.232074 
2575.000000	2.233815 
2574.000000	2.235507 
2573.000000	2.237153 
2572.000000	2.238702 
2571.000000	2.240204 
2570.000000	2.241659 
2569.000000	2.243137 
2568.000000	2.244615 
2567.000000	2.246046 
2566.000000	2.247500 
2565.000000	2.248978 
2564.000000	2.250432 
2563.000000	2.251839 
2562.000000	2.253174 
2561.000000	2.254486 
2560.000000	2.255702 
2559.000000	2.256870 
2558.000000	2.257966 
2557.000000	2.259063 
2556.000000	2.260112 
2555.000000	2.261161 
2554.000000	2.262258 
2553.000000	2.263450 
2552.000000	2.264714 
2551.000000	2.266049 
2550.000000	2.267479 
2549.000000	2.268934 
2548.000000	2.270388 
2547.000000	2.271795 
2546.000000	2.273178 
2545.000000	2.274417 
2544.000000	2.275609 
2543.000000	2.276754 
2542.000000	2.277803 
2541.000000	2.278828 
2540.000000	2.279877 
2539.000000	2.280926 
2538.000000	2.281999 
2537.000000	2.283120 
2536.000000	2.284193 
2535.000000	2.285289 
2534.000000	2.286362 
2533.000000	2.287387 
2532.000000	2.288341 
2531.000000	2.289199 
2530.000000	2.290010 
2529.000000	2.290749 
2528.000000	2.291393 
2527.000000	2.292084 
2526.000000	2.292847 
2525.000000	2.293682 
2524.000000	2.294635 
2523.000000	2.295684 
2522.000000	2.296829 
2521.000000	2.297973 
2520.000000	2.299070 
2519.000000	2.299976 
2518.000000	2.300691 
2517.000000	2.301192 
2516.000000	2.301454 
2515.000000	2.301549 
2514.000000	2.301526 
2513.000000	2.301454 
2512.000000	2.301335 
2511.000000	2.301287 
2510.000000	2.301239 
2509.000000	2.301287 
2508.000000	2.301430 
2507.000000	2.301645 
2506.000000	2.301955 
2505.000000	2.302384 
2504.000000	2.302813 
2503.000000	2.303314 
2502.000000	2.303791 
2501.000000	2.304220 
2500.000000	2.304625 
2499.000000	2.304983 
2498.000000	2.305245 
2497.000000	2.305459 
2496.000000	2.305650 
2495.000000	2.305865 
2494.000000	2.306079 
2493.000000	2.306318 
2492.000000	2.306604 
2491.000000	2.306914 
2490.000000	2.307200 
2489.000000	2.307462 
2488.000000	2.307629 
2487.000000	2.307748 
2486.000000	2.307748 
2485.000000	2.307653 
2484.000000	2.307510 
2483.000000	2.307248 
2482.000000	2.306842 
2481.000000	2.306318 
2480.000000	2.305722 
2479.000000	2.304983 
2478.000000	2.304148 
2477.000000	2.303242 
2476.000000	2.302289 
2475.000000	2.301383 
2474.000000	2.300548 
2473.000000	2.299785 
2472.000000	2.299118 
2471.000000	2.298545 
2470.000000	2.297997 
2469.000000	2.297472 
2468.000000	2.296972 
2467.000000	2.296423 
2466.000000	2.295851 
2465.000000	2.295231 
2464.000000	2.294445 
2463.000000	2.293610 
2462.000000	2.292585 
2461.000000	2.291393 
2460.000000	2.290034 
2459.000000	2.288508 
2458.000000	2.286911 
2457.000000	2.285242 
2456.000000	2.283668 
2455.000000	2.282238 
2454.000000	2.280974 
2453.000000	2.279877 
2452.000000	2.278995 
2451.000000	2.278232 
2450.000000	2.277565 
2449.000000	2.276968 
2448.000000	2.276325 
2447.000000	2.275586 
2446.000000	2.274799 
2445.000000	2.273941 
2444.000000	2.273011 
2443.000000	2.272057 
2442.000000	2.271056 
2441.000000	2.270078 
2440.000000	2.269077 
2439.000000	2.268147 
2438.000000	2.267217 
2437.000000	2.266383 
2436.000000	2.265620 
2435.000000	2.264904 
2434.000000	2.264261 
2433.000000	2.263641 
2432.000000	2.262973 
2431.000000	2.262234 
2430.000000	2.261400 
2429.000000	2.260422 
2428.000000	2.259278 
2427.000000	2.257919 
2426.000000	2.256417 
2425.000000	2.254748 
2424.000000	2.252984 
2423.000000	2.251100 
2422.000000	2.249288 
2421.000000	2.247548 
2420.000000	2.245998 
2419.000000	2.244663 
2418.000000	2.243566 
2417.000000	2.242755 
2416.000000	2.242183 
2415.000000	2.241826 
2414.000000	2.241563 
2413.000000	2.241301 
2412.000000	2.241039 
2411.000000	2.240705 
2410.000000	2.240228 
2409.000000	2.239727 
2408.000000	2.239131 
2407.000000	2.238512 
2406.000000	2.237868 
2405.000000	2.237272 
2404.000000	2.236700 
2403.000000	2.236175 
2402.000000	2.235651 
2401.000000	2.235198 
2400.000000	2.234697 
2399.000000	2.234196 
2398.000000	2.233648 
2397.000000	2.233076 
2396.000000	2.232432 
2395.000000	2.231788 
2394.000000	2.231049 
2393.000000	2.230334 
2392.000000	2.229642 
2391.000000	2.228951 
2390.000000	2.228331 
2389.000000	2.227759 
2388.000000	2.227210 
2387.000000	2.226710 
2386.000000	2.226209 
2385.000000	2.225685 
2384.000000	2.225112 
2383.000000	2.224469 
2382.000000	2.223706 
2381.000000	2.222824 
2380.000000	2.221822 
2379.000000	2.220702 
2378.000000	2.219510 
2377.000000	2.218270 
2376.000000	2.217054 
2375.000000	2.215886 
2374.000000	2.214837 
2373.000000	2.213931 
2372.000000	2.213191 
2371.000000	2.212572 
2370.000000	2.212142 
2369.000000	2.211785 
2368.000000	2.211523 
2367.000000	2.211403 
2366.000000	2.211356 
2365.000000	2.211427 
2364.000000	2.211642 
2363.000000	2.211999 
2362.000000	2.212548 
2361.000000	2.213335 
2360.000000	2.214360 
2359.000000	2.215647 
2358.000000	2.217245 
2357.000000	2.219104 
2356.000000	2.221274 
2355.000000	2.223658 
2354.000000	2.226209 
2353.000000	2.228832 
2352.000000	2.231383 
2351.000000	2.233743 
2350.000000	2.235817 
2349.000000	2.237510 
2348.000000	2.238821 
2347.000000	2.239775 
2346.000000	2.240395 
2345.000000	2.240753 
2344.000000	2.240991 
2343.000000	2.241158 
2342.000000	2.241325 
2341.000000	2.241587 
2340.000000	2.241945 
2339.000000	2.242469 
2338.000000	2.243161 
2337.000000	2.244043 
2336.000000	2.245140 
2335.000000	2.246499 
2334.000000	2.248096 
2333.000000	2.249956 
2332.000000	2.252054 
2331.000000	2.254295 
2330.000000	2.256679 
2329.000000	2.259087 
2328.000000	2.261519 
2327.000000	2.263879 
2326.000000	2.266120 
2325.000000	2.268266 
2324.000000	2.270269 
2323.000000	2.272200 
2322.000000	2.274060 
2321.000000	2.275848 
2320.000000	2.277636 
2319.000000	2.279424 
2318.000000	2.281284 
2317.000000	2.283167 
2316.000000	2.285146 
2315.000000	2.287197 
2314.000000	2.289319 
2313.000000	2.291440 
2312.000000	2.293515 
2311.000000	2.295470 
2310.000000	2.297282 
2309.000000	2.298903 
2308.000000	2.300357 
2307.000000	2.301597 
2306.000000	2.302694 
2305.000000	2.303767 
2304.000000	2.304863 
2303.000000	2.306056 
2302.000000	2.307415 
2301.000000	2.308940 
2300.000000	2.310633 
2299.000000	2.312445 
2298.000000	2.314352 
2297.000000	2.316260 
2296.000000	2.318143 
2295.000000	2.319955 
2294.000000	2.321600 
2293.000000	2.323150 
2292.000000	2.324509 
2291.000000	2.325773 
2290.000000	2.326965 
2289.000000	2.328109 
2288.000000	2.329230 
2287.000000	2.330350 
2286.000000	2.331471 
2285.000000	2.332615 
2284.000000	2.333736 
2283.000000	2.334833 
2282.000000	2.335906 
2281.000000	2.336931 
2280.000000	2.337908 
2279.000000	2.338886 
2278.000000	2.339839 
2277.000000	2.340793 
2276.000000	2.341699 
2275.000000	2.342557 
2274.000000	2.343440 
2273.000000	2.344226 
2272.000000	2.344965 
2271.000000	2.345633 
2270.000000	2.346229 
2269.000000	2.346825 
2268.000000	2.347397 
2267.000000	2.347993 
2266.000000	2.348613 
2265.000000	2.349281 
2264.000000	2.349948 
2263.000000	2.350640 
2262.000000	2.351307 
2261.000000	2.351856 
2260.000000	2.352309 
2259.000000	2.352643 
2258.000000	2.352881 
2257.000000	2.353000 
2256.000000	2.353048 
2255.000000	2.353119 
2254.000000	2.353191 
2253.000000	2.353382 
2252.000000	2.353692 
2251.000000	2.354097 
2250.000000	2.354550 
2249.000000	2.355003 
2248.000000	2.355408 
2247.000000	2.355766 
2246.000000	2.355957 
2245.000000	2.356028 
2244.000000	2.355980 
2243.000000	2.355885 
2242.000000	2.355766 
2241.000000	2.355694 
2240.000000	2.355670 
2239.000000	2.355742 
2238.000000	2.355909 
2237.000000	2.356076 
2236.000000	2.356314 
2235.000000	2.356410 
2234.000000	2.356410 
2233.000000	2.356266 
2232.000000	2.355980 
2231.000000	2.355575 
2230.000000	2.355051 
2229.000000	2.354407 
2228.000000	2.353763 
2227.000000	2.353143 
2226.000000	2.352571 
2225.000000	2.352046 
2224.000000	2.351546 
2223.000000	2.351093 
2222.000000	2.350640 
2221.000000	2.350139 
2220.000000	2.349567 
2219.000000	2.348923 
2218.000000	2.348184 
2217.000000	2.347421 
2216.000000	2.346611 
2215.000000	2.345824 
2214.000000	2.345061 
2213.000000	2.344346 
2212.000000	2.343654 
2211.000000	2.342963 
2210.000000	2.342224 
2209.000000	2.341461 
2208.000000	2.340579 
2207.000000	2.339625 
2206.000000	2.338600 
2205.000000	2.337479 
2204.000000	2.336382 
2203.000000	2.335309 
2202.000000	2.334308 
2201.000000	2.333378 
2200.000000	2.332592 
2199.000000	2.331829 
2198.000000	2.331089 
2197.000000	2.330374 
2196.000000	2.329587 
2195.000000	2.328801 
2194.000000	2.327919 
2193.000000	2.326965 
2192.000000	2.325963 
2191.000000	2.324914 
2190.000000	2.323842 
2189.000000	2.322840 
2188.000000	2.321863 
2187.000000	2.320909 
2186.000000	2.319931 
2185.000000	2.319073 
2184.000000	2.318215 
2183.000000	2.317380 
2182.000000	2.316522 
2181.000000	2.315664 
2180.000000	2.314829 
2179.000000	2.313995 
2178.000000	2.313208 
2177.000000	2.312469 
2176.000000	2.311778 
2175.000000	2.311205 
2174.000000	2.310776 
2173.000000	2.310466 
2172.000000	2.310347 
2171.000000	2.310347 
2170.000000	2.310490 
2169.000000	2.310705 
2168.000000	2.310943 
2167.000000	2.311086 
2166.000000	2.311158 
2165.000000	2.311038 
2164.000000	2.310752 
2163.000000	2.310347 
2162.000000	2.309823 
2161.000000	2.309226 
2160.000000	2.308607 
2159.000000	2.307987 
2158.000000	2.307510 
2157.000000	2.307105 
2156.000000	2.306771 
2155.000000	2.306532 
2154.000000	2.306413 
2153.000000	2.306365 
2152.000000	2.306365 
2151.000000	2.306389 
2150.000000	2.306413 
2149.000000	2.306413 
2148.000000	2.306437 
2147.000000	2.306389 
2146.000000	2.306389 
2145.000000	2.306413 
2144.000000	2.306437 
2143.000000	2.306556 
2142.000000	2.306723 
2141.000000	2.306938 
2140.000000	2.307200 
2139.000000	2.307462 
2138.000000	2.307724 
2137.000000	2.307963 
2136.000000	2.308154 
2135.000000	2.308249 
2134.000000	2.308249 
2133.000000	2.308154 
2132.000000	2.307963 
2131.000000	2.307748 
2130.000000	2.307486 
2129.000000	2.307271 
2128.000000	2.307152 
2127.000000	2.307176 
2126.000000	2.307295 
2125.000000	2.307558 
2124.000000	2.307868 
2123.000000	2.308177 
2122.000000	2.308392 
2121.000000	2.308487 
2120.000000	2.308440 
2119.000000	2.308249 
2118.000000	2.308034 
2117.000000	2.307796 
2116.000000	2.307629 
2115.000000	2.307581 
2114.000000	2.307701 
2113.000000	2.307963 
2112.000000	2.308273 
2111.000000	2.308654 
2110.000000	2.309036 
2109.000000	2.309417 
2108.000000	2.309679 
2107.000000	2.309894 
2106.000000	2.309966 
2105.000000	2.309942 
2104.000000	2.309846 
2103.000000	2.309703 
2102.000000	2.309560 
2101.000000	2.309393 
2100.000000	2.309250 
2099.000000	2.309155 
2098.000000	2.309083 
2097.000000	2.309060 
2096.000000	2.309083 
2095.000000	2.309155 
2094.000000	2.309250 
2093.000000	2.309346 
2092.000000	2.309417 
2091.000000	2.309536 
2090.000000	2.309656 
2089.000000	2.309870 
2088.000000	2.310228 
2087.000000	2.310705 
2086.000000	2.311372 
2085.000000	2.312207 
2084.000000	2.313232 
2083.000000	2.314400 
2082.000000	2.315616 
2081.000000	2.316856 
2080.000000	2.318048 
2079.000000	2.319169 
2078.000000	2.320241 
2077.000000	2.321290 
2076.000000	2.322411 
2075.000000	2.323651 
2074.000000	2.325081 
2073.000000	2.326774 
2072.000000	2.328658 
2071.000000	2.330732 
2070.000000	2.332973 
2069.000000	2.335262 
2068.000000	2.337574 
2067.000000	2.339839 
2066.000000	2.342009 
2065.000000	2.344179 
2064.000000	2.346181 
2063.000000	2.348136 
2062.000000	2.350068 
2061.000000	2.351951 
2060.000000	2.353858 
2059.000000	2.355790 
2058.000000	2.357721 
2057.000000	2.359724 
2056.000000	2.361774 
2055.000000	2.363896 
2054.000000	2.366113 
2053.000000	2.368307 
2052.000000	2.370548 
2051.000000	2.372789 
2050.000000	2.374958 
2049.000000	2.377128 
2048.000000	2.379202 
2047.000000	2.381277 
2046.000000	2.383303 
2045.000000	2.385306 
2044.000000	2.387237 
2043.000000	2.389144 
2042.000000	2.390980 
2041.000000	2.392792 
2040.000000	2.394533 
2039.000000	2.396178 
2038.000000	2.397799 
2037.000000	2.399373 
2036.000000	2.400875 
2035.000000	2.402377 
2034.000000	2.403831 
2033.000000	2.405214 
2032.000000	2.406549 
2031.000000	2.407813 
2030.000000	2.408933 
2029.000000	2.409982 
2028.000000	2.410936 
2027.000000	2.411794 
2026.000000	2.412581 
2025.000000	2.413320 
2024.000000	2.414035 
2023.000000	2.414822 
2022.000000	2.415609 
2021.000000	2.416443 
2020.000000	2.417254 
2019.000000	2.418136 
2018.000000	2.418923 
2017.000000	2.419638 
2016.000000	2.420282 
2015.000000	2.420830 
2014.000000	2.421307 
2013.000000	2.421712 
2012.000000	2.422094 
2011.000000	2.422475 
2010.000000	2.422857 
2009.000000	2.423286 
2008.000000	2.423715 
2007.000000	2.424144 
2006.000000	2.424573 
2005.000000	2.424979 
2004.000000	2.425408 
2003.000000	2.425813 
2002.000000	2.426195 
2001.000000	2.426600 
2000.000000	2.426910 
1999.000000	2.427196 
1998.000000	2.427339 
1997.000000	2.427363 
1996.000000	2.427244 
1995.000000	2.427005 
1994.000000	2.426648 
1993.000000	2.426242 
1992.000000	2.425861 
1991.000000	2.425479 
1990.000000	2.425122 
1989.000000	2.424836 
1988.000000	2.424526 
1987.000000	2.424168 
1986.000000	2.423739 
1985.000000	2.423214 
1984.000000	2.422571 
1983.000000	2.421808 
1982.000000	2.420949 
1981.000000	2.420115 
1980.000000	2.419304 
1979.000000	2.418518 
1978.000000	2.417850 
1977.000000	2.417206 
1976.000000	2.416539 
1975.000000	2.415847 
1974.000000	2.415060 
1973.000000	2.414131 
1972.000000	2.413082 
1971.000000	2.411937 
1970.000000	2.410769 
1969.000000	2.409553 
1968.000000	2.408385 
1967.000000	2.407312 
1966.000000	2.406358 
1965.000000	2.405476 
1964.000000	2.404665 
1963.000000	2.403903 
1962.000000	2.403163 
1961.000000	2.402400 
1960.000000	2.401638 
1959.000000	2.400851 
1958.000000	2.400112 
1957.000000	2.399373 
1956.000000	2.398681 
1955.000000	2.397966 
1954.000000	2.397274 
1953.000000	2.396559 
1952.000000	2.395772 
1951.000000	2.394938 
1950.000000	2.394008 
1949.000000	2.392983 
1948.000000	2.391886 
1947.000000	2.390742 
1946.000000	2.389574 
1945.000000	2.388453 
1944.000000	2.387380 
1943.000000	2.386403 
1942.000000	2.385592 
1941.000000	2.384877 
1940.000000	2.384281 
1939.000000	2.383732 
1938.000000	2.383184 
1937.000000	2.382636 
1936.000000	2.381992 
1935.000000	2.381229 
1934.000000	2.380371 
1933.000000	2.379417 
1932.000000	2.378344 
1931.000000	2.377200 
1930.000000	2.376055 
1929.000000	2.374839 
1928.000000	2.373600 
1927.000000	2.372336 
1926.000000	2.371048 
1925.000000	2.369689 
1924.000000	2.368259 
1923.000000	2.366828 
1922.000000	2.365398 
1921.000000	2.363991 
1920.000000	2.362608 
1919.000000	2.361369 
1918.000000	2.360224 
1917.000000	2.359199 
1916.000000	2.358245 
1915.000000	2.357363 
1914.000000	2.356505 
1913.000000	2.355694 
1912.000000	2.354860 
1911.000000	2.353978 
1910.000000	2.353072 
1909.000000	2.352190 
1908.000000	2.351331 
1907.000000	2.350449 
1906.000000	2.349543 
1905.000000	2.348637 
1904.000000	2.347731 
1903.000000	2.346777 
1902.000000	2.345776 
1901.000000	2.344775 
1900.000000	2.343773 
1899.000000	2.342796 
1898.000000	2.341842 
1897.000000	2.341032 
1896.000000	2.340316 
1895.000000	2.339768 
1894.000000	2.339339 
1893.000000	2.339076 
1892.000000	2.338957 
1891.000000	2.339005 
1890.000000	2.339196 
1889.000000	2.339482 
1888.000000	2.339887 
1887.000000	2.340292 
1886.000000	2.340722 
1885.000000	2.341127 
1884.000000	2.341580 
1883.000000	2.342009 
1882.000000	2.342462 
1881.000000	2.342939 
1880.000000	2.343463 
1879.000000	2.343964 
1878.000000	2.344369 
1877.000000	2.344655 
1876.000000	2.344751 
1875.000000	2.344584 
1874.000000	2.344274 
1873.000000	2.343821 
1872.000000	2.343392 
1871.000000	2.343106 
1870.000000	2.343130 
1869.000000	2.343463 
1868.000000	2.344274 
1867.000000	2.345418 
1866.000000	2.346920 
1865.000000	2.348589 
1864.000000	2.350306 
1863.000000	2.351927 
1862.000000	2.353334 
1861.000000	2.354502 
1860.000000	2.355432 
1859.000000	2.356171 
1858.000000	2.356743 
1857.000000	2.357196 
1856.000000	2.357625 
1855.000000	2.357983 
1854.000000	2.358269 
1853.000000	2.358508 
1852.000000	2.358603 
1851.000000	2.358531 
1850.000000	2.358341 
1849.000000	2.358126 
1848.000000	2.357912 
1847.000000	2.357864 
1846.000000	2.358102 
1845.000000	2.358770 
1844.000000	2.359890 
1843.000000	2.361440 
1842.000000	2.363348 
1841.000000	2.365469 
1840.000000	2.367615 
1839.000000	2.369594 
1838.000000	2.371239 
1837.000000	2.372479 
1836.000000	2.373266 
1835.000000	2.373623 
1834.000000	2.373647 
1833.000000	2.373480 
1832.000000	2.373337 
1831.000000	2.373290 
1830.000000	2.373480 
1829.000000	2.373957 
1828.000000	2.374720 
1827.000000	2.375793 
1826.000000	2.377104 
1825.000000	2.378606 
1824.000000	2.380204 
1823.000000	2.381896 
1822.000000	2.383589 
1821.000000	2.385234 
1820.000000	2.386832 
1819.000000	2.388286 
1818.000000	2.389574 
1817.000000	2.390718 
1816.000000	2.391695 
1815.000000	2.392578 
1814.000000	2.393388 
1813.000000	2.394127 
1812.000000	2.394890 
1811.000000	2.395629 
1810.000000	2.396297 
1809.000000	2.396941 
1808.000000	2.397418 
1807.000000	2.397751 
1806.000000	2.397894 
1805.000000	2.397847 
1804.000000	2.397680 
1803.000000	2.397418 
1802.000000	2.397108 
1801.000000	2.396750 
1800.000000	2.396345 
1799.000000	2.395820 
1798.000000	2.395176 
1797.000000	2.394437 
1796.000000	2.393579 
1795.000000	2.392745 
1794.000000	2.392053 
1793.000000	2.391624 
1792.000000	2.391552 
1791.000000	2.391839 
1790.000000	2.392482 
1789.000000	2.393341 
1788.000000	2.394342 
1787.000000	2.395319 
1786.000000	2.396106 
1785.000000	2.396678 
1784.000000	2.396965 
1783.000000	2.396869 
1782.000000	2.396416 
1781.000000	2.395558 
1780.000000	2.394294 
1779.000000	2.392554 
1778.000000	2.390384 
1777.000000	2.387905 
1776.000000	2.385282 
1775.000000	2.382707 
1774.000000	2.380490 
1773.000000	2.378797 
1772.000000	2.377724 
1771.000000	2.377367 
1770.000000	2.377653 
1769.000000	2.378320 
1768.000000	2.379131 
1767.000000	2.379918 
1766.000000	2.380418 
1765.000000	2.380514 
1764.000000	2.380251 
1763.000000	2.379584 
1762.000000	2.378582 
1761.000000	2.377271 
1760.000000	2.375721 
1759.000000	2.373862 
1758.000000	2.371668 
1757.000000	2.369070 
1756.000000	2.366089 
1755.000000	2.362775 
1754.000000	2.359223 
1753.000000	2.355647 
1752.000000	2.352094 
1751.000000	2.348732 
1750.000000	2.345657 
1749.000000	2.342867 
1748.000000	2.340292 
1747.000000	2.337789 
1746.000000	2.335214 
1745.000000	2.332377 
1744.000000	2.329182 
1743.000000	2.325463 
1742.000000	2.321219 
1741.000000	2.316427 
1740.000000	2.311229 
1739.000000	2.305889 
1738.000000	2.300620 
1737.000000	2.295732 
1736.000000	2.291560 
1735.000000	2.288389 
1734.000000	2.286458 
1733.000000	2.285766 
1732.000000	2.286148 
1731.000000	2.287435 
1730.000000	2.289223 
1729.000000	2.291107 
1728.000000	2.292609 
1727.000000	2.293419 
1726.000000	2.293205 
1725.000000	2.291822 
1724.000000	2.289319 
1723.000000	2.285838 
1722.000000	2.281737 
1721.000000	2.277350 
1720.000000	2.273178 
1719.000000	2.269601 
1718.000000	2.266931 
1717.000000	2.265357 
1716.000000	2.264857 
1715.000000	2.265214 
1714.000000	2.266144 
1713.000000	2.267265 
1712.000000	2.268099 
1711.000000	2.268266 
1710.000000	2.267527 
1709.000000	2.265715 
1708.000000	2.262735 
1707.000000	2.258706 
1706.000000	2.253794 
1705.000000	2.248191 
1704.000000	2.242159 
1703.000000	2.236056 
1702.000000	2.230215 
1701.000000	2.224946 
1700.000000	2.220678 
1699.000000	2.217650 
1698.000000	2.216029 
1697.000000	2.215790 
1696.000000	2.216720 
1695.000000	2.218508 
1694.000000	2.220582 
1693.000000	2.222347 
1692.000000	2.223348 
1691.000000	2.223181 
1690.000000	2.221751 
1689.000000	2.219176 
1688.000000	2.215814 
1687.000000	2.212119 
1686.000000	2.208685 
1685.000000	2.205944 
1684.000000	2.204203 
1683.000000	2.203440 
1682.000000	2.203488 
1681.000000	2.204060 
1680.000000	2.204680 
1679.000000	2.205014 
1678.000000	2.204751 
1677.000000	2.203750 
1676.000000	2.202129 
1675.000000	2.200078 
1674.000000	2.197790 
1673.000000	2.195525 
1672.000000	2.193450 
1671.000000	2.191638 
1670.000000	2.190136 
1669.000000	2.188897 
1668.000000	2.187848 
1667.000000	2.186894 
1666.000000	2.185916 
1665.000000	2.184796 
1664.000000	2.183365 
1663.000000	2.181458 
1662.000000	2.178812 
1661.000000	2.175211 
1660.000000	2.170562 
1659.000000	2.164864 
1658.000000	2.158308 
1657.000000	2.151274 
1656.000000	2.144193 
1655.000000	2.137637 
1654.000000	2.132081 
1653.000000	2.127838 
1652.000000	2.125048 
1651.000000	2.123665 
1650.000000	2.123475 
1649.000000	2.124142 
1648.000000	2.125239 
1647.000000	2.126502 
1646.000000	2.127623 
1645.000000	2.128291 
1644.000000	2.128338 
1643.000000	2.127695 
1642.000000	2.126312 
1641.000000	2.124190 
1640.000000	2.121400 
1639.000000	2.118158 
1638.000000	2.114772 
1637.000000	2.111458 
1636.000000	2.108526 
1635.000000	2.106118 
1634.000000	2.104282 
1633.000000	2.102899 
1632.000000	2.101731 
1631.000000	2.100491 
1630.000000	2.098870 
1629.000000	2.096676 
1628.000000	2.093815 
1627.000000	2.090120 
1626.000000	2.085733 
1625.000000	2.080607 
1624.000000	2.074790 
1623.000000	2.068257 
1622.000000	2.061104 
1621.000000	2.053260 
1620.000000	2.044796 
1619.000000	2.035760 
1618.000000	2.026224 
1617.000000	2.016353 
1616.000000	2.006316 
1615.000000	1.996326 
1614.000000	1.986551 
1613.000000	1.977276 
1612.000000	1.968717 
1611.000000	1.961159 
1610.000000	1.954770 
1609.000000	1.949810 
1608.000000	1.946473 
1607.000000	1.944780 
1606.000000	1.944708 
1605.000000	1.946115 
1604.000000	1.948738 
1603.000000	1.952290 
1602.000000	1.956439 
1601.000000	1.960897 
1600.000000	1.965379 
1599.000000	1.969695 
1598.000000	1.973724 
1597.000000	1.977324 
1596.000000	1.980423 
1595.000000	1.982998 
1594.000000	1.984953 
1593.000000	1.986336 
1592.000000	1.987075 
1591.000000	1.987290 
1590.000000	1.987004 
1589.000000	1.986289 
1588.000000	1.985144 
1587.000000	1.983761 
1586.000000	1.982021 
1585.000000	1.979923 
1584.000000	1.977443 
1583.000000	1.974606 
1582.000000	1.971507 
1581.000000	1.968169 
1580.000000	1.964855 
1579.000000	1.961708 
1578.000000	1.958966 
1577.000000	1.956725 
1576.000000	1.955056 
1575.000000	1.953959 
1574.000000	1.953244 
1573.000000	1.952767 
1572.000000	1.952338 
1571.000000	1.951694 
1570.000000	1.950621 
1569.000000	1.948761 
1568.000000	1.945996 
1567.000000	1.942157 
1566.000000	1.937103 
1565.000000	1.930904 
1564.000000	1.923847 
1563.000000	1.916432 
1562.000000	1.909160 
1561.000000	1.902770 
1560.000000	1.897883 
1559.000000	1.895070 
1558.000000	1.894617 
1557.000000	1.896405 
1556.000000	1.900124 
1555.000000	1.905250 
1554.000000	1.911020 
1553.000000	1.916694 
1552.000000	1.921725 
1551.000000	1.925587 
1550.000000	1.928043 
1549.000000	1.929044 
1548.000000	1.928806 
1547.000000	1.927685 
1546.000000	1.926231 
1545.000000	1.925086 
1544.000000	1.924991 
1543.000000	1.926541 
1542.000000	1.930332 
1541.000000	1.936697 
1540.000000	1.945662 
1539.000000	1.957035 
1538.000000	1.970338 
1537.000000	1.984882 
1536.000000	1.999831 
1535.000000	2.014517 
1534.000000	2.028226 
1533.000000	2.040386 
1532.000000	2.050757 
1531.000000	2.059245 
1530.000000	2.065944 
1529.000000	2.070951 
1528.000000	2.074432 
1527.000000	2.076721 
1526.000000	2.078056 
1525.000000	2.078676 
1524.000000	2.078700 
1523.000000	2.078366 
1522.000000	2.077889 
1521.000000	2.077293 
1520.000000	2.076649 
1519.000000	2.075886 
1518.000000	2.074980 
1517.000000	2.073860 
1516.000000	2.072358 
1515.000000	2.070236 
1514.000000	2.067446 
1513.000000	2.063798 
1512.000000	2.059364 
1511.000000	2.053928 
1510.000000	2.047514 
1509.000000	2.039933 
1508.000000	2.030849 
1507.000000	2.019619 
1506.000000	2.005529 
1505.000000	1.987576 
1504.000000	1.965022 
1503.000000	1.937246 
1502.000000	1.904201 
1501.000000	1.866531 
1500.000000	1.825690 
1499.000000	1.783800 
1498.000000	1.743459 
1497.000000	1.707506 
1496.000000	1.678586 
1495.000000	1.658654 
1494.000000	1.648974 
1493.000000	1.649665 
1492.000000	1.660156 
1491.000000	1.678872 
1490.000000	1.703858 
1489.000000	1.732873 
1488.000000	1.763868 
1487.000000	1.794815 
1486.000000	1.824283 
1485.000000	1.851034 
1484.000000	1.874494 
1483.000000	1.894330 
1482.000000	1.910424 
1481.000000	1.922988 
1480.000000	1.932215 
1479.000000	1.938676 
1478.000000	1.942849 
1477.000000	1.945233 
1476.000000	1.946258 
1475.000000	1.946449 
1474.000000	1.946115 
1473.000000	1.945400 
1472.000000	1.944351 
1471.000000	1.942992 
1470.000000	1.941180 
1469.000000	1.938605 
1468.000000	1.935124 
1467.000000	1.930570 
1466.000000	1.924681 
1465.000000	1.917171 
1464.000000	1.907896 
1463.000000	1.896715 
1462.000000	1.883530 
1461.000000	1.868438 
1460.000000	1.851558 
1459.000000	1.833319 
1458.000000	1.814389 
1457.000000	1.795649 
1456.000000	1.777958 
1455.000000	1.762294 
1454.000000	1.749658 
1453.000000	1.740956 
1452.000000	1.736545 
1451.000000	1.736640 
1450.000000	1.740980 
1449.000000	1.748991 
1448.000000	1.759648 
1447.000000	1.771879 
1446.000000	1.784563 
1445.000000	1.796603 
1444.000000	1.807260 
1443.000000	1.816034 
1442.000000	1.822829 
1441.000000	1.827740 
1440.000000	1.831173 
1439.000000	1.833558 
1438.000000	1.835322 
1437.000000	1.836800 
1436.000000	1.838207 
1435.000000	1.839613 
1434.000000	1.840949 
1433.000000	1.842188 
1432.000000	1.843214 
1431.000000	1.843976 
1430.000000	1.844310 
1429.000000	1.844334 
1428.000000	1.843976 
1427.000000	1.843166 
1426.000000	1.841878 
1425.000000	1.840209 
1424.000000	1.838159 
1423.000000	1.835846 
1422.000000	1.833367 
1421.000000	1.830792 
1420.000000	1.828289 
1419.000000	1.825833 
1418.000000	1.823306 
1417.000000	1.820492 
1416.000000	1.817107 
1415.000000	1.812791 
1414.000000	1.807141 
1413.000000	1.799964 
1412.000000	1.791071 
1411.000000	1.780509 
1410.000000	1.768589 
1409.000000	1.755833 
1408.000000	1.742839 
1407.000000	1.730442 
1406.000000	1.719284 
1405.000000	1.710224 
1404.000000	1.703739 
1403.000000	1.700186 
1402.000000	1.699590 
1401.000000	1.701807 
1400.000000	1.706528 
1399.000000	1.713180 
1398.000000	1.721215 
1397.000000	1.729965 
1396.000000	1.738762 
1395.000000	1.747035 
1394.000000	1.754260 
1393.000000	1.760077 
1392.000000	1.764225 
1391.000000	1.766633 
1390.000000	1.767468 
1389.000000	1.767039 
1388.000000	1.765727 
1387.000000	1.764106 
1386.000000	1.762747 
1385.000000	1.762056 
1384.000000	1.762342 
1383.000000	1.763677 
1382.000000	1.765966 
1381.000000	1.768922 
1380.000000	1.772165 
1379.000000	1.775407 
1378.000000	1.778388 
1377.000000	1.780915 
1376.000000	1.782941 
1375.000000	1.784491 
1374.000000	1.785731 
1373.000000	1.786708 
1372.000000	1.787543 
1371.000000	1.788258 
1370.000000	1.788878 
1369.000000	1.789426 
1368.000000	1.789879 
1367.000000	1.790237 
1366.000000	1.790523 
1365.000000	1.790785 
1364.000000	1.791119 
1363.000000	1.791453 
1362.000000	1.791834 
1361.000000	1.792240 
1360.000000	1.792645 
1359.000000	1.793003 
1358.000000	1.793289 
1357.000000	1.793408 
1356.000000	1.793360 
1355.000000	1.793074 
1354.000000	1.792621 
1353.000000	1.792001 
1352.000000	1.791286 
1351.000000	1.790523 
1350.000000	1.789760 
1349.000000	1.789093 
1348.000000	1.788544 
1347.000000	1.788139 
1346.000000	1.787948 
1345.000000	1.787996 
1344.000000	1.788210 
1343.000000	1.788663 
1342.000000	1.789426 
1341.000000	1.790499 
1340.000000	1.791906 
1339.000000	1.793742 
1338.000000	1.795935 
1337.000000	1.798534 
1336.000000	1.801419 
1335.000000	1.804518 
1334.000000	1.807641 
1333.000000	1.810622 
1332.000000	1.813411 
1331.000000	1.815867 
1330.000000	1.817965 
1329.000000	1.819682 
1328.000000	1.821064 
1327.000000	1.822137 
1326.000000	1.822972 
1325.000000	1.823687 
1324.000000	1.824283 
1323.000000	1.824879 
1322.000000	1.825451 
1321.000000	1.826047 
1320.000000	1.826667 
1319.000000	1.827311 
1318.000000	1.827955 
1317.000000	1.828527 
1316.000000	1.829004 
1315.000000	1.829409 
1314.000000	1.829719 
1313.000000	1.829910 
1312.000000	1.830029 
1311.000000	1.830101 
1310.000000	1.830172 
1309.000000	1.830220 
1308.000000	1.830291 
1307.000000	1.830339 
1306.000000	1.830387 
1305.000000	1.830387 
1304.000000	1.830363 
1303.000000	1.830291 
1302.000000	1.830220 
1301.000000	1.830124 
1300.000000	1.830053 
1299.000000	1.830101 
1298.000000	1.830220 
1297.000000	1.830387 
1296.000000	1.830625 
1295.000000	1.830911 
1294.000000	1.831221 
1293.000000	1.831459 
1292.000000	1.831626 
1291.000000	1.831674 
1290.000000	1.831626 
1289.000000	1.831459 
1288.000000	1.831197 
1287.000000	1.830816 
1286.000000	1.830291 
1285.000000	1.829600 
1284.000000	1.828718 
1283.000000	1.827597 
1282.000000	1.826214 
1281.000000	1.824498 
1280.000000	1.822328 
1279.000000	1.819705 
1278.000000	1.816534 
1277.000000	1.812744 
1276.000000	1.808238 
1275.000000	1.802897 
1274.000000	1.796722 
1273.000000	1.789593 
1272.000000	1.781511 
1271.000000	1.772403 
1270.000000	1.762437 
1269.000000	1.751828 
1268.000000	1.740813 
1267.000000	1.729798 
1266.000000	1.719450 
1265.000000	1.710200 
1264.000000	1.702785 
1263.000000	1.697683 
1262.000000	1.695251 
1261.000000	1.695704 
1260.000000	1.699042 
1259.000000	1.704931 
1258.000000	1.712965 
1257.000000	1.722598 
1256.000000	1.733183 
1255.000000	1.744151 
1254.000000	1.754879 
1253.000000	1.765036 
1252.000000	1.774263 
1251.000000	1.782417 
1250.000000	1.789450 
1249.000000	1.795339 
1248.000000	1.800107 
1247.000000	1.803898 
1246.000000	1.806807 
1245.000000	1.808929 
1244.000000	1.810407 
1243.000000	1.811313 
1242.000000	1.811861 
1241.000000	1.812052 
1240.000000	1.812028 
1239.000000	1.811814 
1238.000000	1.811480 
1237.000000	1.811051 
1236.000000	1.810455 
1235.000000	1.809740 
1234.000000	1.808857 
1233.000000	1.807785 
1232.000000	1.806569 
1231.000000	1.805162 
1230.000000	1.803636 
1229.000000	1.801991 
1228.000000	1.800203 
1227.000000	1.798224 
1226.000000	1.796078 
1225.000000	1.793718 
1224.000000	1.791071 
1223.000000	1.788115 
1222.000000	1.784753 
1221.000000	1.781034 
1220.000000	1.776838 
1219.000000	1.772260 
1218.000000	1.767325 
1217.000000	1.762175 
1216.000000	1.756906 
1215.000000	1.751756 
1214.000000	1.746821 
1213.000000	1.742243 
1212.000000	1.738095 
1211.000000	1.734495 
1210.000000	1.731419 
1209.000000	1.728963 
1208.000000	1.727008 
1207.000000	1.725578 
1206.000000	1.724600 
1205.000000	1.724052 
1204.000000	1.723861 
1203.000000	1.723909 
1202.000000	1.724171 
1201.000000	1.724553 
1200.000000	1.724934 
1199.000000	1.725244 
1198.000000	1.725459 
1197.000000	1.725459 
1196.000000	1.725220 
1195.000000	1.724720 
1194.000000	1.723933 
1193.000000	1.722836 
1192.000000	1.721477 
1191.000000	1.719832 
1190.000000	1.717972 
1189.000000	1.715850 
1188.000000	1.713562 
1187.000000	1.711082 
1186.000000	1.708483 
1185.000000	1.705837 
1184.000000	1.703190 
1183.000000	1.700568 
1182.000000	1.698017 
1181.000000	1.695466 
1180.000000	1.692914 
1179.000000	1.690340 
1178.000000	1.687645 
1177.000000	1.684832 
1176.000000	1.681852 
1175.000000	1.678681 
1174.000000	1.675295 
1173.000000	1.671695 
1172.000000	1.667881 
1171.000000	1.663827 
1170.000000	1.659631 
1169.000000	1.655220 
1168.000000	1.650714 
1167.000000	1.646018 
1166.000000	1.641249 
1165.000000	1.636409 
1164.000000	1.631593 
1163.000000	1.626753 
1162.000000	1.621985 
1161.000000	1.617407 
1160.000000	1.613092 
1159.000000	1.609063 
1158.000000	1.605463 
1157.000000	1.602244 
1156.000000	1.599502 
1155.000000	1.597166 
1154.000000	1.595282 
1153.000000	1.593685 
1152.000000	1.592350 
1151.000000	1.591157 
1150.000000	1.590013 
1149.000000	1.588773 
1148.000000	1.587390 
1147.000000	1.585888 
1146.000000	1.584148 
1145.000000	1.582169 
1144.000000	1.580047 
1143.000000	1.577758 
1142.000000	1.575279 
1141.000000	1.572632 
1140.000000	1.569914 
1139.000000	1.566982 
1138.000000	1.563954 
1137.000000	1.560759 
1136.000000	1.557421 
1135.000000	1.553964 
1134.000000	1.550292 
1133.000000	1.546454 
1132.000000	1.542448 
1131.000000	1.538252 
1130.000000	1.533889 
1129.000000	1.529335 
1128.000000	1.524591 
1127.000000	1.519703 
1126.000000	1.514577 
1125.000000	1.509356 
1124.000000	1.504015 
1123.000000	1.498651 
1122.000000	1.493263 
1121.000000	1.487922 
1120.000000	1.482629 
1119.000000	1.477408 
1118.000000	1.472258 
1117.000000	1.467132 
1116.000000	1.462101 
1115.000000	1.457071 
1114.000000	1.452183 
1113.000000	1.447367 
1112.000000	1.442742 
1111.000000	1.438379 
1110.000000	1.434302 
1109.000000	1.430606 
1108.000000	1.427292 
1107.000000	1.424431 
1106.000000	1.421952 
1105.000000	1.419830 
1104.000000	1.418042 
1103.000000	1.416468 
1102.000000	1.415109 
1101.000000	1.413846 
1100.000000	1.412749 
1099.000000	1.411724 
1098.000000	1.410794 
1097.000000	1.409983 
1096.000000	1.409387 
1095.000000	1.408982 
1094.000000	1.408791 
1093.000000	1.408910 
1092.000000	1.409292 
1091.000000	1.409935 
1090.000000	1.410770 
1089.000000	1.411747 
1088.000000	1.412773 
1087.000000	1.413726 
1086.000000	1.414561 
1085.000000	1.415133 
1084.000000	1.415443 
1083.000000	1.415419 
1082.000000	1.415061 
1081.000000	1.414442 
1080.000000	1.413726 
1079.000000	1.412987 
1078.000000	1.412343 
1077.000000	1.411938 
1076.000000	1.411914 
1075.000000	1.412248 
1074.000000	1.413059 
1073.000000	1.414251 
1072.000000	1.415729 
1071.000000	1.417374 
1070.000000	1.418995 
1069.000000	1.420521 
1068.000000	1.421737 
1067.000000	1.422548 
1066.000000	1.422858 
1065.000000	1.422548 
1064.000000	1.421451 
1063.000000	1.419377 
1062.000000	1.416063 
1061.000000	1.411175 
1060.000000	1.404285 
1059.000000	1.395177 
1058.000000	1.383709 
1057.000000	1.370072 
1056.000000	1.354742 
1055.000000	1.338624 
1054.000000	1.322770 
1053.000000	1.308512 
1052.000000	1.297092 
1051.000000	1.289534 
1050.000000	1.286435 
1049.000000	1.287937 
1048.000000	1.293635 
1047.000000	1.302671 
1046.000000	1.313853 
1045.000000	1.325917 
1044.000000	1.337718 
1043.000000	1.348257 
1042.000000	1.356983 
1041.000000	1.363515 
1040.000000	1.367950 
1039.000000	1.370501 
1038.000000	1.371550 
1037.000000	1.371407 
1036.000000	1.370501 
1035.000000	1.369094 
1034.000000	1.367354 
1033.000000	1.365399 
1032.000000	1.363301 
1031.000000	1.361155 
1030.000000	1.358962 
1029.000000	1.356673 
1028.000000	1.354408 
1027.000000	1.352214 
1026.000000	1.350069 
1025.000000	1.348066 
1024.000000	1.346278 
1023.000000	1.344823 
1022.000000	1.343727 
1021.000000	1.343131 
1020.000000	1.343011 
1019.000000	1.343464 
1018.000000	1.344537 
1017.000000	1.346158 
1016.000000	1.348257 
1015.000000	1.350831 
1014.000000	1.353740 
1013.000000	1.356887 
1012.000000	1.360130 
1011.000000	1.363348 
1010.000000	1.366448 
1009.000000	1.369261 
1008.000000	1.371788 
1007.000000	1.373982 
1006.000000	1.375818 
1005.000000	1.377439 
1004.000000	1.378798 
1003.000000	1.379942 
1002.000000	1.380944 
1001.000000	1.381802 
1000.000000	1.382470 
999.000000	 1.382970 
998.000000	 1.383256 
997.000000	 1.383304 
996.000000	 1.383042 
995.000000	 1.382470 
994.000000	 1.381611 
993.000000	 1.380538 
992.000000	 1.379179 
991.000000	 1.377654 
990.000000	 1.375985 
989.000000	 1.374220 
988.000000	 1.372408 
987.000000	 1.370596 
986.000000	 1.368761 
985.000000	 1.366925 
984.000000	 1.365065 
983.000000	 1.363182 
982.000000	 1.361274 
981.000000	 1.359343 
980.000000	 1.357364 
979.000000	 1.355361 
978.000000	 1.353359 
977.000000	 1.351332 
976.000000	 1.349258 
975.000000	 1.347112 
974.000000	 1.344871 
973.000000	 1.342487 
972.000000	 1.339960 
971.000000	 1.337242 
970.000000	 1.334357 
969.000000	 1.331305 
968.000000	 1.328158 
967.000000	 1.324868 
966.000000	 1.321506 
965.000000	 1.318049 
964.000000	 1.314544 
963.000000	 1.310968 
962.000000	 1.307392 
961.000000	 1.303720 
960.000000	 1.300072 
959.000000	 1.296401 
958.000000	 1.292824 
957.000000	 1.289272 
956.000000	 1.285839 
955.000000	 1.282477 
954.000000	 1.279163 
953.000000	 1.275944 
952.000000	 1.272821 
951.000000	 1.269769 
950.000000	 1.266789 
949.000000	 1.263976 
948.000000	 1.261281 
947.000000	 1.258754 
946.000000	 1.256370 
945.000000	 1.254177 
944.000000	 1.252126 
943.000000	 1.250195 
942.000000	 1.248407 
941.000000	 1.246690 
940.000000	 1.245045 
939.000000	 1.243376 
938.000000	 1.241707 
937.000000	 1.239967 
936.000000	 1.238107 
935.000000	 1.236104 
934.000000	 1.234006 
933.000000	 1.231789 
932.000000	 1.229453 
931.000000	 1.227021 
930.000000	 1.224565 
929.000000	 1.222133 
928.000000	 1.219749 
927.000000	 1.217412 
926.000000	 1.215100 
925.000000	 1.212811 
924.000000	 1.210474 
923.000000	 1.208066 
922.000000	 1.205515 
921.000000	 1.202797 
920.000000	 1.199889 
919.000000	 1.196742 
918.000000	 1.193404 
917.000000	 1.189804 
916.000000	 1.185965 
915.000000	 1.181960 
914.000000	 1.177883 
913.000000	 1.173782 
912.000000	 1.169800 
911.000000	 1.165938 
910.000000	 1.162290 
909.000000	 1.158952 
908.000000	 1.155972 
907.000000	 1.153302 
906.000000	 1.150894 
905.000000	 1.148796 
904.000000	 1.146960 
903.000000	 1.145315 
902.000000	 1.143860 
901.000000	 1.142525 
900.000000	 1.141285 
899.000000	 1.140141 
898.000000	 1.138973 
897.000000	 1.137733 
896.000000	 1.136374 
895.000000	 1.134729 
894.000000	 1.132702 
893.000000	 1.130199 
892.000000	 1.127099 
891.000000	 1.123285 
890.000000	 1.118683 
889.000000	 1.113271 
888.000000	 1.107001 
887.000000	 1.099944 
886.000000	 1.092171 
885.000000	 1.083779 
884.000000	 1.074957 
883.000000	 1.065969 
882.000000	 1.057028 
881.000000	 1.048469 
880.000000	 1.040554 
879.000000	 1.033639 
878.000000	 1.027965 
877.000000	 1.023769 
876.000000	 1.021242 
875.000000	 1.020503 
874.000000	 1.021480 
873.000000	 1.024031 
872.000000	 1.028013 
871.000000	 1.033115 
870.000000	 1.039028 
869.000000	 1.045274 
868.000000	 1.051592 
867.000000	 1.057624 
866.000000	 1.063156 
865.000000	 1.067924 
864.000000	 1.071906 
863.000000	 1.075100 
862.000000	 1.077580 
861.000000	 1.079368 
860.000000	 1.080584 
859.000000	 1.081347 
858.000000	 1.081728 
857.000000	 1.081752 
856.000000	 1.081466 
855.000000	 1.080918 
854.000000	 1.080107 
853.000000	 1.079058 
852.000000	 1.077795 
851.000000	 1.076340 
850.000000	 1.074767 
849.000000	 1.073026 
848.000000	 1.071143 
847.000000	 1.069068 
846.000000	 1.066780 
845.000000	 1.064300 
844.000000	 1.061582 
843.000000	 1.058435 
842.000000	 1.054787 
841.000000	 1.050591 
840.000000	 1.045608 
839.000000	 1.039600 
838.000000	 1.032352 
837.000000	 1.023554 
836.000000	 1.012969 
835.000000	 1.000428 
834.000000	 0.985813 
833.000000	 0.969243 
832.000000	 0.951004 
831.000000	 0.931596 
830.000000	 0.911808 
829.000000	 0.892519 
828.000000	 0.874781 
827.000000	 0.859618 
826.000000	 0.847935 
825.000000	 0.840401 
824.000000	 0.837326 
823.000000	 0.838661 
822.000000	 0.843954 
821.000000	 0.852441 
820.000000	 0.863146 
819.000000	 0.875020 
818.000000	 0.887012 
817.000000	 0.898265 
816.000000	 0.908207 
815.000000	 0.916504 
814.000000	 0.922989 
813.000000	 0.927829 
812.000000	 0.931167 
811.000000	 0.933337 
810.000000	 0.934648 
809.000000	 0.935220 
808.000000	 0.935316 
807.000000	 0.935125 
806.000000	 0.934743 
805.000000	 0.934267 
804.000000	 0.933766 
803.000000	 0.933361 
802.000000	 0.933146 
801.000000	 0.933122 
800.000000	 0.933432 
799.000000	 0.934076 
798.000000	 0.935149 
797.000000	 0.936603 
796.000000	 0.938487 
795.000000	 0.940752 
794.000000	 0.943350 
793.000000	 0.946187 
792.000000	 0.949192 
791.000000	 0.952219 
790.000000	 0.955224 
789.000000	 0.958061 
788.000000	 0.960683 
787.000000	 0.962996 
786.000000	 0.964951 
785.000000	 0.966572 
784.000000	 0.967860 
783.000000	 0.968742 
782.000000	 0.969338 
781.000000	 0.969648 
780.000000	 0.969696 
779.000000	 0.969576 
778.000000	 0.969290 
777.000000	 0.968885 
776.000000	 0.968360 
775.000000	 0.967812 
774.000000	 0.967168 
773.000000	 0.966501 
772.000000	 0.965738 
771.000000	 0.964951 
770.000000	 0.964093 
769.000000	 0.963139 
768.000000	 0.962138 
767.000000	 0.961065 
766.000000	 0.959920 
765.000000	 0.958728 
764.000000	 0.957512 
763.000000	 0.956273 
762.000000	 0.955033 
761.000000	 0.953817 
760.000000	 0.952553 
759.000000	 0.951313 
758.000000	 0.950074 
757.000000	 0.948810 
756.000000	 0.947546 
755.000000	 0.946354 
754.000000	 0.945162 
753.000000	 0.943994 
752.000000	 0.942921 
751.000000	 0.941824 
750.000000	 0.940728 
749.000000	 0.939607 
748.000000	 0.938439 
747.000000	 0.937128 
746.000000	 0.935673 
745.000000	 0.934028 
744.000000	 0.932240 
743.000000	 0.930285 
742.000000	 0.928235 
741.000000	 0.926065 
740.000000	 0.923871 
739.000000	 0.921678 
738.000000	 0.919508 
737.000000	 0.917339 
736.000000	 0.915169 
735.000000	 0.913000 
734.000000	 0.910782 
733.000000	 0.908493 
732.000000	 0.906109 
731.000000	 0.903582 
730.000000	 0.900936 
729.000000	 0.898098 
728.000000	 0.895142 
727.000000	 0.892066 
726.000000	 0.888895 
725.000000	 0.885677 
724.000000	 0.882458 
723.000000	 0.879263 
722.000000	 0.876140 
721.000000	 0.873064 
720.000000	 0.870156 
719.000000	 0.867414 
718.000000	 0.864744 
717.000000	 0.862145 
716.000000	 0.859594 
715.000000	 0.856947 
714.000000	 0.854301 
713.000000	 0.851535 
712.000000	 0.848650 
711.000000	 0.845623 
710.000000	 0.842452 
709.000000	 0.839161 
708.000000	 0.835800 
707.000000	 0.832343 
706.000000	 0.828814 
705.000000	 0.825214 
704.000000	 0.821495 
703.000000	 0.817680 
702.000000	 0.813746 
701.000000	 0.809574 
700.000000	 0.805163 
699.000000	 0.800442 
698.000000	 0.795292 
697.000000	 0.789666 
696.000000	 0.783371 
695.000000	 0.776529 
694.000000	 0.769162 
693.000000	 0.761365 
692.000000	 0.753474 
691.000000	 0.745844 
690.000000	 0.738811 
689.000000	 0.732779 
688.000000	 0.728034 
687.000000	 0.724744 
686.000000	 0.722885 
685.000000	 0.722312 
684.000000	 0.722718 
683.000000	 0.723719 
682.000000	 0.724911 
681.000000	 0.725984 
680.000000	 0.726699 
679.000000	 0.726914 
678.000000	 0.726532 
677.000000	 0.725650 
676.000000	 0.724244 
675.000000	 0.722527 
674.000000	 0.720524 
673.000000	 0.718283 
672.000000	 0.715899 
671.000000	 0.713443 
670.000000	 0.710892 
669.000000	 0.708317 
668.000000	 0.705742 
667.000000	 0.703144 
666.000000	 0.700616 
665.000000	 0.698184 
664.000000	 0.695824 
663.000000	 0.693535 
662.000000	 0.691318 
661.000000	 0.689148 
660.000000	 0.687003 
659.000000	 0.684833 
658.000000	 0.682663 
657.000000	 0.680422 
656.000000	 0.678133 
655.000000	 0.675702 
654.000000	 0.673198 
653.000000	 0.670647 
652.000000	 0.668025 
651.000000	 0.665330 
650.000000	 0.662684 
649.000000	 0.660037 
648.000000	 0.657391 
647.000000	 0.654792 
646.000000	 0.652241 
645.000000	 0.649690 
644.000000	 0.647163 
643.000000	 0.644636 
642.000000	 0.642061 
641.000000	 0.639438 
640.000000	 0.636839 
639.000000	 0.634217 
638.000000	 0.631570 
637.000000	 0.628972 
636.000000	 0.626349 
635.000000	 0.623750 
634.000000	 0.621104 
633.000000	 0.618433 
632.000000	 0.615763 
631.000000	 0.613021 
630.000000	 0.610232 
629.000000	 0.607442 
628.000000	 0.604653 
627.000000	 0.601887 
626.000000	 0.599193 
625.000000	 0.596570 
624.000000	 0.593972 
623.000000	 0.591444 
622.000000	 0.588846 
621.000000	 0.586199 
620.000000	 0.583362 
619.000000	 0.580358 
618.000000	 0.577068 
617.000000	 0.573468 
616.000000	 0.569534 
615.000000	 0.565242 
614.000000	 0.560617 
613.000000	 0.555729 
612.000000	 0.550603 
611.000000	 0.545382 
610.000000	 0.540256 
609.000000	 0.535392 
608.000000	 0.530982 
607.000000	 0.527215 
606.000000	 0.524234 
605.000000	 0.522089 
604.000000	 0.520730 
603.000000	 0.520086 
602.000000	 0.519943 
601.000000	 0.520110 
600.000000	 0.520324 
599.000000	 0.520443 
598.000000	 0.520229 
597.000000	 0.519657 
596.000000	 0.518703 
595.000000	 0.517368 
594.000000	 0.515770 
593.000000	 0.514006 
592.000000	 0.512146 
591.000000	 0.510287 
590.000000	 0.508522 
589.000000	 0.506830 
588.000000	 0.505280 
587.000000	 0.503849 
586.000000	 0.502467 
585.000000	 0.501203 
584.000000	 0.500059 
583.000000	 0.498962 
582.000000	 0.498008 
581.000000	 0.497126 
580.000000	 0.496339 
579.000000	 0.495648 
578.000000	 0.495076 
577.000000	 0.494503 
576.000000	 0.493931 
575.000000	 0.493288 
574.000000	 0.492501 
573.000000	 0.491642 
572.000000	 0.490570 
571.000000	 0.489377 
570.000000	 0.488042 
569.000000	 0.486636 
568.000000	 0.485181 
567.000000	 0.483679 
566.000000	 0.482249 
565.000000	 0.480842 
564.000000	 0.479507 
563.000000	 0.478219 
562.000000	 0.476956 
561.000000	 0.475668 
560.000000	 0.474333 
559.000000	 0.472903 
558.000000	 0.471425 
557.000000	 0.469851 
556.000000	 0.468206 
555.000000	 0.466513 
554.000000	 0.464797 
553.000000	 0.463104 
552.000000	 0.461363 
551.000000	 0.459647 
550.000000	 0.457906 
549.000000	 0.456166 
548.000000	 0.454354 
547.000000	 0.452494 
546.000000	 0.450587 
545.000000	 0.448632 
544.000000	 0.446677 
543.000000	 0.444746 
542.000000	 0.442862 
541.000000	 0.441002 
540.000000	 0.439190 
539.000000	 0.437426 
538.000000	 0.435614 
537.000000	 0.433778 
536.000000	 0.431895 
535.000000	 0.429892 
534.000000	 0.427794 
533.000000	 0.425601 
532.000000	 0.423288 
531.000000	 0.420856 
530.000000	 0.418400 
529.000000	 0.415849 
528.000000	 0.413274 
527.000000	 0.410747 
526.000000	 0.408291 
525.000000	 0.405883 
524.000000	 0.403571 
523.000000	 0.401353 
522.000000	 0.399231 
521.000000	 0.397086 
520.000000	 0.394916 
519.000000	 0.392699 
518.000000	 0.390434 
517.000000	 0.388073 
516.000000	 0.385689 
515.000000	 0.383305 
514.000000	 0.380992 
513.000000	 0.378751 
512.000000	 0.376605 
511.000000	 0.374507 
510.000000	 0.372409 
509.000000	 0.370240 
508.000000	 0.367903 
507.000000	 0.365424 
506.000000	 0.362682 
505.000000	 0.359702 
504.000000	 0.356554 
503.000000	 0.353264 
502.000000	 0.349903 
501.000000	 0.346541 
500.000000	 0.343155 
499.000000	 0.339770 
498.000000	 0.336384 
497.000000	 0.332951 
496.000000	 0.329446 
495.000000	 0.325846 
494.000000	 0.322175 
493.000000	 0.318479 
492.000000	 0.314736 
491.000000	 0.311017 
490.000000	 0.307321 
489.000000	 0.303721 
488.000000	 0.300240 
487.000000	 0.296831 
486.000000	 0.293469 
485.000000	 0.290131 
484.000000	 0.286865 
483.000000	 0.283527 
482.000000	 0.280189 
481.000000	 0.276803 
480.000000	 0.273466 
479.000000	 0.270104 
478.000000	 0.266766 
477.000000	 0.263524 
476.000000	 0.260353 
475.000000	 0.257229 
474.000000	 0.254178 
473.000000	 0.251150 
472.000000	 0.248122 
471.000000	 0.245094 
470.000000	 0.241994 
469.000000	 0.238847 
468.000000	 0.235652 
467.000000	 0.232386 
466.000000	 0.229096 
465.000000	 0.225758 
464.000000	 0.222396 
463.000000	 0.219035 
462.000000	 0.215625 
461.000000	 0.212168 
460.000000	 0.208640 
459.000000	 0.205016 
458.000000	 0.201272 
457.000000	 0.197505 
456.000000	 0.193715 
455.000000	 0.189924 
454.000000	 0.186252 
453.000000	 0.182700 
452.000000	 0.179338 
451.000000	 0.176191 
450.000000	 0.173234 
449.000000	 0.170445 
448.000000	 0.167798 
447.000000	 0.165224 
446.000000	 0.162744 
445.000000	 0.160217 
444.000000	 0.157737 
443.000000	 0.155234 
442.000000	 0.152683 
441.000000	 0.150060 
440.000000	 0.147366 
439.000000	 0.144600 
438.000000	 0.141763 
437.000000	 0.138831 
436.000000	 0.135850 
435.000000	 0.132775 
434.000000	 0.129628 
433.000000	 0.126433 
432.000000	 0.123167 
431.000000	 0.119829 
430.000000	 0.116491 
429.000000	 0.113177 
428.000000	 0.109958 
427.000000	 0.106835 
426.000000	 0.103855 
425.000000	 0.100994 
424.000000	 0.098276 
423.000000	 0.095582 
422.000000	 0.092959 
421.000000	 0.090241 
420.000000	 0.087451 
419.000000	 0.084519 
418.000000	 0.081419 
417.000000	 0.078201 
416.000000	 0.074839 
415.000000	 0.071430 
414.000000	 0.067973 
413.000000	 0.064516 
412.000000	 0.061178 
411.000000	 0.057959 
410.000000	 0.054955 
409.000000	 0.052165 
408.000000	 0.049662 
407.000000	 0.047469 
406.000000	 0.045537 
405.000000	 0.043892 
404.000000	 0.042486 
403.000000	 0.041198 
402.000000	 0.040102 
401.000000	 0.039052 
400.000000	 0.038051 
399.000000	 0.037002 
398.000000	 0.035881 
397.000000	 0.034666 
396.000000	 0.033330 
395.000000	 0.031805 
394.000000	 0.030159 
393.000000	 0.028419 
392.000000	 0.026559 
391.000000	 0.024676 
390.000000	 0.022888 
389.000000	 0.021219 
388.000000	 0.019717 
387.000000	 0.018429 
386.000000	 0.017309 
385.000000	 0.016355 
384.000000	 0.015544 
383.000000	 0.014781 
382.000000	 0.014042 
381.000000	 0.013279 
380.000000	 0.012516 
379.000000	 0.011706 
378.000000	 0.010848 
377.000000	 0.009965 
376.000000	 0.009131 
375.000000	 0.008368 
374.000000	 0.007677 
373.000000	 0.007081 
372.000000	 0.006580 
371.000000	 0.006246 
370.000000	 0.005984 

