PE IR       SPECTRUM    SPECTRUM    ASCII       PEDS        1.60        
  -1
LP071C~1.ASC
17/05/19
18:01:49.00
17/05/19
18:01:49.00
tln
$LPE454_e0124$<ebV0>[-23.3,12.1,10.0,0.0,27,1,0]
370.000000
64









2002,4.07    
MIRTGS : RIGHTBACK : INTERNAL 2
MIR : ON : INTERNAL 2
OPTKBR

0.200000
8
8.000000
FILLER
SINGLE
SPECTRUM
UNLOCKED 256

DOUBLE

COMBINED
1
0
0


1.000000
BACKG


1
0
TRUE
51149
0
LEFT NOT FITTED RIGHT NOT FITTED 0
NONE
NONE
15600
12.000000
4.427000
51148
TRUE
1 0 8 72 0 0 0 0 

15798.010000






#HDR
-1
-1
#GR
CM-1
EGY
0.00002384185791015625
0.0
5000.000000
-1.000000
4631
8
2.427458
0.008296
#DATA
5000.000000	0.774312 
4999.000000	0.774574 
4998.000000	0.774860 
4997.000000	0.775146 
4996.000000	0.775504 
4995.000000	0.775885 
4994.000000	0.776267 
4993.000000	0.776576 
4992.000000	0.776839 
4991.000000	0.777053 
4990.000000	0.777149 
4989.000000	0.777196 
4988.000000	0.777220 
4987.000000	0.777292 
4986.000000	0.777435 
4985.000000	0.777649 
4984.000000	0.777983 
4983.000000	0.778388 
4982.000000	0.778889 
4981.000000	0.779414 
4980.000000	0.779938 
4979.000000	0.780415 
4978.000000	0.780773 
4977.000000	0.780963 
4976.000000	0.781059 
4975.000000	0.781011 
4974.000000	0.780820 
4973.000000	0.780582 
4972.000000	0.780320 
4971.000000	0.780129 
4970.000000	0.780081 
4969.000000	0.780200 
4968.000000	0.780510 
4967.000000	0.781083 
4966.000000	0.781846 
4965.000000	0.782775 
4964.000000	0.783896 
4963.000000	0.785088 
4962.000000	0.786304 
4961.000000	0.787544 
4960.000000	0.788736 
4959.000000	0.789833 
4958.000000	0.790834 
4957.000000	0.791645 
4956.000000	0.792264 
4955.000000	0.792741 
4954.000000	0.793051 
4953.000000	0.793218 
4952.000000	0.793290 
4951.000000	0.793313 
4950.000000	0.793290 
4949.000000	0.793242 
4948.000000	0.793242 
4947.000000	0.793290 
4946.000000	0.793433 
4945.000000	0.793695 
4944.000000	0.794148 
4943.000000	0.794649 
4942.000000	0.795292 
4941.000000	0.795936 
4940.000000	0.796580 
4939.000000	0.797080 
4938.000000	0.797438 
4937.000000	0.797605 
4936.000000	0.797629 
4935.000000	0.797557 
4934.000000	0.797462 
4933.000000	0.797486 
4932.000000	0.797629 
4931.000000	0.797939 
4930.000000	0.798416 
4929.000000	0.799059 
4928.000000	0.799775 
4927.000000	0.800514 
4926.000000	0.801229 
4925.000000	0.801897 
4924.000000	0.802469 
4923.000000	0.802922 
4922.000000	0.803279 
4921.000000	0.803589 
4920.000000	0.803852 
4919.000000	0.804114 
4918.000000	0.804328 
4917.000000	0.804567 
4916.000000	0.804805 
4915.000000	0.805020 
4914.000000	0.805234 
4913.000000	0.805449 
4912.000000	0.805616 
4911.000000	0.805783 
4910.000000	0.805974 
4909.000000	0.806164 
4908.000000	0.806403 
4907.000000	0.806689 
4906.000000	0.807070 
4905.000000	0.807547 
4904.000000	0.808095 
4903.000000	0.808739 
4902.000000	0.809431 
4901.000000	0.810146 
4900.000000	0.810885 
4899.000000	0.811600 
4898.000000	0.812292 
4897.000000	0.812959 
4896.000000	0.813531 
4895.000000	0.814080 
4894.000000	0.814580 
4893.000000	0.815010 
4892.000000	0.815367 
4891.000000	0.815677 
4890.000000	0.815939 
4889.000000	0.816106 
4888.000000	0.816202 
4887.000000	0.816226 
4886.000000	0.816226 
4885.000000	0.816202 
4884.000000	0.816202 
4883.000000	0.816345 
4882.000000	0.816583 
4881.000000	0.817012 
4880.000000	0.817656 
4879.000000	0.818538 
4878.000000	0.819587 
4877.000000	0.820684 
4876.000000	0.821805 
4875.000000	0.822830 
4874.000000	0.823688 
4873.000000	0.824403 
4872.000000	0.824832 
4871.000000	0.825119 
4870.000000	0.825262 
4869.000000	0.825309 
4868.000000	0.825357 
4867.000000	0.825428 
4866.000000	0.825548 
4865.000000	0.825834 
4864.000000	0.826239 
4863.000000	0.826787 
4862.000000	0.827479 
4861.000000	0.828313 
4860.000000	0.829195 
4859.000000	0.830078 
4858.000000	0.830936 
4857.000000	0.831723 
4856.000000	0.832366 
4855.000000	0.832867 
4854.000000	0.833272 
4853.000000	0.833582 
4852.000000	0.833916 
4851.000000	0.834250 
4850.000000	0.834655 
4849.000000	0.835132 
4848.000000	0.835704 
4847.000000	0.836348 
4846.000000	0.837111 
4845.000000	0.837874 
4844.000000	0.838685 
4843.000000	0.839447 
4842.000000	0.840187 
4841.000000	0.840926 
4840.000000	0.841617 
4839.000000	0.842332 
4838.000000	0.843119 
4837.000000	0.843977 
4836.000000	0.844931 
4835.000000	0.846028 
4834.000000	0.847244 
4833.000000	0.848531 
4832.000000	0.849795 
4831.000000	0.850915 
4830.000000	0.851869 
4829.000000	0.852608 
4828.000000	0.853157 
4827.000000	0.853538 
4826.000000	0.853800 
4825.000000	0.854063 
4824.000000	0.854372 
4823.000000	0.854778 
4822.000000	0.855302 
4821.000000	0.855946 
4820.000000	0.856614 
4819.000000	0.857305 
4818.000000	0.857949 
4817.000000	0.858545 
4816.000000	0.859069 
4815.000000	0.859570 
4814.000000	0.860071 
4813.000000	0.860571 
4812.000000	0.861144 
4811.000000	0.861740 
4810.000000	0.862455 
4809.000000	0.863170 
4808.000000	0.863885 
4807.000000	0.864577 
4806.000000	0.865221 
4805.000000	0.865745 
4804.000000	0.866222 
4803.000000	0.866603 
4802.000000	0.866961 
4801.000000	0.867366 
4800.000000	0.867819 
4799.000000	0.868415 
4798.000000	0.869083 
4797.000000	0.869894 
4796.000000	0.870776 
4795.000000	0.871706 
4794.000000	0.872588 
4793.000000	0.873422 
4792.000000	0.874137 
4791.000000	0.874710 
4790.000000	0.875210 
4789.000000	0.875639 
4788.000000	0.876045 
4787.000000	0.876402 
4786.000000	0.876784 
4785.000000	0.877213 
4784.000000	0.877690 
4783.000000	0.878214 
4782.000000	0.878834 
4781.000000	0.879526 
4780.000000	0.880336 
4779.000000	0.881218 
4778.000000	0.882172 
4777.000000	0.883150 
4776.000000	0.884103 
4775.000000	0.885009 
4774.000000	0.885796 
4773.000000	0.886487 
4772.000000	0.887060 
4771.000000	0.887560 
4770.000000	0.888037 
4769.000000	0.888490 
4768.000000	0.888919 
4767.000000	0.889325 
4766.000000	0.889730 
4765.000000	0.890088 
4764.000000	0.890421 
4763.000000	0.890707 
4762.000000	0.891017 
4761.000000	0.891327 
4760.000000	0.891709 
4759.000000	0.892138 
4758.000000	0.892615 
4757.000000	0.893092 
4756.000000	0.893521 
4755.000000	0.893878 
4754.000000	0.894117 
4753.000000	0.894260 
4752.000000	0.894355 
4751.000000	0.894474 
4750.000000	0.894618 
4749.000000	0.894832 
4748.000000	0.895166 
4747.000000	0.895571 
4746.000000	0.896000 
4745.000000	0.896430 
4744.000000	0.896787 
4743.000000	0.897073 
4742.000000	0.897288 
4741.000000	0.897407 
4740.000000	0.897502 
4739.000000	0.897622 
4738.000000	0.897741 
4737.000000	0.897884 
4736.000000	0.898146 
4735.000000	0.898456 
4734.000000	0.898790 
4733.000000	0.899243 
4732.000000	0.899720 
4731.000000	0.900197 
4730.000000	0.900650 
4729.000000	0.901079 
4728.000000	0.901460 
4727.000000	0.901770 
4726.000000	0.902032 
4725.000000	0.902295 
4724.000000	0.902557 
4723.000000	0.902891 
4722.000000	0.903248 
4721.000000	0.903677 
4720.000000	0.904083 
4719.000000	0.904393 
4718.000000	0.904607 
4717.000000	0.904679 
4716.000000	0.904607 
4715.000000	0.904369 
4714.000000	0.904035 
4713.000000	0.903701 
4712.000000	0.903367 
4711.000000	0.903153 
4710.000000	0.903058 
4709.000000	0.903081 
4708.000000	0.903201 
4707.000000	0.903415 
4706.000000	0.903654 
4705.000000	0.903964 
4704.000000	0.904273 
4703.000000	0.904631 
4702.000000	0.905013 
4701.000000	0.905418 
4700.000000	0.905823 
4699.000000	0.906205 
4698.000000	0.906467 
4697.000000	0.906634 
4696.000000	0.906682 
4695.000000	0.906610 
4694.000000	0.906395 
4693.000000	0.906109 
4692.000000	0.905847 
4691.000000	0.905609 
4690.000000	0.905513 
4689.000000	0.905585 
4688.000000	0.905847 
4687.000000	0.906276 
4686.000000	0.906872 
4685.000000	0.907564 
4684.000000	0.908327 
4683.000000	0.909113 
4682.000000	0.909876 
4681.000000	0.910568 
4680.000000	0.911140 
4679.000000	0.911569 
4678.000000	0.911784 
4677.000000	0.911760 
4676.000000	0.911498 
4675.000000	0.911045 
4674.000000	0.910425 
4673.000000	0.909733 
4672.000000	0.909042 
4671.000000	0.908493 
4670.000000	0.908160 
4669.000000	0.908064 
4668.000000	0.908255 
4667.000000	0.908637 
4666.000000	0.909185 
4665.000000	0.909757 
4664.000000	0.910258 
4663.000000	0.910639 
4662.000000	0.910782 
4661.000000	0.910735 
4660.000000	0.910520 
4659.000000	0.910115 
4658.000000	0.909686 
4657.000000	0.909256 
4656.000000	0.908923 
4655.000000	0.908708 
4654.000000	0.908613 
4653.000000	0.908660 
4652.000000	0.908851 
4651.000000	0.909185 
4650.000000	0.909638 
4649.000000	0.910210 
4648.000000	0.910902 
4647.000000	0.911664 
4646.000000	0.912499 
4645.000000	0.913310 
4644.000000	0.914049 
4643.000000	0.914645 
4642.000000	0.915050 
4641.000000	0.915288 
4640.000000	0.915360 
4639.000000	0.915336 
4638.000000	0.915312 
4637.000000	0.915336 
4636.000000	0.915503 
4635.000000	0.915765 
4634.000000	0.916194 
4633.000000	0.916695 
4632.000000	0.917267 
4631.000000	0.917840 
4630.000000	0.918412 
4629.000000	0.918936 
4628.000000	0.919389 
4627.000000	0.919795 
4626.000000	0.920128 
4625.000000	0.920462 
4624.000000	0.920772 
4623.000000	0.921106 
4622.000000	0.921487 
4621.000000	0.922012 
4620.000000	0.922632 
4619.000000	0.923395 
4618.000000	0.924324 
4617.000000	0.925302 
4616.000000	0.926327 
4615.000000	0.927257 
4614.000000	0.928020 
4613.000000	0.928544 
4612.000000	0.928735 
4611.000000	0.928592 
4610.000000	0.928235 
4609.000000	0.927758 
4608.000000	0.927281 
4607.000000	0.926923 
4606.000000	0.926804 
4605.000000	0.926947 
4604.000000	0.927329 
4603.000000	0.927925 
4602.000000	0.928616 
4601.000000	0.929307 
4600.000000	0.929951 
4599.000000	0.930452 
4598.000000	0.930833 
4597.000000	0.931119 
4596.000000	0.931358 
4595.000000	0.931620 
4594.000000	0.931954 
4593.000000	0.932383 
4592.000000	0.932908 
4591.000000	0.933527 
4590.000000	0.934171 
4589.000000	0.934815 
4588.000000	0.935435 
4587.000000	0.936055 
4586.000000	0.936675 
4585.000000	0.937318 
4584.000000	0.938081 
4583.000000	0.938963 
4582.000000	0.939989 
4581.000000	0.941205 
4580.000000	0.942611 
4579.000000	0.944113 
4578.000000	0.945687 
4577.000000	0.947308 
4576.000000	0.948929 
4575.000000	0.950527 
4574.000000	0.952005 
4573.000000	0.953316 
4572.000000	0.954461 
4571.000000	0.955367 
4570.000000	0.956010 
4569.000000	0.956463 
4568.000000	0.956821 
4567.000000	0.957083 
4566.000000	0.957465 
4565.000000	0.958108 
4564.000000	0.959062 
4563.000000	0.960421 
4562.000000	0.962090 
4561.000000	0.964021 
4560.000000	0.966095 
4559.000000	0.968194 
4558.000000	0.970196 
4557.000000	0.972151 
4556.000000	0.973963 
4555.000000	0.975608 
4554.000000	0.977063 
4553.000000	0.978302 
4552.000000	0.979208 
4551.000000	0.979757 
4550.000000	0.980019 
4549.000000	0.980043 
4548.000000	0.979924 
4547.000000	0.979685 
4546.000000	0.979471 
4545.000000	0.979399 
4544.000000	0.979423 
4543.000000	0.979495 
4542.000000	0.979638 
4541.000000	0.979828 
4540.000000	0.980210 
4539.000000	0.980830 
4538.000000	0.981807 
4537.000000	0.983166 
4536.000000	0.984740 
4535.000000	0.986266 
4534.000000	0.987505 
4533.000000	0.988054 
4532.000000	0.987911 
4531.000000	0.987029 
4530.000000	0.985622 
4529.000000	0.983738 
4528.000000	0.981354 
4527.000000	0.978112 
4526.000000	0.973606 
4525.000000	0.967383 
4524.000000	0.959515 
4523.000000	0.950670 
4522.000000	0.942254 
4521.000000	0.936436 
4520.000000	0.935578 
4519.000000	0.941777 
4518.000000	0.956082 
4517.000000	0.978088 
4516.000000	1.005625 
4515.000000	1.035141 
4514.000000	1.062297 
4513.000000	1.083111 
4512.000000	1.094555 
4511.000000	1.095557 
4510.000000	1.086926 
4509.000000	1.071119 
4508.000000	1.051640 
4507.000000	1.032042 
4506.000000	1.015210 
4505.000000	1.002883 
4504.000000	0.995492 
4503.000000	0.992369 
4502.000000	0.992202 
4501.000000	0.993537 
4500.000000	0.995111 
4499.000000	0.996184 
4498.000000	0.996518 
4497.000000	0.996232 
4496.000000	0.995588 
4495.000000	0.994777 
4494.000000	0.993824 
4493.000000	0.992751 
4492.000000	0.991535 
4491.000000	0.990319 
4490.000000	0.989246 
4489.000000	0.988602 
4488.000000	0.988554 
4487.000000	0.989246 
4486.000000	0.990581 
4485.000000	0.992465 
4484.000000	0.994563 
4483.000000	0.996565 
4482.000000	0.998210 
4481.000000	0.999450 
4480.000000	1.000165 
4479.000000	1.000452 
4478.000000	1.000475 
4477.000000	1.000404 
4476.000000	1.000428 
4475.000000	1.000666 
4474.000000	1.001024 
4473.000000	1.001405 
4472.000000	1.001691 
4471.000000	1.001834 
4470.000000	1.001811 
4469.000000	1.001596 
4468.000000	1.001310 
4467.000000	1.001191 
4466.000000	1.001381 
4465.000000	1.002073 
4464.000000	1.003313 
4463.000000	1.005172 
4462.000000	1.007413 
4461.000000	1.009845 
4460.000000	1.012182 
4459.000000	1.014113 
4458.000000	1.015448 
4457.000000	1.016139 
4456.000000	1.016187 
4455.000000	1.015686 
4454.000000	1.014852 
4453.000000	1.013898 
4452.000000	1.012945 
4451.000000	1.012134 
4450.000000	1.011514 
4449.000000	1.011133 
4448.000000	1.010966 
4447.000000	1.010942 
4446.000000	1.011013 
4445.000000	1.011133 
4444.000000	1.011157 
4443.000000	1.011013 
4442.000000	1.010751 
4441.000000	1.010274 
4440.000000	1.009559 
4439.000000	1.008749 
4438.000000	1.007962 
4437.000000	1.007318 
4436.000000	1.007008 
4435.000000	1.007080 
4434.000000	1.007628 
4433.000000	1.008605 
4432.000000	1.009964 
4431.000000	1.011538 
4430.000000	1.013207 
4429.000000	1.014804 
4428.000000	1.016235 
4427.000000	1.017403 
4426.000000	1.018261 
4425.000000	1.018881 
4424.000000	1.019215 
4423.000000	1.019382 
4422.000000	1.019430 
4421.000000	1.019406 
4420.000000	1.019382 
4419.000000	1.019358 
4418.000000	1.019430 
4417.000000	1.019501 
4416.000000	1.019644 
4415.000000	1.019763 
4414.000000	1.019906 
4413.000000	1.019930 
4412.000000	1.019835 
4411.000000	1.019668 
4410.000000	1.019358 
4409.000000	1.019001 
4408.000000	1.018619 
4407.000000	1.018214 
4406.000000	1.017904 
4405.000000	1.017665 
4404.000000	1.017570 
4403.000000	1.017665 
4402.000000	1.017904 
4401.000000	1.018309 
4400.000000	1.018857 
4399.000000	1.019477 
4398.000000	1.020121 
4397.000000	1.020812 
4396.000000	1.021480 
4395.000000	1.022076 
4394.000000	1.022624 
4393.000000	1.023101 
4392.000000	1.023554 
4391.000000	1.024007 
4390.000000	1.024484 
4389.000000	1.025032 
4388.000000	1.025652 
4387.000000	1.026391 
4386.000000	1.027202 
4385.000000	1.028084 
4384.000000	1.029086 
4383.000000	1.030087 
4382.000000	1.031136 
4381.000000	1.032137 
4380.000000	1.033067 
4379.000000	1.033926 
4378.000000	1.034688 
4377.000000	1.035380 
4376.000000	1.036024 
4375.000000	1.036643 
4374.000000	1.037335 
4373.000000	1.038074 
4372.000000	1.038861 
4371.000000	1.039719 
4370.000000	1.040625 
4369.000000	1.041507 
4368.000000	1.042389 
4367.000000	1.043176 
4366.000000	1.043868 
4365.000000	1.044487 
4364.000000	1.045060 
4363.000000	1.045632 
4362.000000	1.046204 
4361.000000	1.046800 
4360.000000	1.047420 
4359.000000	1.048111 
4358.000000	1.048827 
4357.000000	1.049566 
4356.000000	1.050329 
4355.000000	1.051139 
4354.000000	1.051974 
4353.000000	1.052856 
4352.000000	1.053810 
4351.000000	1.054787 
4350.000000	1.055788 
4349.000000	1.056861 
4348.000000	1.057958 
4347.000000	1.059007 
4346.000000	1.060056 
4345.000000	1.061105 
4344.000000	1.062154 
4343.000000	1.063179 
4342.000000	1.064133 
4341.000000	1.065063 
4340.000000	1.065921 
4339.000000	1.066732 
4338.000000	1.067471 
4337.000000	1.068162 
4336.000000	1.068854 
4335.000000	1.069617 
4334.000000	1.070451 
4333.000000	1.071429 
4332.000000	1.072549 
4331.000000	1.073765 
4330.000000	1.075148 
4329.000000	1.076555 
4328.000000	1.078009 
4327.000000	1.079416 
4326.000000	1.080751 
4325.000000	1.081991 
4324.000000	1.083135 
4323.000000	1.084232 
4322.000000	1.085329 
4321.000000	1.086449 
4320.000000	1.087594 
4319.000000	1.088857 
4318.000000	1.090264 
4317.000000	1.091790 
4316.000000	1.093411 
4315.000000	1.095128 
4314.000000	1.096844 
4313.000000	1.098561 
4312.000000	1.100206 
4311.000000	1.101779 
4310.000000	1.103281 
4309.000000	1.104712 
4308.000000	1.106047 
4307.000000	1.107382 
4306.000000	1.108646 
4305.000000	1.109886 
4304.000000	1.111054 
4303.000000	1.112174 
4302.000000	1.113224 
4301.000000	1.114130 
4300.000000	1.114988 
4299.000000	1.115822 
4298.000000	1.116657 
4297.000000	1.117539 
4296.000000	1.118516 
4295.000000	1.119589 
4294.000000	1.120781 
4293.000000	1.122069 
4292.000000	1.123380 
4291.000000	1.124691 
4290.000000	1.125955 
4289.000000	1.127099 
4288.000000	1.128196 
4287.000000	1.129198 
4286.000000	1.130151 
4285.000000	1.131081 
4284.000000	1.132011 
4283.000000	1.132893 
4282.000000	1.133775 
4281.000000	1.134705 
4280.000000	1.135706 
4279.000000	1.136779 
4278.000000	1.137971 
4277.000000	1.139307 
4276.000000	1.140785 
4275.000000	1.142358 
4274.000000	1.143980 
4273.000000	1.145553 
4272.000000	1.147007 
4271.000000	1.148247 
4270.000000	1.149225 
4269.000000	1.149964 
4268.000000	1.150488 
4267.000000	1.150798 
4266.000000	1.151084 
4265.000000	1.151347 
4264.000000	1.151704 
4263.000000	1.152205 
4262.000000	1.152920 
4261.000000	1.153826 
4260.000000	1.154923 
4259.000000	1.156091 
4258.000000	1.157355 
4257.000000	1.158571 
4256.000000	1.159691 
4255.000000	1.160717 
4254.000000	1.161575 
4253.000000	1.162290 
4252.000000	1.162958 
4251.000000	1.163601 
4250.000000	1.164293 
4249.000000	1.165103 
4248.000000	1.166057 
4247.000000	1.167178 
4246.000000	1.168346 
4245.000000	1.169538 
4244.000000	1.170682 
4243.000000	1.171708 
4242.000000	1.172637 
4241.000000	1.173377 
4240.000000	1.173996 
4239.000000	1.174521 
4238.000000	1.174998 
4237.000000	1.175403 
4236.000000	1.175832 
4235.000000	1.176238 
4234.000000	1.176643 
4233.000000	1.177072 
4232.000000	1.177525 
4231.000000	1.178026 
4230.000000	1.178574 
4229.000000	1.179075 
4228.000000	1.179647 
4227.000000	1.180267 
4226.000000	1.180887 
4225.000000	1.181507 
4224.000000	1.182174 
4223.000000	1.182866 
4222.000000	1.183629 
4221.000000	1.184463 
4220.000000	1.185345 
4219.000000	1.186275 
4218.000000	1.187276 
4217.000000	1.188254 
4216.000000	1.189208 
4215.000000	1.190090 
4214.000000	1.190876 
4213.000000	1.191544 
4212.000000	1.192069 
4211.000000	1.192545 
4210.000000	1.192903 
4209.000000	1.193213 
4208.000000	1.193499 
4207.000000	1.193761 
4206.000000	1.194000 
4205.000000	1.194214 
4204.000000	1.194429 
4203.000000	1.194620 
4202.000000	1.194787 
4201.000000	1.195001 
4200.000000	1.195240 
4199.000000	1.195526 
4198.000000	1.195788 
4197.000000	1.196026 
4196.000000	1.196265 
4195.000000	1.196360 
4194.000000	1.196408 
4193.000000	1.196455 
4192.000000	1.196503 
4191.000000	1.196670 
4190.000000	1.197028 
4189.000000	1.197528 
4188.000000	1.198244 
4187.000000	1.199078 
4186.000000	1.200008 
4185.000000	1.200962 
4184.000000	1.201891 
4183.000000	1.202797 
4182.000000	1.203727 
4181.000000	1.204681 
4180.000000	1.205706 
4179.000000	1.206851 
4178.000000	1.208090 
4177.000000	1.209330 
4176.000000	1.210498 
4175.000000	1.211476 
4174.000000	1.212167 
4173.000000	1.212596 
4172.000000	1.212692 
4171.000000	1.212525 
4170.000000	1.212310 
4169.000000	1.212120 
4168.000000	1.212120 
4167.000000	1.212358 
4166.000000	1.212954 
4165.000000	1.213836 
4164.000000	1.214981 
4163.000000	1.216220 
4162.000000	1.217508 
4161.000000	1.218652 
4160.000000	1.219558 
4159.000000	1.220130 
4158.000000	1.220273 
4157.000000	1.220059 
4156.000000	1.219582 
4155.000000	1.218914 
4154.000000	1.218223 
4153.000000	1.217627 
4152.000000	1.217269 
4151.000000	1.217269 
4150.000000	1.217603 
4149.000000	1.218271 
4148.000000	1.219248 
4147.000000	1.220393 
4146.000000	1.221680 
4145.000000	1.222968 
4144.000000	1.224207 
4143.000000	1.225423 
4142.000000	1.226568 
4141.000000	1.227641 
4140.000000	1.228666 
4139.000000	1.229667 
4138.000000	1.230621 
4137.000000	1.231503 
4136.000000	1.232290 
4135.000000	1.232981 
4134.000000	1.233553 
4133.000000	1.233983 
4132.000000	1.234340 
4131.000000	1.234650 
4130.000000	1.235008 
4129.000000	1.235365 
4128.000000	1.235890 
4127.000000	1.236510 
4126.000000	1.237249 
4125.000000	1.238131 
4124.000000	1.239109 
4123.000000	1.240158 
4122.000000	1.241302 
4121.000000	1.242470 
4120.000000	1.243662 
4119.000000	1.244878 
4118.000000	1.246118 
4117.000000	1.247334 
4116.000000	1.248502 
4115.000000	1.249647 
4114.000000	1.250767 
4113.000000	1.251792 
4112.000000	1.252770 
4111.000000	1.253628 
4110.000000	1.254367 
4109.000000	1.254963 
4108.000000	1.255488 
4107.000000	1.255941 
4106.000000	1.256418 
4105.000000	1.256942 
4104.000000	1.257610 
4103.000000	1.258468 
4102.000000	1.259589 
4101.000000	1.260876 
4100.000000	1.262402 
4099.000000	1.264023 
4098.000000	1.265740 
4097.000000	1.267457 
4096.000000	1.269102 
4095.000000	1.270699 
4094.000000	1.272201 
4093.000000	1.273608 
4092.000000	1.274895 
4091.000000	1.276087 
4090.000000	1.277232 
4089.000000	1.278257 
4088.000000	1.279163 
4087.000000	1.279973 
4086.000000	1.280736 
4085.000000	1.281476 
4084.000000	1.282310 
4083.000000	1.283192 
4082.000000	1.284337 
4081.000000	1.285600 
4080.000000	1.287055 
4079.000000	1.288700 
4078.000000	1.290440 
4077.000000	1.292300 
4076.000000	1.294183 
4075.000000	1.295995 
4074.000000	1.297807 
4073.000000	1.299500 
4072.000000	1.301074 
4071.000000	1.302552 
4070.000000	1.303911 
4069.000000	1.305174 
4068.000000	1.306366 
4067.000000	1.307439 
4066.000000	1.308441 
4065.000000	1.309370 
4064.000000	1.310276 
4063.000000	1.311182 
4062.000000	1.312065 
4061.000000	1.312971 
4060.000000	1.313924 
4059.000000	1.314926 
4058.000000	1.316070 
4057.000000	1.317262 
4056.000000	1.318550 
4055.000000	1.319909 
4054.000000	1.321291 
4053.000000	1.322722 
4052.000000	1.324057 
4051.000000	1.325321 
4050.000000	1.326465 
4049.000000	1.327514 
4048.000000	1.328539 
4047.000000	1.329493 
4046.000000	1.330494 
4045.000000	1.331615 
4044.000000	1.332855 
4043.000000	1.334261 
4042.000000	1.335787 
4041.000000	1.337480 
4040.000000	1.339268 
4039.000000	1.341080 
4038.000000	1.342892 
4037.000000	1.344704 
4036.000000	1.346468 
4035.000000	1.348161 
4034.000000	1.349806 
4033.000000	1.351380 
4032.000000	1.352834 
4031.000000	1.354193 
4030.000000	1.355433 
4029.000000	1.356625 
4028.000000	1.357698 
4027.000000	1.358699 
4026.000000	1.359605 
4025.000000	1.360487 
4024.000000	1.361298 
4023.000000	1.362109 
4022.000000	1.362895 
4021.000000	1.363611 
4020.000000	1.364326 
4019.000000	1.365065 
4018.000000	1.365852 
4017.000000	1.366710 
4016.000000	1.367712 
4015.000000	1.368832 
4014.000000	1.370096 
4013.000000	1.371479 
4012.000000	1.372933 
4011.000000	1.374435 
4010.000000	1.375889 
4009.000000	1.377272 
4008.000000	1.378536 
4007.000000	1.379752 
4006.000000	1.380825 
4005.000000	1.381897 
4004.000000	1.382923 
4003.000000	1.383972 
4002.000000	1.385021 
4001.000000	1.386022 
4000.000000	1.386976 
3999.000000	1.387834 
3998.000000	1.388525 
3997.000000	1.389098 
3996.000000	1.389479 
3995.000000	1.389789 
3994.000000	1.390075 
3993.000000	1.390361 
3992.000000	1.390743 
3991.000000	1.391243 
3990.000000	1.391959 
3989.000000	1.392793 
3988.000000	1.393771 
3987.000000	1.394796 
3986.000000	1.395845 
3985.000000	1.396846 
3984.000000	1.397705 
3983.000000	1.398420 
3982.000000	1.398944 
3981.000000	1.399326 
3980.000000	1.399540 
3979.000000	1.399660 
3978.000000	1.399803 
3977.000000	1.399922 
3976.000000	1.400089 
3975.000000	1.400446 
3974.000000	1.400899 
3973.000000	1.401472 
3972.000000	1.402187 
3971.000000	1.403021 
3970.000000	1.403927 
3969.000000	1.404833 
3968.000000	1.405739 
3967.000000	1.406574 
3966.000000	1.407289 
3965.000000	1.407861 
3964.000000	1.408290 
3963.000000	1.408624 
3962.000000	1.408886 
3961.000000	1.409077 
3960.000000	1.409292 
3959.000000	1.409578 
3958.000000	1.409912 
3957.000000	1.410317 
3956.000000	1.410746 
3955.000000	1.411223 
3954.000000	1.411724 
3953.000000	1.412200 
3952.000000	1.412653 
3951.000000	1.413059 
3950.000000	1.413393 
3949.000000	1.413679 
3948.000000	1.413917 
3947.000000	1.414108 
3946.000000	1.414275 
3945.000000	1.414465 
3944.000000	1.414608 
3943.000000	1.414775 
3942.000000	1.414990 
3941.000000	1.415205 
3940.000000	1.415443 
3939.000000	1.415705 
3938.000000	1.415967 
3937.000000	1.416230 
3936.000000	1.416492 
3935.000000	1.416754 
3934.000000	1.417040 
3933.000000	1.417374 
3932.000000	1.417708 
3931.000000	1.418089 
3930.000000	1.418495 
3929.000000	1.418900 
3928.000000	1.419305 
3927.000000	1.419687 
3926.000000	1.419973 
3925.000000	1.420187 
3924.000000	1.420354 
3923.000000	1.420450 
3922.000000	1.420521 
3921.000000	1.420640 
3920.000000	1.420760 
3919.000000	1.420998 
3918.000000	1.421332 
3917.000000	1.421809 
3916.000000	1.422381 
3915.000000	1.423072 
3914.000000	1.423764 
3913.000000	1.424360 
3912.000000	1.424765 
3911.000000	1.424956 
3910.000000	1.424789 
3909.000000	1.424264 
3908.000000	1.423430 
3907.000000	1.422333 
3906.000000	1.421141 
3905.000000	1.420021 
3904.000000	1.419067 
3903.000000	1.418495 
3902.000000	1.418352 
3901.000000	1.418685 
3900.000000	1.419425 
3899.000000	1.420450 
3898.000000	1.421666 
3897.000000	1.422953 
3896.000000	1.424098 
3895.000000	1.425099 
3894.000000	1.425838 
3893.000000	1.426362 
3892.000000	1.426649 
3891.000000	1.426839 
3890.000000	1.426935 
3889.000000	1.427054 
3888.000000	1.427221 
3887.000000	1.427459 
3886.000000	1.427888 
3885.000000	1.428437 
3884.000000	1.429152 
3883.000000	1.430034 
3882.000000	1.431059 
3881.000000	1.432204 
3880.000000	1.433420 
3879.000000	1.434612 
3878.000000	1.435732 
3877.000000	1.436734 
3876.000000	1.437497 
3875.000000	1.438045 
3874.000000	1.438450 
3873.000000	1.438641 
3872.000000	1.438784 
3871.000000	1.438951 
3870.000000	1.439237 
3869.000000	1.439714 
3868.000000	1.440429 
3867.000000	1.441407 
3866.000000	1.442551 
3865.000000	1.443719 
3864.000000	1.444768 
3863.000000	1.445508 
3862.000000	1.445770 
3861.000000	1.445436 
3860.000000	1.444506 
3859.000000	1.443076 
3858.000000	1.441311 
3857.000000	1.439619 
3856.000000	1.438307 
3855.000000	1.437687 
3854.000000	1.438045 
3853.000000	1.439571 
3852.000000	1.442146 
3851.000000	1.445531 
3850.000000	1.449418 
3849.000000	1.453351 
3848.000000	1.456880 
3847.000000	1.459717 
3846.000000	1.461648 
3845.000000	1.462650 
3844.000000	1.462841 
3843.000000	1.462459 
3842.000000	1.461791 
3841.000000	1.461148 
3840.000000	1.460814 
3839.000000	1.460933 
3838.000000	1.461648 
3837.000000	1.462984 
3836.000000	1.464891 
3835.000000	1.467204 
3834.000000	1.469779 
3833.000000	1.472401 
3832.000000	1.474928 
3831.000000	1.477193 
3830.000000	1.479101 
3829.000000	1.480603 
3828.000000	1.481723 
3827.000000	1.482486 
3826.000000	1.482963 
3825.000000	1.483178 
3824.000000	1.483249 
3823.000000	1.483249 
3822.000000	1.483273 
3821.000000	1.483368 
3820.000000	1.483702 
3819.000000	1.484298 
3818.000000	1.485276 
3817.000000	1.486587 
3816.000000	1.488256 
3815.000000	1.490187 
3814.000000	1.492261 
3813.000000	1.494264 
3812.000000	1.496028 
3811.000000	1.497435 
3810.000000	1.498317 
3809.000000	1.498770 
3808.000000	1.498818 
3807.000000	1.498556 
3806.000000	1.498293 
3805.000000	1.498198 
3804.000000	1.498484 
3803.000000	1.499247 
3802.000000	1.500582 
3801.000000	1.502466 
3800.000000	1.504850 
3799.000000	1.507544 
3798.000000	1.510477 
3797.000000	1.513481 
3796.000000	1.516437 
3795.000000	1.519298 
3794.000000	1.521921 
3793.000000	1.524329 
3792.000000	1.526498 
3791.000000	1.528382 
3790.000000	1.529955 
3789.000000	1.531243 
3788.000000	1.532244 
3787.000000	1.532983 
3786.000000	1.533508 
3785.000000	1.533889 
3784.000000	1.534199 
3783.000000	1.534509 
3782.000000	1.534914 
3781.000000	1.535463 
3780.000000	1.536130 
3779.000000	1.536941 
3778.000000	1.537847 
3777.000000	1.538777 
3776.000000	1.539683 
3775.000000	1.540517 
3774.000000	1.541256 
3773.000000	1.541924 
3772.000000	1.542544 
3771.000000	1.543140 
3770.000000	1.543760 
3769.000000	1.544427 
3768.000000	1.545143 
3767.000000	1.545929 
3766.000000	1.546740 
3765.000000	1.547551 
3764.000000	1.548314 
3763.000000	1.548981 
3762.000000	1.549434 
3761.000000	1.549649 
3760.000000	1.549553 
3759.000000	1.548981 
3758.000000	1.548004 
3757.000000	1.546573 
3756.000000	1.544761 
3755.000000	1.542711 
3754.000000	1.540541 
3753.000000	1.538491 
3752.000000	1.536679 
3751.000000	1.535224 
3750.000000	1.534271 
3749.000000	1.533913 
3748.000000	1.534152 
3747.000000	1.534938 
3746.000000	1.536250 
3745.000000	1.537966 
3744.000000	1.539921 
3743.000000	1.541924 
3742.000000	1.543760 
3741.000000	1.545310 
3740.000000	1.546549 
3739.000000	1.547408 
3738.000000	1.548004 
3737.000000	1.548457 
3736.000000	1.549053 
3735.000000	1.549816 
3734.000000	1.550912 
3733.000000	1.552271 
3732.000000	1.553869 
3731.000000	1.555538 
3730.000000	1.557135 
3729.000000	1.558589 
3728.000000	1.559805 
3727.000000	1.560807 
3726.000000	1.561617 
3725.000000	1.562333 
3724.000000	1.563000 
3723.000000	1.563596 
3722.000000	1.564145 
3721.000000	1.564598 
3720.000000	1.564860 
3719.000000	1.564884 
3718.000000	1.564693 
3717.000000	1.564288 
3716.000000	1.563763 
3715.000000	1.563286 
3714.000000	1.562905 
3713.000000	1.562762 
3712.000000	1.562952 
3711.000000	1.563453 
3710.000000	1.564216 
3709.000000	1.565194 
3708.000000	1.566290 
3707.000000	1.567387 
3706.000000	1.568436 
3705.000000	1.569414 
3704.000000	1.570296 
3703.000000	1.571059 
3702.000000	1.571750 
3701.000000	1.572322 
3700.000000	1.572751 
3699.000000	1.572918 
3698.000000	1.572751 
3697.000000	1.572155 
3696.000000	1.571083 
3695.000000	1.569581 
3694.000000	1.567745 
3693.000000	1.565766 
3692.000000	1.563930 
3691.000000	1.562476 
3690.000000	1.561617 
3689.000000	1.561450 
3688.000000	1.561999 
3687.000000	1.563096 
3686.000000	1.564455 
3685.000000	1.565742 
3684.000000	1.566672 
3683.000000	1.567006 
3682.000000	1.566576 
3681.000000	1.565384 
3680.000000	1.563596 
3679.000000	1.561403 
3678.000000	1.559138 
3677.000000	1.557111 
3676.000000	1.555514 
3675.000000	1.554560 
3674.000000	1.554298 
3673.000000	1.554727 
3672.000000	1.555776 
3671.000000	1.557326 
3670.000000	1.559209 
3669.000000	1.561307 
3668.000000	1.563429 
3667.000000	1.565480 
3666.000000	1.567292 
3665.000000	1.568818 
3664.000000	1.569962 
3663.000000	1.570677 
3662.000000	1.570987 
3661.000000	1.570892 
3660.000000	1.570367 
3659.000000	1.569533 
3658.000000	1.568365 
3657.000000	1.566910 
3656.000000	1.565241 
3655.000000	1.563382 
3654.000000	1.561546 
3653.000000	1.559853 
3652.000000	1.558446 
3651.000000	1.557540 
3650.000000	1.557230 
3649.000000	1.557612 
3648.000000	1.558566 
3647.000000	1.560091 
3646.000000	1.561951 
3645.000000	1.563954 
3644.000000	1.565885 
3643.000000	1.567649 
3642.000000	1.569104 
3641.000000	1.570272 
3640.000000	1.571083 
3639.000000	1.571583 
3638.000000	1.571774 
3637.000000	1.571607 
3636.000000	1.571178 
3635.000000	1.570487 
3634.000000	1.569557 
3633.000000	1.568508 
3632.000000	1.567554 
3631.000000	1.566815 
3630.000000	1.566457 
3629.000000	1.566553 
3628.000000	1.567125 
3627.000000	1.568055 
3626.000000	1.569223 
3625.000000	1.570463 
3624.000000	1.571536 
3623.000000	1.572346 
3622.000000	1.572799 
3621.000000	1.572895 
3620.000000	1.572704 
3619.000000	1.572346 
3618.000000	1.571893 
3617.000000	1.571512 
3616.000000	1.571273 
3615.000000	1.571226 
3614.000000	1.571345 
3613.000000	1.571726 
3612.000000	1.572346 
3611.000000	1.573228 
3610.000000	1.574325 
3609.000000	1.575613 
3608.000000	1.577019 
3607.000000	1.578474 
3606.000000	1.579928 
3605.000000	1.581287 
3604.000000	1.582527 
3603.000000	1.583528 
3602.000000	1.584362 
3601.000000	1.585030 
3600.000000	1.585555 
3599.000000	1.585936 
3598.000000	1.586222 
3597.000000	1.586365 
3596.000000	1.586341 
3595.000000	1.586174 
3594.000000	1.585817 
3593.000000	1.585268 
3592.000000	1.584696 
3591.000000	1.584172 
3590.000000	1.583838 
3589.000000	1.583790 
3588.000000	1.584124 
3587.000000	1.584887 
3586.000000	1.585984 
3585.000000	1.587343 
3584.000000	1.588869 
3583.000000	1.590347 
3582.000000	1.591706 
3581.000000	1.592850 
3580.000000	1.593780 
3579.000000	1.594519 
3578.000000	1.595067 
3577.000000	1.595520 
3576.000000	1.595950 
3575.000000	1.596331 
3574.000000	1.596713 
3573.000000	1.597118 
3572.000000	1.597476 
3571.000000	1.597857 
3570.000000	1.598262 
3569.000000	1.598715 
3568.000000	1.599264 
3567.000000	1.599907 
3566.000000	1.600694 
3565.000000	1.601576 
3564.000000	1.602602 
3563.000000	1.603651 
3562.000000	1.604747 
3561.000000	1.605796 
3560.000000	1.606798 
3559.000000	1.607704 
3558.000000	1.608467 
3557.000000	1.609134 
3556.000000	1.609635 
3555.000000	1.610040 
3554.000000	1.610302 
3553.000000	1.610469 
3552.000000	1.610517 
3551.000000	1.610493 
3550.000000	1.610469 
3549.000000	1.610493 
3548.000000	1.610517 
3547.000000	1.610612 
3546.000000	1.610684 
3545.000000	1.610827 
3544.000000	1.610946 
3543.000000	1.611018 
3542.000000	1.611065 
3541.000000	1.611042 
3540.000000	1.611042 
3539.000000	1.611065 
3538.000000	1.611113 
3537.000000	1.611208 
3536.000000	1.611328 
3535.000000	1.611471 
3534.000000	1.611518 
3533.000000	1.611542 
3532.000000	1.611471 
3531.000000	1.611375 
3530.000000	1.611280 
3529.000000	1.611232 
3528.000000	1.611304 
3527.000000	1.611518 
3526.000000	1.611924 
3525.000000	1.612496 
3524.000000	1.613187 
3523.000000	1.613926 
3522.000000	1.614665 
3521.000000	1.615428 
3520.000000	1.616144 
3519.000000	1.616764 
3518.000000	1.617360 
3517.000000	1.617908 
3516.000000	1.618409 
3515.000000	1.618838 
3514.000000	1.619219 
3513.000000	1.619482 
3512.000000	1.619601 
3511.000000	1.619577 
3510.000000	1.619386 
3509.000000	1.619052 
3508.000000	1.618599 
3507.000000	1.618075 
3506.000000	1.617407 
3505.000000	1.616740 
3504.000000	1.616048 
3503.000000	1.615357 
3502.000000	1.614737 
3501.000000	1.614141 
3500.000000	1.613616 
3499.000000	1.613116 
3498.000000	1.612710 
3497.000000	1.612353 
3496.000000	1.612067 
3495.000000	1.611828 
3494.000000	1.611614 
3493.000000	1.611423 
3492.000000	1.611208 
3491.000000	1.610994 
3490.000000	1.610708 
3489.000000	1.610302 
3488.000000	1.609826 
3487.000000	1.609277 
3486.000000	1.608681 
3485.000000	1.608061 
3484.000000	1.607441 
3483.000000	1.606774 
3482.000000	1.606106 
3481.000000	1.605415 
3480.000000	1.604700 
3479.000000	1.603984 
3478.000000	1.603269 
3477.000000	1.602530 
3476.000000	1.601839 
3475.000000	1.601219 
3474.000000	1.600670 
3473.000000	1.600193 
3472.000000	1.599788 
3471.000000	1.599407 
3470.000000	1.599001 
3469.000000	1.598548 
3468.000000	1.598024 
3467.000000	1.597476 
3466.000000	1.596856 
3465.000000	1.596236 
3464.000000	1.595640 
3463.000000	1.595115 
3462.000000	1.594710 
3461.000000	1.594376 
3460.000000	1.594161 
3459.000000	1.593995 
3458.000000	1.593899 
3457.000000	1.593780 
3456.000000	1.593542 
3455.000000	1.593184 
3454.000000	1.592731 
3453.000000	1.592063 
3452.000000	1.591253 
3451.000000	1.590275 
3450.000000	1.589155 
3449.000000	1.588010 
3448.000000	1.586771 
3447.000000	1.585578 
3446.000000	1.584458 
3445.000000	1.583433 
3444.000000	1.582503 
3443.000000	1.581716 
3442.000000	1.581025 
3441.000000	1.580452 
3440.000000	1.579904 
3439.000000	1.579403 
3438.000000	1.578903 
3437.000000	1.578426 
3436.000000	1.577925 
3435.000000	1.577472 
3434.000000	1.577043 
3433.000000	1.576638 
3432.000000	1.576232 
3431.000000	1.575899 
3430.000000	1.575589 
3429.000000	1.575326 
3428.000000	1.575112 
3427.000000	1.574921 
3426.000000	1.574802 
3425.000000	1.574802 
3424.000000	1.574921 
3423.000000	1.575160 
3422.000000	1.575565 
3421.000000	1.576113 
3420.000000	1.576733 
3419.000000	1.577377 
3418.000000	1.578021 
3417.000000	1.578640 
3416.000000	1.579141 
3415.000000	1.579546 
3414.000000	1.579809 
3413.000000	1.579952 
3412.000000	1.579999 
3411.000000	1.579999 
3410.000000	1.579976 
3409.000000	1.580023 
3408.000000	1.580119 
3407.000000	1.580405 
3406.000000	1.580977 
3405.000000	1.581716 
3404.000000	1.582694 
3403.000000	1.583886 
3402.000000	1.585149 
3401.000000	1.586437 
3400.000000	1.587629 
3399.000000	1.588726 
3398.000000	1.589584 
3397.000000	1.590275 
3396.000000	1.590800 
3395.000000	1.591253 
3394.000000	1.591682 
3393.000000	1.592183 
3392.000000	1.592779 
3391.000000	1.593470 
3390.000000	1.594281 
3389.000000	1.595091 
3388.000000	1.595878 
3387.000000	1.596689 
3386.000000	1.597452 
3385.000000	1.598143 
3384.000000	1.598787 
3383.000000	1.599383 
3382.000000	1.599979 
3381.000000	1.600599 
3380.000000	1.601266 
3379.000000	1.601982 
3378.000000	1.602792 
3377.000000	1.603746 
3376.000000	1.604843 
3375.000000	1.606035 
3374.000000	1.607322 
3373.000000	1.608705 
3372.000000	1.610088 
3371.000000	1.611471 
3370.000000	1.612782 
3369.000000	1.613998 
3368.000000	1.615142 
3367.000000	1.616191 
3366.000000	1.617193 
3365.000000	1.618170 
3364.000000	1.619124 
3363.000000	1.620149 
3362.000000	1.621174 
3361.000000	1.622223 
3360.000000	1.623368 
3359.000000	1.624584 
3358.000000	1.625919 
3357.000000	1.627373 
3356.000000	1.628971 
3355.000000	1.630640 
3354.000000	1.632380 
3353.000000	1.634144 
3352.000000	1.635837 
3351.000000	1.637434 
3350.000000	1.638865 
3349.000000	1.640200 
3348.000000	1.641440 
3347.000000	1.642584 
3346.000000	1.643681 
3345.000000	1.644802 
3344.000000	1.645970 
3343.000000	1.647162 
3342.000000	1.648473 
3341.000000	1.649808 
3340.000000	1.651215 
3339.000000	1.652693 
3338.000000	1.654243 
3337.000000	1.655888 
3336.000000	1.657605 
3335.000000	1.659417 
3334.000000	1.661300 
3333.000000	1.663160 
3332.000000	1.665019 
3331.000000	1.666808 
3330.000000	1.668524 
3329.000000	1.670098 
3328.000000	1.671552 
3327.000000	1.672935 
3326.000000	1.674246 
3325.000000	1.675486 
3324.000000	1.676726 
3323.000000	1.677966 
3322.000000	1.679229 
3321.000000	1.680517 
3320.000000	1.681828 
3319.000000	1.683235 
3318.000000	1.684665 
3317.000000	1.686096 
3316.000000	1.687574 
3315.000000	1.689028 
3314.000000	1.690506 
3313.000000	1.691937 
3312.000000	1.693367 
3311.000000	1.694774 
3310.000000	1.696181 
3309.000000	1.697659 
3308.000000	1.699113 
3307.000000	1.700639 
3306.000000	1.702189 
3305.000000	1.703763 
3304.000000	1.705360 
3303.000000	1.706981 
3302.000000	1.708531 
3301.000000	1.710033 
3300.000000	1.711463 
3299.000000	1.712799 
3298.000000	1.714015 
3297.000000	1.715183 
3296.000000	1.716279 
3295.000000	1.717352 
3294.000000	1.718306 
3293.000000	1.719284 
3292.000000	1.720261 
3291.000000	1.721262 
3290.000000	1.722311 
3289.000000	1.723408 
3288.000000	1.724553 
3287.000000	1.725792 
3286.000000	1.727104 
3285.000000	1.728510 
3284.000000	1.729941 
3283.000000	1.731395 
3282.000000	1.732873 
3281.000000	1.734304 
3280.000000	1.735687 
3279.000000	1.736998 
3278.000000	1.738286 
3277.000000	1.739501 
3276.000000	1.740646 
3275.000000	1.741695 
3274.000000	1.742672 
3273.000000	1.743531 
3272.000000	1.744294 
3271.000000	1.744961 
3270.000000	1.745533 
3269.000000	1.746058 
3268.000000	1.746511 
3267.000000	1.746964 
3266.000000	1.747465 
3265.000000	1.748013 
3264.000000	1.748681 
3263.000000	1.749467 
3262.000000	1.750349 
3261.000000	1.751351 
3260.000000	1.752424 
3259.000000	1.753568 
3258.000000	1.754736 
3257.000000	1.755905 
3256.000000	1.757049 
3255.000000	1.758170 
3254.000000	1.759266 
3253.000000	1.760315 
3252.000000	1.761317 
3251.000000	1.762294 
3250.000000	1.763272 
3249.000000	1.764202 
3248.000000	1.765131 
3247.000000	1.766037 
3246.000000	1.766848 
3245.000000	1.767635 
3244.000000	1.768302 
3243.000000	1.768875 
3242.000000	1.769351 
3241.000000	1.769757 
3240.000000	1.770067 
3239.000000	1.770305 
3238.000000	1.770496 
3237.000000	1.770687 
3236.000000	1.770901 
3235.000000	1.771116 
3234.000000	1.771378 
3233.000000	1.771736 
3232.000000	1.772189 
3231.000000	1.772689 
3230.000000	1.773262 
3229.000000	1.773858 
3228.000000	1.774477 
3227.000000	1.775074 
3226.000000	1.775622 
3225.000000	1.776051 
3224.000000	1.776337 
3223.000000	1.776528 
3222.000000	1.776623 
3221.000000	1.776576 
3220.000000	1.776432 
3219.000000	1.776242 
3218.000000	1.776003 
3217.000000	1.775717 
3216.000000	1.775407 
3215.000000	1.775074 
3214.000000	1.774787 
3213.000000	1.774549 
3212.000000	1.774334 
3211.000000	1.774239 
3210.000000	1.774215 
3209.000000	1.774287 
3208.000000	1.774430 
3207.000000	1.774668 
3206.000000	1.774978 
3205.000000	1.775312 
3204.000000	1.775670 
3203.000000	1.776099 
3202.000000	1.776552 
3201.000000	1.777005 
3200.000000	1.777553 
3199.000000	1.778101 
3198.000000	1.778745 
3197.000000	1.779413 
3196.000000	1.780009 
3195.000000	1.780557 
3194.000000	1.780962 
3193.000000	1.781201 
3192.000000	1.781272 
3191.000000	1.781153 
3190.000000	1.780986 
3189.000000	1.780772 
3188.000000	1.780557 
3187.000000	1.780462 
3186.000000	1.780462 
3185.000000	1.780629 
3184.000000	1.780915 
3183.000000	1.781296 
3182.000000	1.781868 
3181.000000	1.782488 
3180.000000	1.783204 
3179.000000	1.783943 
3178.000000	1.784610 
3177.000000	1.785230 
3176.000000	1.785731 
3175.000000	1.786065 
3174.000000	1.786208 
3173.000000	1.786231 
3172.000000	1.786136 
3171.000000	1.786041 
3170.000000	1.785945 
3169.000000	1.785969 
3168.000000	1.786088 
3167.000000	1.786351 
3166.000000	1.786756 
3165.000000	1.787209 
3164.000000	1.787734 
3163.000000	1.788330 
3162.000000	1.788973 
3161.000000	1.789593 
3160.000000	1.790285 
3159.000000	1.791000 
3158.000000	1.791739 
3157.000000	1.792478 
3156.000000	1.793217 
3155.000000	1.794004 
3154.000000	1.794815 
3153.000000	1.795601 
3152.000000	1.796364 
3151.000000	1.797151 
3150.000000	1.797938 
3149.000000	1.798725 
3148.000000	1.799488 
3147.000000	1.800179 
3146.000000	1.800847 
3145.000000	1.801514 
3144.000000	1.802134 
3143.000000	1.802778 
3142.000000	1.803469 
3141.000000	1.804161 
3140.000000	1.804971 
3139.000000	1.805806 
3138.000000	1.806664 
3137.000000	1.807522 
3136.000000	1.808285 
3135.000000	1.809000 
3134.000000	1.809740 
3133.000000	1.810455 
3132.000000	1.811242 
3131.000000	1.812100 
3130.000000	1.813077 
3129.000000	1.814246 
3128.000000	1.815509 
3127.000000	1.816892 
3126.000000	1.818370 
3125.000000	1.819920 
3124.000000	1.821517 
3123.000000	1.823163 
3122.000000	1.824879 
3121.000000	1.826667 
3120.000000	1.828503 
3119.000000	1.830410 
3118.000000	1.832270 
3117.000000	1.834082 
3116.000000	1.835751 
3115.000000	1.837229 
3114.000000	1.838517 
3113.000000	1.839613 
3112.000000	1.840662 
3111.000000	1.841664 
3110.000000	1.842737 
3109.000000	1.844048 
3108.000000	1.845574 
3107.000000	1.847362 
3106.000000	1.849365 
3105.000000	1.851534 
3104.000000	1.853752 
3103.000000	1.855921 
3102.000000	1.857948 
3101.000000	1.859784 
3100.000000	1.861405 
3099.000000	1.862907 
3098.000000	1.864290 
3097.000000	1.865649 
3096.000000	1.867055 
3095.000000	1.868581 
3094.000000	1.870250 
3093.000000	1.872110 
3092.000000	1.874160 
3091.000000	1.876330 
3090.000000	1.878666 
3089.000000	1.881027 
3088.000000	1.883387 
3087.000000	1.885747 
3086.000000	1.888012 
3085.000000	1.890230 
3084.000000	1.892232 
3083.000000	1.894164 
3082.000000	1.895976 
3081.000000	1.897716 
3080.000000	1.899409 
3079.000000	1.901030 
3078.000000	1.902675 
3077.000000	1.904320 
3076.000000	1.905941 
3075.000000	1.907515 
3074.000000	1.909017 
3073.000000	1.910400 
3072.000000	1.911616 
3071.000000	1.912713 
3070.000000	1.913666 
3069.000000	1.914525 
3068.000000	1.915407 
3067.000000	1.916265 
3066.000000	1.917219 
3065.000000	1.918339 
3064.000000	1.919579 
3063.000000	1.921010 
3062.000000	1.922678 
3061.000000	1.924490 
3060.000000	1.926422 
3059.000000	1.928424 
3058.000000	1.930475 
3057.000000	1.932525 
3056.000000	1.934504 
3055.000000	1.936459 
3054.000000	1.938343 
3053.000000	1.940107 
3052.000000	1.941776 
3051.000000	1.943302 
3050.000000	1.944684 
3049.000000	1.945972 
3048.000000	1.947116 
3047.000000	1.948213 
3046.000000	1.949238 
3045.000000	1.950263 
3044.000000	1.951336 
3043.000000	1.952481 
3042.000000	1.953721 
3041.000000	1.955032 
3040.000000	1.956415 
3039.000000	1.957798 
3038.000000	1.959061 
3037.000000	1.960182 
3036.000000	1.961040 
3035.000000	1.961636 
3034.000000	1.961898 
3033.000000	1.961874 
3032.000000	1.961517 
3031.000000	1.960897 
3030.000000	1.959967 
3029.000000	1.958775 
3028.000000	1.957321 
3027.000000	1.955628 
3026.000000	1.953697 
3025.000000	1.951622 
3024.000000	1.949548 
3023.000000	1.947569 
3022.000000	1.945877 
3021.000000	1.944661 
3020.000000	1.944088 
3019.000000	1.944279 
3018.000000	1.945328 
3017.000000	1.947259 
3016.000000	1.950073 
3015.000000	1.953673 
3014.000000	1.957869 
3013.000000	1.962542 
3012.000000	1.967477 
3011.000000	1.972556 
3010.000000	1.977539 
3009.000000	1.982355 
3008.000000	1.986861 
3007.000000	1.991009 
3006.000000	1.994776 
3005.000000	1.998114 
3004.000000	2.001047 
3003.000000	2.003622 
3002.000000	2.005839 
3001.000000	2.007770 
3000.000000	2.009320 
2999.000000	2.010703 
2998.000000	2.011775 
2997.000000	2.012658 
2996.000000	2.013301 
2995.000000	2.013778 
2994.000000	2.014088 
2993.000000	2.014231 
2992.000000	2.014255 
2991.000000	2.014112 
2990.000000	2.013850 
2989.000000	2.013397 
2988.000000	2.012825 
2987.000000	2.012109 
2986.000000	2.011179 
2985.000000	2.010059 
2984.000000	2.008748 
2983.000000	2.007269 
2982.000000	2.005577 
2981.000000	2.003645 
2980.000000	2.001476 
2979.000000	1.998949 
2978.000000	1.996016 
2977.000000	1.992630 
2976.000000	1.988720 
2975.000000	1.984238 
2974.000000	1.979231 
2973.000000	1.973748 
2972.000000	1.967883 
2971.000000	1.961731 
2970.000000	1.955485 
2969.000000	1.949357 
2968.000000	1.943421 
2967.000000	1.937842 
2966.000000	1.932692 
2965.000000	1.928091 
2964.000000	1.924061 
2963.000000	1.920580 
2962.000000	1.917672 
2961.000000	1.915359 
2960.000000	1.913547 
2959.000000	1.912188 
2958.000000	1.911187 
2957.000000	1.910495 
2956.000000	1.909947 
2955.000000	1.909446 
2954.000000	1.908779 
2953.000000	1.907920 
2952.000000	1.906657 
2951.000000	1.904916 
2950.000000	1.902556 
2949.000000	1.899480 
2948.000000	1.895666 
2947.000000	1.891088 
2946.000000	1.885604 
2945.000000	1.879310 
2944.000000	1.872229 
2943.000000	1.864504 
2942.000000	1.856112 
2941.000000	1.847267 
2940.000000	1.838207 
2939.000000	1.829051 
2938.000000	1.819920 
2937.000000	1.811075 
2936.000000	1.802539 
2935.000000	1.794409 
2934.000000	1.786684 
2933.000000	1.779437 
2932.000000	1.772713 
2931.000000	1.766633 
2930.000000	1.761245 
2929.000000	1.756811 
2928.000000	1.753473 
2927.000000	1.751542 
2926.000000	1.751208 
2925.000000	1.752781 
2924.000000	1.756310 
2923.000000	1.761817 
2922.000000	1.769304 
2921.000000	1.778578 
2920.000000	1.789331 
2919.000000	1.801180 
2918.000000	1.813721 
2917.000000	1.826500 
2916.000000	1.839160 
2915.000000	1.851296 
2914.000000	1.862716 
2913.000000	1.873230 
2912.000000	1.882743 
2911.000000	1.891207 
2910.000000	1.898789 
2909.000000	1.905512 
2908.000000	1.911544 
2907.000000	1.916933 
2906.000000	1.921820 
2905.000000	1.926255 
2904.000000	1.930403 
2903.000000	1.934266 
2902.000000	1.937866 
2901.000000	1.941323 
2900.000000	1.944637 
2899.000000	1.947879 
2898.000000	1.951074 
2897.000000	1.954245 
2896.000000	1.957464 
2895.000000	1.960682 
2894.000000	1.963829 
2893.000000	1.966929 
2892.000000	1.969909 
2891.000000	1.972723 
2890.000000	1.975297 
2889.000000	1.977634 
2888.000000	1.979756 
2887.000000	1.981663 
2886.000000	1.983356 
2885.000000	1.984906 
2884.000000	1.986241 
2883.000000	1.987433 
2882.000000	1.988315 
2881.000000	1.988840 
2880.000000	1.988959 
2879.000000	1.988554 
2878.000000	1.987504 
2877.000000	1.985740 
2876.000000	1.983189 
2875.000000	1.979804 
2874.000000	1.975584 
2873.000000	1.970481 
2872.000000	1.964449 
2871.000000	1.957511 
2870.000000	1.949787 
2869.000000	1.941394 
2868.000000	1.932525 
2867.000000	1.923513 
2866.000000	1.914715 
2865.000000	1.906609 
2864.000000	1.899552 
2863.000000	1.894044 
2862.000000	1.890349 
2861.000000	1.888728 
2860.000000	1.889204 
2859.000000	1.891827 
2858.000000	1.896381 
2857.000000	1.902699 
2856.000000	1.910448 
2855.000000	1.919293 
2854.000000	1.928949 
2853.000000	1.939129 
2852.000000	1.949572 
2851.000000	1.960062 
2850.000000	1.970458 
2849.000000	1.980566 
2848.000000	1.990294 
2847.000000	1.999521 
2846.000000	2.008199 
2845.000000	2.016258 
2844.000000	2.023816 
2843.000000	2.030825 
2842.000000	2.037382 
2841.000000	2.043461 
2840.000000	2.049255 
2839.000000	2.054762 
2838.000000	2.060008 
2837.000000	2.064943 
2836.000000	2.069616 
2835.000000	2.073979 
2834.000000	2.078008 
2833.000000	2.081775 
2832.000000	2.085280 
2831.000000	2.088594 
2830.000000	2.091717 
2829.000000	2.094793 
2828.000000	2.097797 
2827.000000	2.100777 
2826.000000	2.103710 
2825.000000	2.106618 
2824.000000	2.109408 
2823.000000	2.112150 
2822.000000	2.114796 
2821.000000	2.117371 
2820.000000	2.119922 
2819.000000	2.122449 
2818.000000	2.124977 
2817.000000	2.127480 
2816.000000	2.129936 
2815.000000	2.132368 
2814.000000	2.134728 
2813.000000	2.136993 
2812.000000	2.139139 
2811.000000	2.141165 
2810.000000	2.143120 
2809.000000	2.145004 
2808.000000	2.146792 
2807.000000	2.148604 
2806.000000	2.150416 
2805.000000	2.152228 
2804.000000	2.154040 
2803.000000	2.155876 
2802.000000	2.157664 
2801.000000	2.159452 
2800.000000	2.161192 
2799.000000	2.162957 
2798.000000	2.164697 
2797.000000	2.166509 
2796.000000	2.168393 
2795.000000	2.170372 
2794.000000	2.172446 
2793.000000	2.174520 
2792.000000	2.176618 
2791.000000	2.178692 
2790.000000	2.180671 
2789.000000	2.182531 
2788.000000	2.184295 
2787.000000	2.185964 
2786.000000	2.187585 
2785.000000	2.189183 
2784.000000	2.190804 
2783.000000	2.192449 
2782.000000	2.194190 
2781.000000	2.195930 
2780.000000	2.197742 
2779.000000	2.199578 
2778.000000	2.201437 
2777.000000	2.203321 
2776.000000	2.205133 
2775.000000	2.206969 
2774.000000	2.208733 
2773.000000	2.210474 
2772.000000	2.212119 
2771.000000	2.213692 
2770.000000	2.215218 
2769.000000	2.216672 
2768.000000	2.218055 
2767.000000	2.219367 
2766.000000	2.220654 
2765.000000	2.221870 
2764.000000	2.223014 
2763.000000	2.224111 
2762.000000	2.225112 
2761.000000	2.226042 
2760.000000	2.226877 
2759.000000	2.227663 
2758.000000	2.228379 
2757.000000	2.229070 
2756.000000	2.229714 
2755.000000	2.230381 
2754.000000	2.231001 
2753.000000	2.231669 
2752.000000	2.232313 
2751.000000	2.232933 
2750.000000	2.233600 
2749.000000	2.234268 
2748.000000	2.235007 
2747.000000	2.235722 
2746.000000	2.236509 
2745.000000	2.237319 
2744.000000	2.238130 
2743.000000	2.238941 
2742.000000	2.239680 
2741.000000	2.240324 
2740.000000	2.240824 
2739.000000	2.241086 
2738.000000	2.241110 
2737.000000	2.240943 
2736.000000	2.240586 
2735.000000	2.240037 
2734.000000	2.239418 
2733.000000	2.238774 
2732.000000	2.238154 
2731.000000	2.237796 
2730.000000	2.237582 
2729.000000	2.237534 
2728.000000	2.237677 
2727.000000	2.237987 
2726.000000	2.238297 
2725.000000	2.238607 
2724.000000	2.238750 
2723.000000	2.238726 
2722.000000	2.238464 
2721.000000	2.237987 
2720.000000	2.237391 
2719.000000	2.236676 
2718.000000	2.236008 
2717.000000	2.235436 
2716.000000	2.234983 
2715.000000	2.234649 
2714.000000	2.234411 
2713.000000	2.234196 
2712.000000	2.233982 
2711.000000	2.233695 
2710.000000	2.233314 
2709.000000	2.232837 
2708.000000	2.232217 
2707.000000	2.231550 
2706.000000	2.230834 
2705.000000	2.230143 
2704.000000	2.229523 
2703.000000	2.228975 
2702.000000	2.228522 
2701.000000	2.228093 
2700.000000	2.227735 
2699.000000	2.227425 
2698.000000	2.227091 
2697.000000	2.226781 
2696.000000	2.226424 
2695.000000	2.226090 
2694.000000	2.225708 
2693.000000	2.225351 
2692.000000	2.224993 
2691.000000	2.224612 
2690.000000	2.224254 
2689.000000	2.223873 
2688.000000	2.223420 
2687.000000	2.222967 
2686.000000	2.222466 
2685.000000	2.221941 
2684.000000	2.221369 
2683.000000	2.220797 
2682.000000	2.220177 
2681.000000	2.219486 
2680.000000	2.218747 
2679.000000	2.217960 
2678.000000	2.217102 
2677.000000	2.216148 
2676.000000	2.215170 
2675.000000	2.214145 
2674.000000	2.213191 
2673.000000	2.212262 
2672.000000	2.211427 
2671.000000	2.210712 
2670.000000	2.210068 
2669.000000	2.209544 
2668.000000	2.209115 
2667.000000	2.208709 
2666.000000	2.208328 
2665.000000	2.208018 
2664.000000	2.207708 
2663.000000	2.207350 
2662.000000	2.207016 
2661.000000	2.206611 
2660.000000	2.206134 
2659.000000	2.205562 
2658.000000	2.204895 
2657.000000	2.204084 
2656.000000	2.203154 
2655.000000	2.202177 
2654.000000	2.201151 
2653.000000	2.200174 
2652.000000	2.199268 
2651.000000	2.198600 
2650.000000	2.198123 
2649.000000	2.197909 
2648.000000	2.197909 
2647.000000	2.198028 
2646.000000	2.198266 
2645.000000	2.198529 
2644.000000	2.198648 
2643.000000	2.198696 
2642.000000	2.198529 
2641.000000	2.198243 
2640.000000	2.197837 
2639.000000	2.197384 
2638.000000	2.196884 
2637.000000	2.196431 
2636.000000	2.196025 
2635.000000	2.195739 
2634.000000	2.195620 
2633.000000	2.195620 
2632.000000	2.195739 
2631.000000	2.196002 
2630.000000	2.196383 
2629.000000	2.196884 
2628.000000	2.197432 
2627.000000	2.197957 
2626.000000	2.198481 
2625.000000	2.198934 
2624.000000	2.199268 
2623.000000	2.199459 
2622.000000	2.199578 
2621.000000	2.199625 
2620.000000	2.199697 
2619.000000	2.199769 
2618.000000	2.199959 
2617.000000	2.200245 
2616.000000	2.200627 
2615.000000	2.201128 
2614.000000	2.201652 
2613.000000	2.202105 
2612.000000	2.202510 
2611.000000	2.202844 
2610.000000	2.203106 
2609.000000	2.203297 
2608.000000	2.203464 
2607.000000	2.203631 
2606.000000	2.203845 
2605.000000	2.204132 
2604.000000	2.204418 
2603.000000	2.204728 
2602.000000	2.205038 
2601.000000	2.205300 
2600.000000	2.205538 
2599.000000	2.205753 
2598.000000	2.205967 
2597.000000	2.206206 
2596.000000	2.206492 
2595.000000	2.206826 
2594.000000	2.207255 
2593.000000	2.207827 
2592.000000	2.208542 
2591.000000	2.209401 
2590.000000	2.210402 
2589.000000	2.211546 
2588.000000	2.212786 
2587.000000	2.214169 
2586.000000	2.215623 
2585.000000	2.217197 
2584.000000	2.218818 
2583.000000	2.220511 
2582.000000	2.222228 
2581.000000	2.223920 
2580.000000	2.225637 
2579.000000	2.227330 
2578.000000	2.229046 
2577.000000	2.230715 
2576.000000	2.232384 
2575.000000	2.234005 
2574.000000	2.235603 
2573.000000	2.237153 
2572.000000	2.238631 
2571.000000	2.240037 
2570.000000	2.241349 
2569.000000	2.242541 
2568.000000	2.243685 
2567.000000	2.244734 
2566.000000	2.245759 
2565.000000	2.246809 
2564.000000	2.247905 
2563.000000	2.249050 
2562.000000	2.250218 
2561.000000	2.251458 
2560.000000	2.252721 
2559.000000	2.253961 
2558.000000	2.255201 
2557.000000	2.256393 
2556.000000	2.257513 
2555.000000	2.258634 
2554.000000	2.259659 
2553.000000	2.260684 
2552.000000	2.261757 
2551.000000	2.262830 
2550.000000	2.263998 
2549.000000	2.265262 
2548.000000	2.266573 
2547.000000	2.267956 
2546.000000	2.269387 
2545.000000	2.270817 
2544.000000	2.272176 
2543.000000	2.273464 
2542.000000	2.274608 
2541.000000	2.275609 
2540.000000	2.276492 
2539.000000	2.277255 
2538.000000	2.277994 
2537.000000	2.278685 
2536.000000	2.279472 
2535.000000	2.280282 
2534.000000	2.281236 
2533.000000	2.282285 
2532.000000	2.283477 
2531.000000	2.284765 
2530.000000	2.286124 
2529.000000	2.287530 
2528.000000	2.288961 
2527.000000	2.290296 
2526.000000	2.291560 
2525.000000	2.292704 
2524.000000	2.293705 
2523.000000	2.294564 
2522.000000	2.295279 
2521.000000	2.295875 
2520.000000	2.296376 
2519.000000	2.296757 
2518.000000	2.297139 
2517.000000	2.297496 
2516.000000	2.297925 
2515.000000	2.298402 
2514.000000	2.298974 
2513.000000	2.299714 
2512.000000	2.300548 
2511.000000	2.301454 
2510.000000	2.302384 
2509.000000	2.303314 
2508.000000	2.304148 
2507.000000	2.304887 
2506.000000	2.305436 
2505.000000	2.305793 
2504.000000	2.305912 
2503.000000	2.305817 
2502.000000	2.305555 
2501.000000	2.305150 
2500.000000	2.304673 
2499.000000	2.304148 
2498.000000	2.303743 
2497.000000	2.303433 
2496.000000	2.303314 
2495.000000	2.303409 
2494.000000	2.303647 
2493.000000	2.304005 
2492.000000	2.304434 
2491.000000	2.304863 
2490.000000	2.305245 
2489.000000	2.305531 
2488.000000	2.305698 
2487.000000	2.305722 
2486.000000	2.305579 
2485.000000	2.305293 
2484.000000	2.304863 
2483.000000	2.304315 
2482.000000	2.303719 
2481.000000	2.303051 
2480.000000	2.302312 
2479.000000	2.301573 
2478.000000	2.300882 
2477.000000	2.300167 
2476.000000	2.299451 
2475.000000	2.298688 
2474.000000	2.297925 
2473.000000	2.297067 
2472.000000	2.296113 
2471.000000	2.295064 
2470.000000	2.293968 
2469.000000	2.292847 
2468.000000	2.291727 
2467.000000	2.290678 
2466.000000	2.289724 
2465.000000	2.288889 
2464.000000	2.288198 
2463.000000	2.287578 
2462.000000	2.286982 
2461.000000	2.286410 
2460.000000	2.285838 
2459.000000	2.285194 
2458.000000	2.284526 
2457.000000	2.283835 
2456.000000	2.283167 
2455.000000	2.282500 
2454.000000	2.281856 
2453.000000	2.281212 
2452.000000	2.280569 
2451.000000	2.279782 
2450.000000	2.278923 
2449.000000	2.277922 
2448.000000	2.276802 
2447.000000	2.275586 
2446.000000	2.274250 
2445.000000	2.272891 
2444.000000	2.271628 
2443.000000	2.270483 
2442.000000	2.269554 
2441.000000	2.268838 
2440.000000	2.268385 
2439.000000	2.268147 
2438.000000	2.268004 
2437.000000	2.267837 
2436.000000	2.267551 
2435.000000	2.267003 
2434.000000	2.266144 
2433.000000	2.264881 
2432.000000	2.263259 
2431.000000	2.261376 
2430.000000	2.259278 
2429.000000	2.257156 
2428.000000	2.255177 
2427.000000	2.253365 
2426.000000	2.251815 
2425.000000	2.250528 
2424.000000	2.249455 
2423.000000	2.248644 
2422.000000	2.248001 
2421.000000	2.247405 
2420.000000	2.246832 
2419.000000	2.246260 
2418.000000	2.245616 
2417.000000	2.244901 
2416.000000	2.244067 
2415.000000	2.243113 
2414.000000	2.242088 
2413.000000	2.241015 
2412.000000	2.239966 
2411.000000	2.239036 
2410.000000	2.238225 
2409.000000	2.237582 
2408.000000	2.237081 
2407.000000	2.236700 
2406.000000	2.236342 
2405.000000	2.235960 
2404.000000	2.235507 
2403.000000	2.234959 
2402.000000	2.234292 
2401.000000	2.233529 
2400.000000	2.232718 
2399.000000	2.231907 
2398.000000	2.231144 
2397.000000	2.230429 
2396.000000	2.229809 
2395.000000	2.229285 
2394.000000	2.228808 
2393.000000	2.228307 
2392.000000	2.227830 
2391.000000	2.227258 
2390.000000	2.226662 
2389.000000	2.226090 
2388.000000	2.225494 
2387.000000	2.224993 
2386.000000	2.224588 
2385.000000	2.224230 
2384.000000	2.223992 
2383.000000	2.223825 
2382.000000	2.223610 
2381.000000	2.223372 
2380.000000	2.223062 
2379.000000	2.222633 
2378.000000	2.222013 
2377.000000	2.221226 
2376.000000	2.220201 
2375.000000	2.218985 
2374.000000	2.217674 
2373.000000	2.216243 
2372.000000	2.214789 
2371.000000	2.213382 
2370.000000	2.212119 
2369.000000	2.211022 
2368.000000	2.210140 
2367.000000	2.209496 
2366.000000	2.209115 
2365.000000	2.208971 
2364.000000	2.209067 
2363.000000	2.209424 
2362.000000	2.210021 
2361.000000	2.210903 
2360.000000	2.212071 
2359.000000	2.213549 
2358.000000	2.215313 
2357.000000	2.217340 
2356.000000	2.219557 
2355.000000	2.221941 
2354.000000	2.224349 
2353.000000	2.226734 
2352.000000	2.228975 
2351.000000	2.231001 
2350.000000	2.232766 
2349.000000	2.234244 
2348.000000	2.235436 
2347.000000	2.236366 
2346.000000	2.237105 
2345.000000	2.237725 
2344.000000	2.238273 
2343.000000	2.238798 
2342.000000	2.239370 
2341.000000	2.239990 
2340.000000	2.240705 
2339.000000	2.241516 
2338.000000	2.242398 
2337.000000	2.243351 
2336.000000	2.244377 
2335.000000	2.245497 
2334.000000	2.246713 
2333.000000	2.248072 
2332.000000	2.249574 
2331.000000	2.251267 
2330.000000	2.253055 
2329.000000	2.255010 
2328.000000	2.257084 
2327.000000	2.259230 
2326.000000	2.261424 
2325.000000	2.263665 
2324.000000	2.265882 
2323.000000	2.268052 
2322.000000	2.270197 
2321.000000	2.272319 
2320.000000	2.274370 
2319.000000	2.276396 
2318.000000	2.278351 
2317.000000	2.280306 
2316.000000	2.282214 
2315.000000	2.284193 
2314.000000	2.286148 
2313.000000	2.288126 
2312.000000	2.290177 
2311.000000	2.292227 
2310.000000	2.294278 
2309.000000	2.296376 
2308.000000	2.298450 
2307.000000	2.300524 
2306.000000	2.302598 
2305.000000	2.304673 
2304.000000	2.306675 
2303.000000	2.308654 
2302.000000	2.310562 
2301.000000	2.312397 
2300.000000	2.314114 
2299.000000	2.315711 
2298.000000	2.317190 
2297.000000	2.318549 
2296.000000	2.319836 
2295.000000	2.321100 
2294.000000	2.322363 
2293.000000	2.323627 
2292.000000	2.324938 
2291.000000	2.326273 
2290.000000	2.327656 
2289.000000	2.329015 
2288.000000	2.330350 
2287.000000	2.331566 
2286.000000	2.332687 
2285.000000	2.333712 
2284.000000	2.334547 
2283.000000	2.335286 
2282.000000	2.335906 
2281.000000	2.336525 
2280.000000	2.337169 
2279.000000	2.337861 
2278.000000	2.338671 
2277.000000	2.339577 
2276.000000	2.340579 
2275.000000	2.341604 
2274.000000	2.342581 
2273.000000	2.343463 
2272.000000	2.344202 
2271.000000	2.344727 
2270.000000	2.345108 
2269.000000	2.345347 
2268.000000	2.345514 
2267.000000	2.345705 
2266.000000	2.345919 
2265.000000	2.346253 
2264.000000	2.346754 
2263.000000	2.347373 
2262.000000	2.348089 
2261.000000	2.348852 
2260.000000	2.349615 
2259.000000	2.350354 
2258.000000	2.351045 
2257.000000	2.351689 
2256.000000	2.352213 
2255.000000	2.352690 
2254.000000	2.353119 
2253.000000	2.353501 
2252.000000	2.353835 
2251.000000	2.354121 
2250.000000	2.354359 
2249.000000	2.354574 
2248.000000	2.354741 
2247.000000	2.354836 
2246.000000	2.354907 
2245.000000	2.354931 
2244.000000	2.354955 
2243.000000	2.354931 
2242.000000	2.354884 
2241.000000	2.354836 
2240.000000	2.354788 
2239.000000	2.354669 
2238.000000	2.354550 
2237.000000	2.354335 
2236.000000	2.354073 
2235.000000	2.353739 
2234.000000	2.353334 
2233.000000	2.352857 
2232.000000	2.352333 
2231.000000	2.351737 
2230.000000	2.351093 
2229.000000	2.350425 
2228.000000	2.349710 
2227.000000	2.348995 
2226.000000	2.348327 
2225.000000	2.347683 
2224.000000	2.347064 
2223.000000	2.346563 
2222.000000	2.346086 
2221.000000	2.345681 
2220.000000	2.345323 
2219.000000	2.345085 
2218.000000	2.344870 
2217.000000	2.344703 
2216.000000	2.344584 
2215.000000	2.344441 
2214.000000	2.344322 
2213.000000	2.344107 
2212.000000	2.343797 
2211.000000	2.343368 
2210.000000	2.342748 
2209.000000	2.341938 
2208.000000	2.340984 
2207.000000	2.339839 
2206.000000	2.338600 
2205.000000	2.337265 
2204.000000	2.335882 
2203.000000	2.334523 
2202.000000	2.333259 
2201.000000	2.332043 
2200.000000	2.330946 
2199.000000	2.329945 
2198.000000	2.329087 
2197.000000	2.328348 
2196.000000	2.327728 
2195.000000	2.327203 
2194.000000	2.326750 
2193.000000	2.326321 
2192.000000	2.325868 
2191.000000	2.325296 
2190.000000	2.324581 
2189.000000	2.323698 
2188.000000	2.322721 
2187.000000	2.321624 
2186.000000	2.320504 
2185.000000	2.319407 
2184.000000	2.318453 
2183.000000	2.317595 
2182.000000	2.316904 
2181.000000	2.316379 
2180.000000	2.315974 
2179.000000	2.315616 
2178.000000	2.315330 
2177.000000	2.314996 
2176.000000	2.314615 
2175.000000	2.314186 
2174.000000	2.313661 
2173.000000	2.313089 
2172.000000	2.312374 
2171.000000	2.311587 
2170.000000	2.310729 
2169.000000	2.309799 
2168.000000	2.308869 
2167.000000	2.307939 
2166.000000	2.307081 
2165.000000	2.306389 
2164.000000	2.305936 
2163.000000	2.305626 
2162.000000	2.305459 
2161.000000	2.305436 
2160.000000	2.305436 
2159.000000	2.305436 
2158.000000	2.305412 
2157.000000	2.305316 
2156.000000	2.305197 
2155.000000	2.305006 
2154.000000	2.304840 
2153.000000	2.304697 
2152.000000	2.304601 
2151.000000	2.304601 
2150.000000	2.304673 
2149.000000	2.304863 
2148.000000	2.305102 
2147.000000	2.305459 
2146.000000	2.305817 
2145.000000	2.306175 
2144.000000	2.306461 
2143.000000	2.306675 
2142.000000	2.306795 
2141.000000	2.306771 
2140.000000	2.306675 
2139.000000	2.306509 
2138.000000	2.306365 
2137.000000	2.306246 
2136.000000	2.306127 
2135.000000	2.306103 
2134.000000	2.306079 
2133.000000	2.306103 
2132.000000	2.306103 
2131.000000	2.306103 
2130.000000	2.306079 
2129.000000	2.305984 
2128.000000	2.305912 
2127.000000	2.305841 
2126.000000	2.305841 
2125.000000	2.305817 
2124.000000	2.305817 
2123.000000	2.305841 
2122.000000	2.305841 
2121.000000	2.305793 
2120.000000	2.305674 
2119.000000	2.305555 
2118.000000	2.305412 
2117.000000	2.305293 
2116.000000	2.305221 
2115.000000	2.305173 
2114.000000	2.305221 
2113.000000	2.305388 
2112.000000	2.305626 
2111.000000	2.305912 
2110.000000	2.306270 
2109.000000	2.306652 
2108.000000	2.307033 
2107.000000	2.307391 
2106.000000	2.307724 
2105.000000	2.308011 
2104.000000	2.308201 
2103.000000	2.308344 
2102.000000	2.308392 
2101.000000	2.308416 
2100.000000	2.308368 
2099.000000	2.308273 
2098.000000	2.308106 
2097.000000	2.307868 
2096.000000	2.307605 
2095.000000	2.307295 
2094.000000	2.306985 
2093.000000	2.306771 
2092.000000	2.306675 
2091.000000	2.306699 
2090.000000	2.306962 
2089.000000	2.307367 
2088.000000	2.307987 
2087.000000	2.308773 
2086.000000	2.309656 
2085.000000	2.310585 
2084.000000	2.311539 
2083.000000	2.312445 
2082.000000	2.313327 
2081.000000	2.314233 
2080.000000	2.315163 
2079.000000	2.316141 
2078.000000	2.317261 
2077.000000	2.318572 
2076.000000	2.320051 
2075.000000	2.321672 
2074.000000	2.323412 
2073.000000	2.325272 
2072.000000	2.327132 
2071.000000	2.328968 
2070.000000	2.330732 
2069.000000	2.332425 
2068.000000	2.334046 
2067.000000	2.335691 
2066.000000	2.337431 
2065.000000	2.339267 
2064.000000	2.341246 
2063.000000	2.343463 
2062.000000	2.345871 
2061.000000	2.348446 
2060.000000	2.351164 
2059.000000	2.353906 
2058.000000	2.356648 
2057.000000	2.359271 
2056.000000	2.361774 
2055.000000	2.363967 
2054.000000	2.365875 
2053.000000	2.367520 
2052.000000	2.368927 
2051.000000	2.370190 
2050.000000	2.371358 
2049.000000	2.372622 
2048.000000	2.374029 
2047.000000	2.375650 
2046.000000	2.377510 
2045.000000	2.379608 
2044.000000	2.381873 
2043.000000	2.384209 
2042.000000	2.386569 
2041.000000	2.388858 
2040.000000	2.391028 
2039.000000	2.393031 
2038.000000	2.394866 
2037.000000	2.396464 
2036.000000	2.397894 
2035.000000	2.399158 
2034.000000	2.400255 
2033.000000	2.401208 
2032.000000	2.402043 
2031.000000	2.402830 
2030.000000	2.403616 
2029.000000	2.404403 
2028.000000	2.405238 
2027.000000	2.406167 
2026.000000	2.407121 
2025.000000	2.408146 
2024.000000	2.409219 
2023.000000	2.410244 
2022.000000	2.411270 
2021.000000	2.412271 
2020.000000	2.413272 
2019.000000	2.414226 
2018.000000	2.415227 
2017.000000	2.416300 
2016.000000	2.417421 
2015.000000	2.418541 
2014.000000	2.419662 
2013.000000	2.420759 
2012.000000	2.421784 
2011.000000	2.422714 
2010.000000	2.423501 
2009.000000	2.424144 
2008.000000	2.424716 
2007.000000	2.425146 
2006.000000	2.425527 
2005.000000	2.425909 
2004.000000	2.426242 
2003.000000	2.426576 
2002.000000	2.426910 
2001.000000	2.427148 
2000.000000	2.427387 
1999.000000	2.427458 
1998.000000	2.427458 
1997.000000	2.427339 
1996.000000	2.427101 
1995.000000	2.426767 
1994.000000	2.426362 
1993.000000	2.425932 
1992.000000	2.425479 
1991.000000	2.425003 
1990.000000	2.424478 
1989.000000	2.423882 
1988.000000	2.423214 
1987.000000	2.422475 
1986.000000	2.421641 
1985.000000	2.420711 
1984.000000	2.419757 
1983.000000	2.418780 
1982.000000	2.417755 
1981.000000	2.416849 
1980.000000	2.415966 
1979.000000	2.415156 
1978.000000	2.414393 
1977.000000	2.413606 
1976.000000	2.412819 
1975.000000	2.411961 
1974.000000	2.411055 
1973.000000	2.410125 
1972.000000	2.409172 
1971.000000	2.408218 
1970.000000	2.407312 
1969.000000	2.406430 
1968.000000	2.405595 
1967.000000	2.404832 
1966.000000	2.404093 
1965.000000	2.403354 
1964.000000	2.402615 
1963.000000	2.401852 
1962.000000	2.401065 
1961.000000	2.400255 
1960.000000	2.399444 
1959.000000	2.398633 
1958.000000	2.397894 
1957.000000	2.397227 
1956.000000	2.396583 
1955.000000	2.395987 
1954.000000	2.395415 
1953.000000	2.394819 
1952.000000	2.394223 
1951.000000	2.393531 
1950.000000	2.392697 
1949.000000	2.391791 
1948.000000	2.390718 
1947.000000	2.389574 
1946.000000	2.388358 
1945.000000	2.387166 
1944.000000	2.386021 
1943.000000	2.384972 
1942.000000	2.384066 
1941.000000	2.383351 
1940.000000	2.382755 
1939.000000	2.382278 
1938.000000	2.381801 
1937.000000	2.381324 
1936.000000	2.380752 
1935.000000	2.380037 
1934.000000	2.379155 
1933.000000	2.378082 
1932.000000	2.376842 
1931.000000	2.375435 
1930.000000	2.373933 
1929.000000	2.372360 
1928.000000	2.370738 
1927.000000	2.369165 
1926.000000	2.367568 
1925.000000	2.366089 
1924.000000	2.364683 
1923.000000	2.363300 
1922.000000	2.362036 
1921.000000	2.360844 
1920.000000	2.359700 
1919.000000	2.358675 
1918.000000	2.357721 
1917.000000	2.356886 
1916.000000	2.356100 
1915.000000	2.355360 
1914.000000	2.354621 
1913.000000	2.353858 
1912.000000	2.353072 
1911.000000	2.352213 
1910.000000	2.351284 
1909.000000	2.350258 
1908.000000	2.349233 
1907.000000	2.348184 
1906.000000	2.347183 
1905.000000	2.346205 
1904.000000	2.345299 
1903.000000	2.344441 
1902.000000	2.343630 
1901.000000	2.342844 
1900.000000	2.342081 
1899.000000	2.341365 
1898.000000	2.340674 
1897.000000	2.340054 
1896.000000	2.339458 
1895.000000	2.338886 
1894.000000	2.338457 
1893.000000	2.338099 
1892.000000	2.337837 
1891.000000	2.337694 
1890.000000	2.337670 
1889.000000	2.337741 
1888.000000	2.337956 
1887.000000	2.338218 
1886.000000	2.338600 
1885.000000	2.339029 
1884.000000	2.339482 
1883.000000	2.340006 
1882.000000	2.340459 
1881.000000	2.340936 
1880.000000	2.341341 
1879.000000	2.341675 
1878.000000	2.341890 
1877.000000	2.341985 
1876.000000	2.341914 
1875.000000	2.341723 
1874.000000	2.341461 
1873.000000	2.341175 
1872.000000	2.341008 
1871.000000	2.340960 
1870.000000	2.341175 
1869.000000	2.341651 
1868.000000	2.342414 
1867.000000	2.343487 
1866.000000	2.344751 
1865.000000	2.346110 
1864.000000	2.347493 
1863.000000	2.348804 
1862.000000	2.349996 
1861.000000	2.351045 
1860.000000	2.351975 
1859.000000	2.352738 
1858.000000	2.353453 
1857.000000	2.354216 
1856.000000	2.354955 
1855.000000	2.355694 
1854.000000	2.356433 
1853.000000	2.357077 
1852.000000	2.357625 
1851.000000	2.357959 
1850.000000	2.358078 
1849.000000	2.358007 
1848.000000	2.357769 
1847.000000	2.357482 
1846.000000	2.357316 
1845.000000	2.357316 
1844.000000	2.357697 
1843.000000	2.358460 
1842.000000	2.359628 
1841.000000	2.361083 
1840.000000	2.362656 
1839.000000	2.364277 
1838.000000	2.365779 
1837.000000	2.367067 
1836.000000	2.368044 
1835.000000	2.368760 
1834.000000	2.369284 
1833.000000	2.369689 
1832.000000	2.370166 
1831.000000	2.370738 
1830.000000	2.371525 
1829.000000	2.372527 
1828.000000	2.373790 
1827.000000	2.375268 
1826.000000	2.376890 
1825.000000	2.378606 
1824.000000	2.380371 
1823.000000	2.382087 
1822.000000	2.383708 
1821.000000	2.385187 
1820.000000	2.386474 
1819.000000	2.387595 
1818.000000	2.388572 
1817.000000	2.389335 
1816.000000	2.390050 
1815.000000	2.390718 
1814.000000	2.391386 
1813.000000	2.392101 
1812.000000	2.392864 
1811.000000	2.393651 
1810.000000	2.394390 
1809.000000	2.395081 
1808.000000	2.395653 
1807.000000	2.396130 
1806.000000	2.396416 
1805.000000	2.396607 
1804.000000	2.396678 
1803.000000	2.396655 
1802.000000	2.396535 
1801.000000	2.396297 
1800.000000	2.395892 
1799.000000	2.395296 
1798.000000	2.394533 
1797.000000	2.393627 
1796.000000	2.392697 
1795.000000	2.391862 
1794.000000	2.391242 
1793.000000	2.390909 
1792.000000	2.390980 
1791.000000	2.391386 
1790.000000	2.392029 
1789.000000	2.392792 
1788.000000	2.393531 
1787.000000	2.394199 
1786.000000	2.394628 
1785.000000	2.394866 
1784.000000	2.394914 
1783.000000	2.394723 
1782.000000	2.394342 
1781.000000	2.393746 
1780.000000	2.392792 
1779.000000	2.391529 
1778.000000	2.389812 
1777.000000	2.387762 
1776.000000	2.385497 
1775.000000	2.383160 
1774.000000	2.380990 
1773.000000	2.379179 
1772.000000	2.377939 
1771.000000	2.377295 
1770.000000	2.377200 
1769.000000	2.377581 
1768.000000	2.378225 
1767.000000	2.378869 
1766.000000	2.379345 
1765.000000	2.379536 
1764.000000	2.379345 
1763.000000	2.378773 
1762.000000	2.377748 
1761.000000	2.376413 
1760.000000	2.374672 
1759.000000	2.372550 
1758.000000	2.370023 
1757.000000	2.367091 
1756.000000	2.363824 
1755.000000	2.360367 
1754.000000	2.356791 
1753.000000	2.353310 
1752.000000	2.349996 
1751.000000	2.346944 
1750.000000	2.344202 
1749.000000	2.341699 
1748.000000	2.339315 
1747.000000	2.336907 
1746.000000	2.334332 
1745.000000	2.331471 
1744.000000	2.328205 
1743.000000	2.324461 
1742.000000	2.320265 
1741.000000	2.315688 
1740.000000	2.310800 
1739.000000	2.305793 
1738.000000	2.300906 
1737.000000	2.296471 
1736.000000	2.292728 
1735.000000	2.289938 
1734.000000	2.288246 
1733.000000	2.287650 
1732.000000	2.288103 
1731.000000	2.289271 
1730.000000	2.290844 
1729.000000	2.292442 
1728.000000	2.293634 
1727.000000	2.294111 
1726.000000	2.293610 
1725.000000	2.292108 
1724.000000	2.289557 
1723.000000	2.286171 
1722.000000	2.282190 
1721.000000	2.277994 
1720.000000	2.273917 
1719.000000	2.270340 
1718.000000	2.267527 
1717.000000	2.265644 
1716.000000	2.264666 
1715.000000	2.264523 
1714.000000	2.264881 
1713.000000	2.265381 
1712.000000	2.265691 
1711.000000	2.265477 
1710.000000	2.264475 
1709.000000	2.262544 
1708.000000	2.259659 
1707.000000	2.255892 
1706.000000	2.251338 
1705.000000	2.246189 
1704.000000	2.240657 
1703.000000	2.235031 
1702.000000	2.229619 
1701.000000	2.224683 
1700.000000	2.220654 
1699.000000	2.217698 
1698.000000	2.216100 
1697.000000	2.215838 
1696.000000	2.216720 
1695.000000	2.218389 
1694.000000	2.220368 
1693.000000	2.222061 
1692.000000	2.222967 
1691.000000	2.222704 
1690.000000	2.221179 
1689.000000	2.218484 
1688.000000	2.215003 
1687.000000	2.211213 
1686.000000	2.207660 
1685.000000	2.204847 
1684.000000	2.202987 
1683.000000	2.202153 
1682.000000	2.202177 
1681.000000	2.202630 
1680.000000	2.203154 
1679.000000	2.203369 
1678.000000	2.202963 
1677.000000	2.201890 
1676.000000	2.200198 
1675.000000	2.198147 
1674.000000	2.195906 
1673.000000	2.193737 
1672.000000	2.191805 
1671.000000	2.190113 
1670.000000	2.188682 
1669.000000	2.187442 
1668.000000	2.186274 
1667.000000	2.185153 
1666.000000	2.183938 
1665.000000	2.182579 
1664.000000	2.180886 
1663.000000	2.178716 
1662.000000	2.175855 
1661.000000	2.172136 
1660.000000	2.167367 
1659.000000	2.161574 
1658.000000	2.154922 
1657.000000	2.147817 
1656.000000	2.140712 
1655.000000	2.134180 
1654.000000	2.128648 
1653.000000	2.124500 
1652.000000	2.121901 
1651.000000	2.120757 
1650.000000	2.120876 
1649.000000	2.121853 
1648.000000	2.123308 
1647.000000	2.124905 
1646.000000	2.126264 
1645.000000	2.127170 
1644.000000	2.127385 
1643.000000	2.126860 
1642.000000	2.125525 
1641.000000	2.123475 
1640.000000	2.120804 
1639.000000	2.117800 
1638.000000	2.114653 
1637.000000	2.111673 
1636.000000	2.109050 
1635.000000	2.106928 
1634.000000	2.105236 
1633.000000	2.103853 
1632.000000	2.102494 
1631.000000	2.100896 
1630.000000	2.098894 
1629.000000	2.096271 
1628.000000	2.092933 
1627.000000	2.088880 
1626.000000	2.084136 
1625.000000	2.078771 
1624.000000	2.072787 
1623.000000	2.066159 
1622.000000	2.058911 
1621.000000	2.051043 
1620.000000	2.042627 
1619.000000	2.033710 
1618.000000	2.024412 
1617.000000	2.014827 
1616.000000	2.005076 
1615.000000	1.995372 
1614.000000	1.985788 
1613.000000	1.976561 
1612.000000	1.967906 
1611.000000	1.960110 
1610.000000	1.953411 
1609.000000	1.948118 
1608.000000	1.944446 
1607.000000	1.942515 
1606.000000	1.942324 
1605.000000	1.943778 
1604.000000	1.946568 
1603.000000	1.950383 
1602.000000	1.954817 
1601.000000	1.959538 
1600.000000	1.964211 
1599.000000	1.968622 
1598.000000	1.972579 
1597.000000	1.976013 
1596.000000	1.978898 
1595.000000	1.981258 
1594.000000	1.982998 
1593.000000	1.984238 
1592.000000	1.984930 
1591.000000	1.985192 
1590.000000	1.985001 
1589.000000	1.984429 
1588.000000	1.983404 
1587.000000	1.982092 
1586.000000	1.980423 
1585.000000	1.978421 
1584.000000	1.976013 
1583.000000	1.973271 
1582.000000	1.970267 
1581.000000	1.967024 
1580.000000	1.963710 
1579.000000	1.960515 
1578.000000	1.957559 
1577.000000	1.955032 
1576.000000	1.952934 
1575.000000	1.951360 
1574.000000	1.950240 
1573.000000	1.949429 
1572.000000	1.948809 
1571.000000	1.948118 
1570.000000	1.947069 
1569.000000	1.945447 
1568.000000	1.942801 
1567.000000	1.939058 
1566.000000	1.934099 
1565.000000	1.927900 
1564.000000	1.920700 
1563.000000	1.912975 
1562.000000	1.905345 
1561.000000	1.898550 
1560.000000	1.893258 
1559.000000	1.890087 
1558.000000	1.889324 
1557.000000	1.890945 
1556.000000	1.894664 
1555.000000	1.899957 
1554.000000	1.906108 
1553.000000	1.912379 
1552.000000	1.918148 
1551.000000	1.922845 
1550.000000	1.926231 
1549.000000	1.928210 
1548.000000	1.928901 
1547.000000	1.928544 
1546.000000	1.927685 
1545.000000	1.926922 
1544.000000	1.926946 
1543.000000	1.928400 
1542.000000	1.931905 
1541.000000	1.937747 
1540.000000	1.946091 
1539.000000	1.956820 
1538.000000	1.969528 
1537.000000	1.983618 
1536.000000	1.998305 
1535.000000	2.012848 
1534.000000	2.026605 
1533.000000	2.039051 
1532.000000	2.049684 
1531.000000	2.058482 
1530.000000	2.065396 
1529.000000	2.070498 
1528.000000	2.073931 
1527.000000	2.075958 
1526.000000	2.076935 
1525.000000	2.077007 
1524.000000	2.076482 
1523.000000	2.075600 
1522.000000	2.074551 
1521.000000	2.073478 
1520.000000	2.072405 
1519.000000	2.071380 
1518.000000	2.070307 
1517.000000	2.069163 
1516.000000	2.067685 
1515.000000	2.065706 
1514.000000	2.063059 
1513.000000	2.059602 
1512.000000	2.055335 
1511.000000	2.050089 
1510.000000	2.043843 
1509.000000	2.036380 
1508.000000	2.027440 
1507.000000	2.016353 
1506.000000	2.002406 
1505.000000	1.984667 
1504.000000	1.962327 
1503.000000	1.934766 
1502.000000	1.901960 
1501.000000	1.864480 
1500.000000	1.823806 
1499.000000	1.782011 
1498.000000	1.741743 
1497.000000	1.705789 
1496.000000	1.676845 
1495.000000	1.656937 
1494.000000	1.647257 
1493.000000	1.648044 
1492.000000	1.658701 
1491.000000	1.677680 
1490.000000	1.702976 
1489.000000	1.732230 
1488.000000	1.763463 
1487.000000	1.794624 
1486.000000	1.824140 
1485.000000	1.850795 
1484.000000	1.874065 
1483.000000	1.893520 
1482.000000	1.909184 
1481.000000	1.921272 
1480.000000	1.930046 
1479.000000	1.936125 
1478.000000	1.940011 
1477.000000	1.942205 
1476.000000	1.943135 
1475.000000	1.943349 
1474.000000	1.943111 
1473.000000	1.942515 
1472.000000	1.941633 
1471.000000	1.940441 
1470.000000	1.938772 
1469.000000	1.936388 
1468.000000	1.933050 
1467.000000	1.928591 
1466.000000	1.922821 
1465.000000	1.915359 
1464.000000	1.906108 
1463.000000	1.894903 
1462.000000	1.881742 
1461.000000	1.866626 
1460.000000	1.849794 
1459.000000	1.831650 
1458.000000	1.812887 
1457.000000	1.794362 
1456.000000	1.776933 
1455.000000	1.761555 
1454.000000	1.749157 
1453.000000	1.740574 
1452.000000	1.736211 
1451.000000	1.736235 
1450.000000	1.740336 
1449.000000	1.748037 
1448.000000	1.758408 
1447.000000	1.770401 
1446.000000	1.782894 
1445.000000	1.794886 
1444.000000	1.805496 
1443.000000	1.814246 
1442.000000	1.820969 
1441.000000	1.825737 
1440.000000	1.828885 
1439.000000	1.830887 
1438.000000	1.832175 
1437.000000	1.833248 
1436.000000	1.834368 
1435.000000	1.835584 
1434.000000	1.836943 
1433.000000	1.838350 
1432.000000	1.839733 
1431.000000	1.840925 
1430.000000	1.841783 
1429.000000	1.842188 
1428.000000	1.842188 
1427.000000	1.841688 
1426.000000	1.840662 
1425.000000	1.839137 
1424.000000	1.837253 
1423.000000	1.835036 
1422.000000	1.832580 
1421.000000	1.830053 
1420.000000	1.827502 
1419.000000	1.824927 
1418.000000	1.822280 
1417.000000	1.819348 
1416.000000	1.815867 
1415.000000	1.811480 
1414.000000	1.805853 
1413.000000	1.798653 
1412.000000	1.789808 
1411.000000	1.779365 
1410.000000	1.767587 
1409.000000	1.754951 
1408.000000	1.742172 
1407.000000	1.730012 
1406.000000	1.719164 
1405.000000	1.710438 
1404.000000	1.704287 
1403.000000	1.701045 
1402.000000	1.700735 
1401.000000	1.703143 
1400.000000	1.707911 
1399.000000	1.714468 
1398.000000	1.722192 
1397.000000	1.730489 
1396.000000	1.738715 
1395.000000	1.746344 
1394.000000	1.752901 
1393.000000	1.758050 
1392.000000	1.761531 
1391.000000	1.763415 
1390.000000	1.763868 
1389.000000	1.763176 
1388.000000	1.761817 
1387.000000	1.760315 
1386.000000	1.759171 
1385.000000	1.758837 
1384.000000	1.759505 
1383.000000	1.761245 
1382.000000	1.763916 
1381.000000	1.767230 
1380.000000	1.770853 
1379.000000	1.774406 
1378.000000	1.777696 
1377.000000	1.780509 
1376.000000	1.782870 
1375.000000	1.784849 
1374.000000	1.786494 
1373.000000	1.787877 
1372.000000	1.789045 
1371.000000	1.790022 
1370.000000	1.790809 
1369.000000	1.791357 
1368.000000	1.791644 
1367.000000	1.791691 
1366.000000	1.791596 
1365.000000	1.791381 
1364.000000	1.791238 
1363.000000	1.791167 
1362.000000	1.791238 
1361.000000	1.791405 
1360.000000	1.791691 
1359.000000	1.791977 
1358.000000	1.792216 
1357.000000	1.792287 
1356.000000	1.792192 
1355.000000	1.791906 
1354.000000	1.791381 
1353.000000	1.790714 
1352.000000	1.789999 
1351.000000	1.789212 
1350.000000	1.788425 
1349.000000	1.787710 
1348.000000	1.787114 
1347.000000	1.786637 
1346.000000	1.786303 
1345.000000	1.786231 
1344.000000	1.786375 
1343.000000	1.786875 
1342.000000	1.787710 
1341.000000	1.788973 
1340.000000	1.790642 
1339.000000	1.792788 
1338.000000	1.795268 
1337.000000	1.798057 
1336.000000	1.801061 
1335.000000	1.804089 
1334.000000	1.807045 
1333.000000	1.809835 
1332.000000	1.812386 
1331.000000	1.814603 
1330.000000	1.816511 
1329.000000	1.818132 
1328.000000	1.819467 
1327.000000	1.820611 
1326.000000	1.821517 
1325.000000	1.822280 
1324.000000	1.822948 
1323.000000	1.823496 
1322.000000	1.824045 
1321.000000	1.824593 
1320.000000	1.825189 
1319.000000	1.825833 
1318.000000	1.826524 
1317.000000	1.827263 
1316.000000	1.827979 
1315.000000	1.828622 
1314.000000	1.829123 
1313.000000	1.829481 
1312.000000	1.829648 
1311.000000	1.829624 
1310.000000	1.829504 
1309.000000	1.829314 
1308.000000	1.829099 
1307.000000	1.828908 
1306.000000	1.828813 
1305.000000	1.828837 
1304.000000	1.828956 
1303.000000	1.829218 
1302.000000	1.829576 
1301.000000	1.829957 
1300.000000	1.830363 
1299.000000	1.830744 
1298.000000	1.831007 
1297.000000	1.831173 
1296.000000	1.831126 
1295.000000	1.830887 
1294.000000	1.830530 
1293.000000	1.829981 
1292.000000	1.829385 
1291.000000	1.828742 
1290.000000	1.828122 
1289.000000	1.827621 
1288.000000	1.827192 
1287.000000	1.826882 
1286.000000	1.826596 
1285.000000	1.826310 
1284.000000	1.825904 
1283.000000	1.825213 
1282.000000	1.824188 
1281.000000	1.822733 
1280.000000	1.820802 
1279.000000	1.818323 
1278.000000	1.815295 
1277.000000	1.811647 
1276.000000	1.807332 
1275.000000	1.802206 
1274.000000	1.796221 
1273.000000	1.789236 
1272.000000	1.781129 
1271.000000	1.771855 
1270.000000	1.761507 
1269.000000	1.750326 
1268.000000	1.738691 
1267.000000	1.727104 
1266.000000	1.716232 
1265.000000	1.706695 
1264.000000	1.699233 
1263.000000	1.694345 
1262.000000	1.692390 
1261.000000	1.693487 
1260.000000	1.697540 
1259.000000	1.704168 
1258.000000	1.712894 
1257.000000	1.723027 
1256.000000	1.733970 
1255.000000	1.745033 
1254.000000	1.755738 
1253.000000	1.765680 
1252.000000	1.774573 
1251.000000	1.782321 
1250.000000	1.788902 
1249.000000	1.794409 
1248.000000	1.798868 
1247.000000	1.802372 
1246.000000	1.805186 
1245.000000	1.807260 
1244.000000	1.808786 
1243.000000	1.809763 
1242.000000	1.810312 
1241.000000	1.810479 
1240.000000	1.810288 
1239.000000	1.809859 
1238.000000	1.809239 
1237.000000	1.808476 
1236.000000	1.807594 
1235.000000	1.806712 
1234.000000	1.805830 
1233.000000	1.804924 
1232.000000	1.804041 
1231.000000	1.803135 
1230.000000	1.802158 
1229.000000	1.801085 
1228.000000	1.799798 
1227.000000	1.798272 
1226.000000	1.796436 
1225.000000	1.794219 
1224.000000	1.791620 
1223.000000	1.788568 
1222.000000	1.785135 
1221.000000	1.781296 
1220.000000	1.777172 
1219.000000	1.772665 
1218.000000	1.767897 
1217.000000	1.763010 
1216.000000	1.757955 
1215.000000	1.752972 
1214.000000	1.748061 
1213.000000	1.743340 
1212.000000	1.738882 
1211.000000	1.734805 
1210.000000	1.731157 
1209.000000	1.727986 
1208.000000	1.725363 
1207.000000	1.723313 
1206.000000	1.721835 
1205.000000	1.720905 
1204.000000	1.720404 
1203.000000	1.720309 
1202.000000	1.720523 
1201.000000	1.720905 
1200.000000	1.721334 
1199.000000	1.721763 
1198.000000	1.722049 
1197.000000	1.722145 
1196.000000	1.721954 
1195.000000	1.721525 
1194.000000	1.720762 
1193.000000	1.719808 
1192.000000	1.718568 
1191.000000	1.717090 
1190.000000	1.715493 
1189.000000	1.713657 
1188.000000	1.711678 
1187.000000	1.709508 
1186.000000	1.707172 
1185.000000	1.704716 
1184.000000	1.702165 
1183.000000	1.699542 
1182.000000	1.696896 
1181.000000	1.694226 
1180.000000	1.691508 
1179.000000	1.688766 
1178.000000	1.685953 
1177.000000	1.683020 
1176.000000	1.679992 
1175.000000	1.676750 
1174.000000	1.673316 
1173.000000	1.669669 
1172.000000	1.665782 
1171.000000	1.661682 
1170.000000	1.657390 
1169.000000	1.652908 
1168.000000	1.648283 
1167.000000	1.643538 
1166.000000	1.638698 
1165.000000	1.633763 
1164.000000	1.628828 
1163.000000	1.623940 
1162.000000	1.619219 
1161.000000	1.614809 
1160.000000	1.610755 
1159.000000	1.607203 
1158.000000	1.604175 
1157.000000	1.601600 
1156.000000	1.599526 
1155.000000	1.597809 
1154.000000	1.596355 
1153.000000	1.595020 
1152.000000	1.593685 
1151.000000	1.592278 
1150.000000	1.590728 
1149.000000	1.588964 
1148.000000	1.587009 
1147.000000	1.584887 
1146.000000	1.582622 
1145.000000	1.580238 
1144.000000	1.577734 
1143.000000	1.575136 
1142.000000	1.572489 
1141.000000	1.569676 
1140.000000	1.566791 
1139.000000	1.563787 
1138.000000	1.560711 
1137.000000	1.557540 
1136.000000	1.554250 
1135.000000	1.550865 
1134.000000	1.547360 
1133.000000	1.543664 
1132.000000	1.539802 
1131.000000	1.535725 
1130.000000	1.531362 
1129.000000	1.526713 
1128.000000	1.521873 
1127.000000	1.516819 
1126.000000	1.511621 
1125.000000	1.506328 
1124.000000	1.501011 
1123.000000	1.495695 
1122.000000	1.490426 
1121.000000	1.485180 
1120.000000	1.479983 
1119.000000	1.474809 
1118.000000	1.469659 
1117.000000	1.464533 
1116.000000	1.459479 
1115.000000	1.454520 
1114.000000	1.449656 
1113.000000	1.444959 
1112.000000	1.440501 
1111.000000	1.436281 
1110.000000	1.432371 
1109.000000	1.428771 
1108.000000	1.425504 
1107.000000	1.422667 
1106.000000	1.420187 
1105.000000	1.418042 
1104.000000	1.416230 
1103.000000	1.414680 
1102.000000	1.413416 
1101.000000	1.412320 
1100.000000	1.411414 
1099.000000	1.410651 
1098.000000	1.409983 
1097.000000	1.409435 
1096.000000	1.409006 
1095.000000	1.408672 
1094.000000	1.408457 
1093.000000	1.408362 
1092.000000	1.408386 
1091.000000	1.408505 
1090.000000	1.408767 
1089.000000	1.409077 
1088.000000	1.409435 
1087.000000	1.409792 
1086.000000	1.410102 
1085.000000	1.410317 
1084.000000	1.410412 
1083.000000	1.410365 
1082.000000	1.410174 
1081.000000	1.409912 
1080.000000	1.409649 
1079.000000	1.409387 
1078.000000	1.409292 
1077.000000	1.409387 
1076.000000	1.409769 
1075.000000	1.410388 
1074.000000	1.411318 
1073.000000	1.412487 
1072.000000	1.413869 
1071.000000	1.415324 
1070.000000	1.416802 
1069.000000	1.418232 
1068.000000	1.419472 
1067.000000	1.420426 
1066.000000	1.421093 
1065.000000	1.421236 
1064.000000	1.420617 
1063.000000	1.419043 
1062.000000	1.416134 
1061.000000	1.411461 
1060.000000	1.404643 
1059.000000	1.395416 
1058.000000	1.383686 
1057.000000	1.369595 
1056.000000	1.353836 
1055.000000	1.337265 
1054.000000	1.321029 
1053.000000	1.306486 
1052.000000	1.294898 
1051.000000	1.287269 
1050.000000	1.284217 
1049.000000	1.285767 
1048.000000	1.291561 
1047.000000	1.300597 
1046.000000	1.311779 
1045.000000	1.323795 
1044.000000	1.335477 
1043.000000	1.345896 
1042.000000	1.354479 
1041.000000	1.360964 
1040.000000	1.365399 
1039.000000	1.368069 
1038.000000	1.369261 
1037.000000	1.369380 
1036.000000	1.368689 
1035.000000	1.367449 
1034.000000	1.365852 
1033.000000	1.364016 
1032.000000	1.361989 
1031.000000	1.359868 
1030.000000	1.357698 
1029.000000	1.355528 
1028.000000	1.353478 
1027.000000	1.351547 
1026.000000	1.349806 
1025.000000	1.348257 
1024.000000	1.347017 
1023.000000	1.346111 
1022.000000	1.345515 
1021.000000	1.345300 
1020.000000	1.345467 
1019.000000	1.346063 
1018.000000	1.347088 
1017.000000	1.348471 
1016.000000	1.350188 
1015.000000	1.352238 
1014.000000	1.354527 
1013.000000	1.357007 
1012.000000	1.359581 
1011.000000	1.362180 
1010.000000	1.364755 
1009.000000	1.367211 
1008.000000	1.369500 
1007.000000	1.371622 
1006.000000	1.373505 
1005.000000	1.375174 
1004.000000	1.376652 
1003.000000	1.377892 
1002.000000	1.378989 
1001.000000	1.379871 
1000.000000	1.380610 
999.000000	 1.381182 
998.000000	 1.381611 
997.000000	 1.381802 
996.000000	 1.381802 
995.000000	 1.381587 
994.000000	 1.381158 
993.000000	 1.380443 
992.000000	 1.379513 
991.000000	 1.378393 
990.000000	 1.377105 
989.000000	 1.375651 
988.000000	 1.374101 
987.000000	 1.372480 
986.000000	 1.370811 
985.000000	 1.369023 
984.000000	 1.367235 
983.000000	 1.365375 
982.000000	 1.363492 
981.000000	 1.361513 
980.000000	 1.359438 
979.000000	 1.357316 
978.000000	 1.355123 
977.000000	 1.352834 
976.000000	 1.350426 
975.000000	 1.347899 
974.000000	 1.345252 
973.000000	 1.342487 
972.000000	 1.339578 
971.000000	 1.336550 
970.000000	 1.333403 
969.000000	 1.330184 
968.000000	 1.326799 
967.000000	 1.323366 
966.000000	 1.319789 
965.000000	 1.316142 
964.000000	 1.312398 
963.000000	 1.308631 
962.000000	 1.304864 
961.000000	 1.301074 
960.000000	 1.297330 
959.000000	 1.293659 
958.000000	 1.290011 
957.000000	 1.286435 
956.000000	 1.282882 
955.000000	 1.279330 
954.000000	 1.275777 
953.000000	 1.272273 
952.000000	 1.268839 
951.000000	 1.265478 
950.000000	 1.262307 
949.000000	 1.259350 
948.000000	 1.256656 
947.000000	 1.254320 
946.000000	 1.252245 
945.000000	 1.250457 
944.000000	 1.248908 
943.000000	 1.247572 
942.000000	 1.246356 
941.000000	 1.245141 
940.000000	 1.243925 
939.000000	 1.242589 
938.000000	 1.241135 
937.000000	 1.239562 
936.000000	 1.237773 
935.000000	 1.235771 
934.000000	 1.233601 
933.000000	 1.231265 
932.000000	 1.228809 
931.000000	 1.226282 
930.000000	 1.223778 
929.000000	 1.221299 
928.000000	 1.218914 
927.000000	 1.216626 
926.000000	 1.214456 
925.000000	 1.212263 
924.000000	 1.210069 
923.000000	 1.207828 
922.000000	 1.205492 
921.000000	 1.202893 
920.000000	 1.200151 
919.000000	 1.197147 
918.000000	 1.193881 
917.000000	 1.190400 
916.000000	 1.186752 
915.000000	 1.182937 
914.000000	 1.179051 
913.000000	 1.175141 
912.000000	 1.171350 
911.000000	 1.167654 
910.000000	 1.164150 
909.000000	 1.160955 
908.000000	 1.158022 
907.000000	 1.155376 
906.000000	 1.152992 
905.000000	 1.150774 
904.000000	 1.148724 
903.000000	 1.146721 
902.000000	 1.144742 
901.000000	 1.142764 
900.000000	 1.140832 
899.000000	 1.138925 
898.000000	 1.137065 
897.000000	 1.135277 
896.000000	 1.133465 
895.000000	 1.131582 
894.000000	 1.129460 
893.000000	 1.126909 
892.000000	 1.123785 
891.000000	 1.119971 
890.000000	 1.115322 
889.000000	 1.109814 
888.000000	 1.103401 
887.000000	 1.096248 
886.000000	 1.088356 
885.000000	 1.080012 
884.000000	 1.071357 
883.000000	 1.062607 
882.000000	 1.054072 
881.000000	 1.045942 
880.000000	 1.038527 
879.000000	 1.032018 
878.000000	 1.026678 
877.000000	 1.022648 
876.000000	 1.020121 
875.000000	 1.019167 
874.000000	 1.019811 
873.000000	 1.021933 
872.000000	 1.025390 
871.000000	 1.029944 
870.000000	 1.035308 
869.000000	 1.041150 
868.000000	 1.047158 
867.000000	 1.053094 
866.000000	 1.058626 
865.000000	 1.063561 
864.000000	 1.067805 
863.000000	 1.071381 
862.000000	 1.074194 
861.000000	 1.076269 
860.000000	 1.077699 
859.000000	 1.078557 
858.000000	 1.078915 
857.000000	 1.078796 
856.000000	 1.078295 
855.000000	 1.077485 
854.000000	 1.076412 
853.000000	 1.075172 
852.000000	 1.073861 
851.000000	 1.072430 
850.000000	 1.071000 
849.000000	 1.069593 
848.000000	 1.068139 
847.000000	 1.066637 
846.000000	 1.065039 
845.000000	 1.063275 
844.000000	 1.061201 
843.000000	 1.058816 
842.000000	 1.055932 
841.000000	 1.052331 
840.000000	 1.047873 
839.000000	 1.042342 
838.000000	 1.035380 
837.000000	 1.026844 
836.000000	 1.016354 
835.000000	 1.003742 
834.000000	 0.988936 
833.000000	 0.972032 
832.000000	 0.953340 
831.000000	 0.933337 
830.000000	 0.912833 
829.000000	 0.892758 
828.000000	 0.874233 
827.000000	 0.858235 
826.000000	 0.845766 
825.000000	 0.837516 
824.000000	 0.833821 
823.000000	 0.834703 
822.000000	 0.839662 
821.000000	 0.847983 
820.000000	 0.858759 
819.000000	 0.870919 
818.000000	 0.883388 
817.000000	 0.895333 
816.000000	 0.906038 
815.000000	 0.915145 
814.000000	 0.922489 
813.000000	 0.928044 
812.000000	 0.932097 
811.000000	 0.934791 
810.000000	 0.936579 
809.000000	 0.937485 
808.000000	 0.937867 
807.000000	 0.937819 
806.000000	 0.937485 
805.000000	 0.936913 
804.000000	 0.936317 
803.000000	 0.935721 
802.000000	 0.935268 
801.000000	 0.935029 
800.000000	 0.935101 
799.000000	 0.935626 
798.000000	 0.936532 
797.000000	 0.937867 
796.000000	 0.939679 
795.000000	 0.941824 
794.000000	 0.944256 
793.000000	 0.946903 
792.000000	 0.949668 
791.000000	 0.952458 
790.000000	 0.955224 
789.000000	 0.957918 
788.000000	 0.960445 
787.000000	 0.962758 
786.000000	 0.964784 
785.000000	 0.966548 
784.000000	 0.967907 
783.000000	 0.968861 
782.000000	 0.969409 
781.000000	 0.969576 
780.000000	 0.969362 
779.000000	 0.968885 
778.000000	 0.968217 
777.000000	 0.967383 
776.000000	 0.966501 
775.000000	 0.965619 
774.000000	 0.964808 
773.000000	 0.964069 
772.000000	 0.963401 
771.000000	 0.962781 
770.000000	 0.962209 
769.000000	 0.961661 
768.000000	 0.961065 
767.000000	 0.960445 
766.000000	 0.959706 
765.000000	 0.958895 
764.000000	 0.957989 
763.000000	 0.957059 
762.000000	 0.956082 
761.000000	 0.955128 
760.000000	 0.954222 
759.000000	 0.953364 
758.000000	 0.952577 
757.000000	 0.951790 
756.000000	 0.950932 
755.000000	 0.950002 
754.000000	 0.948953 
753.000000	 0.947713 
752.000000	 0.946283 
751.000000	 0.944662 
750.000000	 0.942873 
749.000000	 0.940942 
748.000000	 0.938916 
747.000000	 0.936841 
746.000000	 0.934743 
745.000000	 0.932693 
744.000000	 0.930714 
743.000000	 0.928831 
742.000000	 0.927042 
741.000000	 0.925374 
740.000000	 0.923800 
739.000000	 0.922226 
738.000000	 0.920653 
737.000000	 0.918960 
736.000000	 0.917124 
735.000000	 0.915050 
734.000000	 0.912737 
733.000000	 0.910210 
732.000000	 0.907444 
731.000000	 0.904464 
730.000000	 0.901341 
729.000000	 0.898122 
728.000000	 0.894832 
727.000000	 0.891542 
726.000000	 0.888228 
725.000000	 0.884962 
724.000000	 0.881719 
723.000000	 0.878572 
722.000000	 0.875473 
721.000000	 0.872468 
720.000000	 0.869512 
719.000000	 0.866651 
718.000000	 0.863814 
717.000000	 0.861001 
716.000000	 0.858211 
715.000000	 0.855350 
714.000000	 0.852489 
713.000000	 0.849533 
712.000000	 0.846481 
711.000000	 0.843381 
710.000000	 0.840210 
709.000000	 0.837016 
708.000000	 0.833773 
707.000000	 0.830483 
706.000000	 0.827193 
705.000000	 0.823807 
704.000000	 0.820255 
703.000000	 0.816488 
702.000000	 0.812435 
701.000000	 0.808000 
700.000000	 0.803136 
699.000000	 0.797820 
698.000000	 0.791954 
697.000000	 0.785589 
696.000000	 0.778722 
695.000000	 0.771450 
694.000000	 0.763916 
693.000000	 0.756311 
692.000000	 0.748896 
691.000000	 0.741982 
690.000000	 0.735855 
689.000000	 0.730824 
688.000000	 0.727009 
687.000000	 0.724554 
686.000000	 0.723361 
685.000000	 0.723266 
684.000000	 0.723910 
683.000000	 0.725007 
682.000000	 0.726222 
681.000000	 0.727224 
680.000000	 0.727796 
679.000000	 0.727868 
678.000000	 0.727415 
677.000000	 0.726461 
676.000000	 0.725007 
675.000000	 0.723266 
674.000000	 0.721240 
673.000000	 0.719022 
672.000000	 0.716686 
671.000000	 0.714230 
670.000000	 0.711774 
669.000000	 0.709319 
668.000000	 0.706911 
667.000000	 0.704574 
666.000000	 0.702357 
665.000000	 0.700235 
664.000000	 0.698161 
663.000000	 0.696110 
662.000000	 0.694108 
661.000000	 0.692057 
660.000000	 0.689959 
659.000000	 0.687766 
658.000000	 0.685477 
657.000000	 0.683093 
656.000000	 0.680589 
655.000000	 0.677943 
654.000000	 0.675201 
653.000000	 0.672316 
652.000000	 0.669360 
651.000000	 0.666379 
650.000000	 0.663375 
649.000000	 0.660371 
648.000000	 0.657439 
647.000000	 0.654554 
646.000000	 0.651764 
645.000000	 0.649046 
644.000000	 0.646352 
643.000000	 0.643634 
642.000000	 0.640916 
641.000000	 0.638127 
640.000000	 0.635313 
639.000000	 0.632476 
638.000000	 0.629663 
637.000000	 0.626850 
636.000000	 0.624108 
635.000000	 0.621438 
634.000000	 0.618886 
633.000000	 0.616431 
632.000000	 0.614047 
631.000000	 0.611782 
630.000000	 0.609517 
629.000000	 0.607299 
628.000000	 0.605058 
627.000000	 0.602746 
626.000000	 0.600361 
625.000000	 0.597882 
624.000000	 0.595307 
623.000000	 0.592541 
622.000000	 0.589728 
621.000000	 0.586771 
620.000000	 0.583696 
619.000000	 0.580477 
618.000000	 0.577092 
617.000000	 0.573468 
616.000000	 0.569558 
615.000000	 0.565242 
614.000000	 0.560569 
613.000000	 0.555467 
612.000000	 0.550031 
611.000000	 0.544452 
610.000000	 0.538873 
609.000000	 0.533533 
608.000000	 0.528717 
607.000000	 0.524592 
606.000000	 0.521349 
605.000000	 0.519037 
604.000000	 0.517606 
603.000000	 0.516867 
602.000000	 0.516700 
601.000000	 0.516843 
600.000000	 0.517058 
599.000000	 0.517225 
598.000000	 0.517153 
597.000000	 0.516843 
596.000000	 0.516223 
595.000000	 0.515389 
594.000000	 0.514364 
593.000000	 0.513148 
592.000000	 0.511813 
591.000000	 0.510430 
590.000000	 0.508999 
589.000000	 0.507569 
588.000000	 0.506210 
587.000000	 0.504970 
586.000000	 0.503849 
585.000000	 0.502872 
584.000000	 0.502014 
583.000000	 0.501251 
582.000000	 0.500535 
581.000000	 0.499725 
580.000000	 0.498819 
579.000000	 0.497770 
578.000000	 0.496554 
577.000000	 0.495219 
576.000000	 0.493812 
575.000000	 0.492429 
574.000000	 0.491070 
573.000000	 0.489807 
572.000000	 0.488591 
571.000000	 0.487565 
570.000000	 0.486540 
569.000000	 0.485515 
568.000000	 0.484418 
567.000000	 0.483274 
566.000000	 0.482034 
565.000000	 0.480628 
564.000000	 0.479173 
563.000000	 0.477623 
562.000000	 0.476098 
561.000000	 0.474524 
560.000000	 0.472998 
559.000000	 0.471496 
558.000000	 0.469994 
557.000000	 0.468516 
556.000000	 0.467014 
555.000000	 0.465440 
554.000000	 0.463795 
553.000000	 0.462079 
552.000000	 0.460290 
551.000000	 0.458383 
550.000000	 0.456452 
549.000000	 0.454497 
548.000000	 0.452494 
547.000000	 0.450491 
546.000000	 0.448536 
545.000000	 0.446605 
544.000000	 0.444841 
543.000000	 0.443148 
542.000000	 0.441503 
541.000000	 0.439953 
540.000000	 0.438380 
539.000000	 0.436782 
538.000000	 0.435161 
537.000000	 0.433444 
536.000000	 0.431585 
535.000000	 0.429582 
534.000000	 0.427460 
533.000000	 0.425267 
532.000000	 0.422954 
531.000000	 0.420641 
530.000000	 0.418305 
529.000000	 0.415921 
528.000000	 0.413537 
527.000000	 0.411152 
526.000000	 0.408768 
525.000000	 0.406360 
524.000000	 0.403976 
523.000000	 0.401592 
522.000000	 0.399231 
521.000000	 0.396895 
520.000000	 0.394582 
519.000000	 0.392317 
518.000000	 0.390100 
517.000000	 0.387930 
516.000000	 0.385761 
515.000000	 0.383615 
514.000000	 0.381422 
513.000000	 0.379228 
512.000000	 0.376987 
511.000000	 0.374674 
510.000000	 0.372290 
509.000000	 0.369811 
508.000000	 0.367259 
507.000000	 0.364613 
506.000000	 0.361847 
505.000000	 0.358963 
504.000000	 0.355982 
503.000000	 0.352883 
502.000000	 0.349712 
501.000000	 0.346422 
500.000000	 0.343060 
499.000000	 0.339651 
498.000000	 0.336241 
497.000000	 0.332856 
496.000000	 0.329542 
495.000000	 0.326228 
494.000000	 0.323009 
493.000000	 0.319910 
492.000000	 0.316810 
491.000000	 0.313711 
490.000000	 0.310611 
489.000000	 0.307464 
488.000000	 0.304269 
487.000000	 0.300931 
486.000000	 0.297522 
485.000000	 0.293970 
484.000000	 0.290346 
483.000000	 0.286626 
482.000000	 0.282859 
481.000000	 0.279068 
480.000000	 0.275301 
479.000000	 0.271511 
478.000000	 0.267815 
477.000000	 0.264143 
476.000000	 0.260567 
475.000000	 0.257086 
474.000000	 0.253725 
473.000000	 0.250530 
472.000000	 0.247526 
471.000000	 0.244665 
470.000000	 0.241923 
469.000000	 0.239276 
468.000000	 0.236749 
467.000000	 0.234150 
466.000000	 0.231528 
465.000000	 0.228834 
464.000000	 0.225949 
463.000000	 0.222945 
462.000000	 0.219774 
461.000000	 0.216436 
460.000000	 0.212907 
459.000000	 0.209236 
458.000000	 0.205373 
457.000000	 0.201392 
456.000000	 0.197291 
455.000000	 0.193166 
454.000000	 0.189065 
453.000000	 0.185084 
452.000000	 0.181293 
451.000000	 0.177717 
450.000000	 0.174474 
449.000000	 0.171566 
448.000000	 0.168967 
447.000000	 0.166606 
446.000000	 0.164437 
445.000000	 0.162315 
444.000000	 0.160169 
443.000000	 0.157904 
442.000000	 0.155353 
441.000000	 0.152540 
440.000000	 0.149488 
439.000000	 0.146222 
438.000000	 0.142788 
437.000000	 0.139284 
436.000000	 0.135850 
435.000000	 0.132489 
434.000000	 0.129294 
433.000000	 0.126290 
432.000000	 0.123405 
431.000000	 0.120687 
430.000000	 0.118017 
429.000000	 0.115370 
428.000000	 0.112652 
427.000000	 0.109863 
426.000000	 0.106906 
425.000000	 0.103831 
424.000000	 0.100684 
423.000000	 0.097417 
422.000000	 0.094079 
421.000000	 0.090765 
420.000000	 0.087475 
419.000000	 0.084257 
418.000000	 0.081110 
417.000000	 0.078058 
416.000000	 0.075101 
415.000000	 0.072240 
414.000000	 0.069546 
413.000000	 0.066995 
412.000000	 0.064563 
411.000000	 0.062298 
410.000000	 0.060081 
409.000000	 0.057888 
408.000000	 0.055718 
407.000000	 0.053477 
406.000000	 0.051212 
405.000000	 0.048851 
404.000000	 0.046539 
403.000000	 0.044298 
402.000000	 0.042223 
401.000000	 0.040340 
400.000000	 0.038623 
399.000000	 0.037074 
398.000000	 0.035667 
397.000000	 0.034308 
396.000000	 0.032877 
395.000000	 0.031399 
394.000000	 0.029826 
393.000000	 0.028181 
392.000000	 0.026464 
391.000000	 0.024795 
390.000000	 0.023198 
389.000000	 0.021719 
388.000000	 0.020384 
387.000000	 0.019168 
386.000000	 0.018048 
385.000000	 0.016951 
384.000000	 0.015878 
383.000000	 0.014781 
382.000000	 0.013661 
381.000000	 0.012540 
380.000000	 0.011420 
379.000000	 0.010442 
378.000000	 0.009584 
377.000000	 0.008916 
376.000000	 0.008511 
375.000000	 0.008296 
374.000000	 0.008296 
373.000000	 0.008392 
372.000000	 0.008535 
371.000000	 0.008654 
370.000000	 0.008630 

