PE IR       SPECTRUM    SPECTRUM    ASCII       PEDS        1.60        
  -1
LP0A1C~1.ASC
17/05/19
23:27:42.00
17/05/19
23:27:42.00
tln
$LPE454_e0127$<ebV0>[-23.3,12.1,10.0,0.0,27,1,0]
370.000000
64









2002,4.07    
MIRTGS : RIGHTBACK : INTERNAL 2
MIR : ON : INTERNAL 2
OPTKBR

0.200000
8
8.000000
FILLER
SINGLE
SPECTRUM
UNLOCKED 256

DOUBLE

COMBINED
1
0
0


1.000000
BACKG


1
0
TRUE
51149
0
LEFT NOT FITTED RIGHT NOT FITTED 0
NONE
NONE
15600
12.000000
4.427000
51148
TRUE
1 0 8 72 0 0 0 0 

15798.010000






#HDR
-1
-1
#GR
CM-1
EGY
0.00002384185791015625
0.0
5000.000000
-1.000000
4631
8
2.428817
0.008010
#DATA
5000.000000	0.770783 
4999.000000	0.772047 
4998.000000	0.773286 
4997.000000	0.774407 
4996.000000	0.775384 
4995.000000	0.776076 
4994.000000	0.776529 
4993.000000	0.776743 
4992.000000	0.776720 
4991.000000	0.776576 
4990.000000	0.776338 
4989.000000	0.776100 
4988.000000	0.775933 
4987.000000	0.775814 
4986.000000	0.775837 
4985.000000	0.776004 
4984.000000	0.776338 
4983.000000	0.776863 
4982.000000	0.777602 
4981.000000	0.778532 
4980.000000	0.779581 
4979.000000	0.780773 
4978.000000	0.781989 
4977.000000	0.783157 
4976.000000	0.784230 
4975.000000	0.785112 
4974.000000	0.785756 
4973.000000	0.786137 
4972.000000	0.786328 
4971.000000	0.786304 
4970.000000	0.786161 
4969.000000	0.786042 
4968.000000	0.785946 
4967.000000	0.786018 
4966.000000	0.786256 
4965.000000	0.786685 
4964.000000	0.787281 
4963.000000	0.787901 
4962.000000	0.788521 
4961.000000	0.789070 
4960.000000	0.789451 
4959.000000	0.789642 
4958.000000	0.789666 
4957.000000	0.789523 
4956.000000	0.789284 
4955.000000	0.789070 
4954.000000	0.788927 
4953.000000	0.788927 
4952.000000	0.789093 
4951.000000	0.789403 
4950.000000	0.789856 
4949.000000	0.790333 
4948.000000	0.790810 
4947.000000	0.791287 
4946.000000	0.791645 
4945.000000	0.792002 
4944.000000	0.792360 
4943.000000	0.792646 
4942.000000	0.793004 
4941.000000	0.793385 
4940.000000	0.793838 
4939.000000	0.794315 
4938.000000	0.794792 
4937.000000	0.795245 
4936.000000	0.795650 
4935.000000	0.796008 
4934.000000	0.796318 
4933.000000	0.796651 
4932.000000	0.796985 
4931.000000	0.797414 
4930.000000	0.797867 
4929.000000	0.798392 
4928.000000	0.798916 
4927.000000	0.799441 
4926.000000	0.799942 
4925.000000	0.800418 
4924.000000	0.800824 
4923.000000	0.801134 
4922.000000	0.801396 
4921.000000	0.801587 
4920.000000	0.801706 
4919.000000	0.801825 
4918.000000	0.801920 
4917.000000	0.802016 
4916.000000	0.802111 
4915.000000	0.802230 
4914.000000	0.802397 
4913.000000	0.802540 
4912.000000	0.802707 
4911.000000	0.802946 
4910.000000	0.803232 
4909.000000	0.803565 
4908.000000	0.804018 
4907.000000	0.804567 
4906.000000	0.805187 
4905.000000	0.805878 
4904.000000	0.806641 
4903.000000	0.807428 
4902.000000	0.808262 
4901.000000	0.809025 
4900.000000	0.809741 
4899.000000	0.810408 
4898.000000	0.811004 
4897.000000	0.811529 
4896.000000	0.812029 
4895.000000	0.812458 
4894.000000	0.812864 
4893.000000	0.813269 
4892.000000	0.813674 
4891.000000	0.814080 
4890.000000	0.814461 
4889.000000	0.814819 
4888.000000	0.815153 
4887.000000	0.815439 
4886.000000	0.815701 
4885.000000	0.815916 
4884.000000	0.816178 
4883.000000	0.816392 
4882.000000	0.816679 
4881.000000	0.817060 
4880.000000	0.817489 
4879.000000	0.817990 
4878.000000	0.818610 
4877.000000	0.819325 
4876.000000	0.820159 
4875.000000	0.821065 
4874.000000	0.822067 
4873.000000	0.823116 
4872.000000	0.824165 
4871.000000	0.825142 
4870.000000	0.826072 
4869.000000	0.826883 
4868.000000	0.827550 
4867.000000	0.828123 
4866.000000	0.828576 
4865.000000	0.828933 
4864.000000	0.829243 
4863.000000	0.829529 
4862.000000	0.829792 
4861.000000	0.830030 
4860.000000	0.830292 
4859.000000	0.830531 
4858.000000	0.830841 
4857.000000	0.831222 
4856.000000	0.831651 
4855.000000	0.832223 
4854.000000	0.832915 
4853.000000	0.833678 
4852.000000	0.834465 
4851.000000	0.835251 
4850.000000	0.835967 
4849.000000	0.836586 
4848.000000	0.837087 
4847.000000	0.837516 
4846.000000	0.837874 
4845.000000	0.838232 
4844.000000	0.838589 
4843.000000	0.839018 
4842.000000	0.839495 
4841.000000	0.840020 
4840.000000	0.840592 
4839.000000	0.841188 
4838.000000	0.841856 
4837.000000	0.842547 
4836.000000	0.843286 
4835.000000	0.844120 
4834.000000	0.845026 
4833.000000	0.845980 
4832.000000	0.847053 
4831.000000	0.848174 
4830.000000	0.849366 
4829.000000	0.850558 
4828.000000	0.851678 
4827.000000	0.852704 
4826.000000	0.853538 
4825.000000	0.854158 
4824.000000	0.854587 
4823.000000	0.854802 
4822.000000	0.854897 
4821.000000	0.854945 
4820.000000	0.855016 
4819.000000	0.855183 
4818.000000	0.855469 
4817.000000	0.855851 
4816.000000	0.856399 
4815.000000	0.856995 
4814.000000	0.857615 
4813.000000	0.858259 
4812.000000	0.858926 
4811.000000	0.859594 
4810.000000	0.860309 
4809.000000	0.861120 
4808.000000	0.861978 
4807.000000	0.862956 
4806.000000	0.863957 
4805.000000	0.865006 
4804.000000	0.866031 
4803.000000	0.866985 
4802.000000	0.867795 
4801.000000	0.868463 
4800.000000	0.869035 
4799.000000	0.869488 
4798.000000	0.869894 
4797.000000	0.870251 
4796.000000	0.870585 
4795.000000	0.871014 
4794.000000	0.871515 
4793.000000	0.872111 
4792.000000	0.872755 
4791.000000	0.873446 
4790.000000	0.874185 
4789.000000	0.874876 
4788.000000	0.875520 
4787.000000	0.876116 
4786.000000	0.876641 
4785.000000	0.877070 
4784.000000	0.877428 
4783.000000	0.877761 
4782.000000	0.878071 
4781.000000	0.878405 
4780.000000	0.878739 
4779.000000	0.879073 
4778.000000	0.879430 
4777.000000	0.879764 
4776.000000	0.880122 
4775.000000	0.880455 
4774.000000	0.880813 
4773.000000	0.881147 
4772.000000	0.881528 
4771.000000	0.881886 
4770.000000	0.882244 
4769.000000	0.882577 
4768.000000	0.882887 
4767.000000	0.883197 
4766.000000	0.883507 
4765.000000	0.883841 
4764.000000	0.884246 
4763.000000	0.884699 
4762.000000	0.885248 
4761.000000	0.885891 
4760.000000	0.886583 
4759.000000	0.887346 
4758.000000	0.888180 
4757.000000	0.889039 
4756.000000	0.889968 
4755.000000	0.890898 
4754.000000	0.891852 
4753.000000	0.892829 
4752.000000	0.893759 
4751.000000	0.894618 
4750.000000	0.895380 
4749.000000	0.896024 
4748.000000	0.896525 
4747.000000	0.896811 
4746.000000	0.896954 
4745.000000	0.896954 
4744.000000	0.896859 
4743.000000	0.896716 
4742.000000	0.896501 
4741.000000	0.896310 
4740.000000	0.896167 
4739.000000	0.896048 
4738.000000	0.896024 
4737.000000	0.896120 
4736.000000	0.896358 
4735.000000	0.896763 
4734.000000	0.897312 
4733.000000	0.898003 
4732.000000	0.898766 
4731.000000	0.899553 
4730.000000	0.900292 
4729.000000	0.900936 
4728.000000	0.901508 
4727.000000	0.902032 
4726.000000	0.902557 
4725.000000	0.903105 
4724.000000	0.903725 
4723.000000	0.904464 
4722.000000	0.905227 
4721.000000	0.905990 
4720.000000	0.906682 
4719.000000	0.907230 
4718.000000	0.907564 
4717.000000	0.907683 
4716.000000	0.907611 
4715.000000	0.907397 
4714.000000	0.907063 
4713.000000	0.906658 
4712.000000	0.906205 
4711.000000	0.905728 
4710.000000	0.905227 
4709.000000	0.904679 
4708.000000	0.904130 
4707.000000	0.903630 
4706.000000	0.903248 
4705.000000	0.903058 
4704.000000	0.903058 
4703.000000	0.903320 
4702.000000	0.903749 
4701.000000	0.904345 
4700.000000	0.905060 
4699.000000	0.905799 
4698.000000	0.906491 
4697.000000	0.907063 
4696.000000	0.907516 
4695.000000	0.907826 
4694.000000	0.908017 
4693.000000	0.908112 
4692.000000	0.908112 
4691.000000	0.908064 
4690.000000	0.908064 
4689.000000	0.908088 
4688.000000	0.908207 
4687.000000	0.908398 
4686.000000	0.908732 
4685.000000	0.909233 
4684.000000	0.909852 
4683.000000	0.910568 
4682.000000	0.911331 
4681.000000	0.912022 
4680.000000	0.912570 
4679.000000	0.912880 
4678.000000	0.912976 
4677.000000	0.912809 
4676.000000	0.912475 
4675.000000	0.912141 
4674.000000	0.911808 
4673.000000	0.911617 
4672.000000	0.911545 
4671.000000	0.911688 
4670.000000	0.911903 
4669.000000	0.912213 
4668.000000	0.912499 
4667.000000	0.912761 
4666.000000	0.912952 
4665.000000	0.913071 
4664.000000	0.913166 
4663.000000	0.913262 
4662.000000	0.913381 
4661.000000	0.913572 
4660.000000	0.913739 
4659.000000	0.913906 
4658.000000	0.914001 
4657.000000	0.914001 
4656.000000	0.913882 
4655.000000	0.913691 
4654.000000	0.913429 
4653.000000	0.913190 
4652.000000	0.913047 
4651.000000	0.913095 
4650.000000	0.913453 
4649.000000	0.914072 
4648.000000	0.915002 
4647.000000	0.916099 
4646.000000	0.917291 
4645.000000	0.918436 
4644.000000	0.919437 
4643.000000	0.920200 
4642.000000	0.920677 
4641.000000	0.920867 
4640.000000	0.920844 
4639.000000	0.920629 
4638.000000	0.920319 
4637.000000	0.919914 
4636.000000	0.919485 
4635.000000	0.919079 
4634.000000	0.918745 
4633.000000	0.918436 
4632.000000	0.918221 
4631.000000	0.918030 
4630.000000	0.917840 
4629.000000	0.917673 
4628.000000	0.917553 
4627.000000	0.917553 
4626.000000	0.917720 
4625.000000	0.918126 
4624.000000	0.918841 
4623.000000	0.919818 
4622.000000	0.920867 
4621.000000	0.921916 
4620.000000	0.922846 
4619.000000	0.923466 
4618.000000	0.923705 
4617.000000	0.923490 
4616.000000	0.922894 
4615.000000	0.922107 
4614.000000	0.921368 
4613.000000	0.920820 
4612.000000	0.920605 
4611.000000	0.920867 
4610.000000	0.921559 
4609.000000	0.922560 
4608.000000	0.923681 
4607.000000	0.924825 
4606.000000	0.925779 
4605.000000	0.926566 
4604.000000	0.927305 
4603.000000	0.928235 
4602.000000	0.929689 
4601.000000	0.931859 
4600.000000	0.934672 
4599.000000	0.937604 
4598.000000	0.939559 
4597.000000	0.938940 
4596.000000	0.933837 
4595.000000	0.922870 
4594.000000	0.905156 
4593.000000	0.881385 
4592.000000	0.853419 
4591.000000	0.824618 
4590.000000	0.799107 
4589.000000	0.781106 
4588.000000	0.773882 
4587.000000	0.779271 
4586.000000	0.796937 
4585.000000	0.824594 
4584.000000	0.858283 
4583.000000	0.893402 
4582.000000	0.925421 
4581.000000	0.950908 
4580.000000	0.968027 
4579.000000	0.976705 
4578.000000	0.978159 
4577.000000	0.974750 
4576.000000	0.968861 
4575.000000	0.962662 
4574.000000	0.957512 
4573.000000	0.954174 
4572.000000	0.952553 
4571.000000	0.952196 
4570.000000	0.952386 
4569.000000	0.952649 
4568.000000	0.952768 
4567.000000	0.952649 
4566.000000	0.952553 
4565.000000	0.952720 
4564.000000	0.953412 
4563.000000	0.954723 
4562.000000	0.956678 
4561.000000	0.959300 
4560.000000	0.962424 
4559.000000	0.965881 
4558.000000	0.969505 
4557.000000	0.973129 
4556.000000	0.976610 
4555.000000	0.979685 
4554.000000	0.982213 
4553.000000	0.983905 
4552.000000	0.984716 
4551.000000	0.984692 
4550.000000	0.983905 
4549.000000	0.982499 
4548.000000	0.980710 
4547.000000	0.978851 
4546.000000	0.977206 
4545.000000	0.976037 
4544.000000	0.975441 
4543.000000	0.975441 
4542.000000	0.976014 
4541.000000	0.976991 
4540.000000	0.978231 
4539.000000	0.979566 
4538.000000	0.980877 
4537.000000	0.982046 
4536.000000	0.982975 
4535.000000	0.983667 
4534.000000	0.984120 
4533.000000	0.984358 
4532.000000	0.984406 
4531.000000	0.984334 
4530.000000	0.984191 
4529.000000	0.984096 
4528.000000	0.984096 
4527.000000	0.984311 
4526.000000	0.984692 
4525.000000	0.985336 
4524.000000	0.986194 
4523.000000	0.987195 
4522.000000	0.988245 
4521.000000	0.989294 
4520.000000	0.990223 
4519.000000	0.990962 
4518.000000	0.991559 
4517.000000	0.991964 
4516.000000	0.992250 
4515.000000	0.992512 
4514.000000	0.992774 
4513.000000	0.993108 
4512.000000	0.993514 
4511.000000	0.994062 
4510.000000	0.994658 
4509.000000	0.995278 
4508.000000	0.995898 
4507.000000	0.996446 
4506.000000	0.996899 
4505.000000	0.997281 
4504.000000	0.997614 
4503.000000	0.997948 
4502.000000	0.998306 
4501.000000	0.998759 
4500.000000	0.999355 
4499.000000	1.000046 
4498.000000	1.000809 
4497.000000	1.001644 
4496.000000	1.002430 
4495.000000	1.003122 
4494.000000	1.003670 
4493.000000	1.004076 
4492.000000	1.004409 
4491.000000	1.004695 
4490.000000	1.004981 
4489.000000	1.005315 
4488.000000	1.005792 
4487.000000	1.006340 
4486.000000	1.006889 
4485.000000	1.007413 
4484.000000	1.007819 
4483.000000	1.008009 
4482.000000	1.008033 
4481.000000	1.007795 
4480.000000	1.007413 
4479.000000	1.006937 
4478.000000	1.006507 
4477.000000	1.006174 
4476.000000	1.006007 
4475.000000	1.006031 
4474.000000	1.006245 
4473.000000	1.006627 
4472.000000	1.007080 
4471.000000	1.007604 
4470.000000	1.008057 
4469.000000	1.008439 
4468.000000	1.008677 
4467.000000	1.008772 
4466.000000	1.008677 
4465.000000	1.008462 
4464.000000	1.008152 
4463.000000	1.007866 
4462.000000	1.007604 
4461.000000	1.007413 
4460.000000	1.007342 
4459.000000	1.007390 
4458.000000	1.007533 
4457.000000	1.007771 
4456.000000	1.008081 
4455.000000	1.008415 
4454.000000	1.008725 
4453.000000	1.009035 
4452.000000	1.009273 
4451.000000	1.009440 
4450.000000	1.009559 
4449.000000	1.009607 
4448.000000	1.009631 
4447.000000	1.009654 
4446.000000	1.009726 
4445.000000	1.009869 
4444.000000	1.010179 
4443.000000	1.010680 
4442.000000	1.011347 
4441.000000	1.012158 
4440.000000	1.013064 
4439.000000	1.013922 
4438.000000	1.014709 
4437.000000	1.015305 
4436.000000	1.015639 
4435.000000	1.015734 
4434.000000	1.015615 
4433.000000	1.015281 
4432.000000	1.014876 
4431.000000	1.014494 
4430.000000	1.014137 
4429.000000	1.013946 
4428.000000	1.013851 
4427.000000	1.013875 
4426.000000	1.013994 
4425.000000	1.014137 
4424.000000	1.014351 
4423.000000	1.014494 
4422.000000	1.014590 
4421.000000	1.014637 
4420.000000	1.014709 
4419.000000	1.014733 
4418.000000	1.014828 
4417.000000	1.014971 
4416.000000	1.015186 
4415.000000	1.015472 
4414.000000	1.015830 
4413.000000	1.016306 
4412.000000	1.016807 
4411.000000	1.017284 
4410.000000	1.017713 
4409.000000	1.018095 
4408.000000	1.018381 
4407.000000	1.018595 
4406.000000	1.018714 
4405.000000	1.018786 
4404.000000	1.018834 
4403.000000	1.018881 
4402.000000	1.019024 
4401.000000	1.019239 
4400.000000	1.019597 
4399.000000	1.020002 
4398.000000	1.020503 
4397.000000	1.021075 
4396.000000	1.021647 
4395.000000	1.022195 
4394.000000	1.022720 
4393.000000	1.023221 
4392.000000	1.023674 
4391.000000	1.024127 
4390.000000	1.024532 
4389.000000	1.024913 
4388.000000	1.025319 
4387.000000	1.025700 
4386.000000	1.026082 
4385.000000	1.026463 
4384.000000	1.026844 
4383.000000	1.027226 
4382.000000	1.027631 
4381.000000	1.028037 
4380.000000	1.028466 
4379.000000	1.028966 
4378.000000	1.029491 
4377.000000	1.030087 
4376.000000	1.030707 
4375.000000	1.031351 
4374.000000	1.032066 
4373.000000	1.032757 
4372.000000	1.033496 
4371.000000	1.034259 
4370.000000	1.035094 
4369.000000	1.036024 
4368.000000	1.037073 
4367.000000	1.038265 
4366.000000	1.039624 
4365.000000	1.041030 
4364.000000	1.042437 
4363.000000	1.043796 
4362.000000	1.045012 
4361.000000	1.046085 
4360.000000	1.046943 
4359.000000	1.047635 
4358.000000	1.048207 
4357.000000	1.048755 
4356.000000	1.049327 
4355.000000	1.050043 
4354.000000	1.050901 
4353.000000	1.051926 
4352.000000	1.053094 
4351.000000	1.054358 
4350.000000	1.055693 
4349.000000	1.057004 
4348.000000	1.058244 
4347.000000	1.059365 
4346.000000	1.060295 
4345.000000	1.061058 
4344.000000	1.061654 
4343.000000	1.062059 
4342.000000	1.062393 
4341.000000	1.062726 
4340.000000	1.063108 
4339.000000	1.063680 
4338.000000	1.064443 
4337.000000	1.065444 
4336.000000	1.066660 
4335.000000	1.068067 
4334.000000	1.069569 
4333.000000	1.071071 
4332.000000	1.072573 
4331.000000	1.073980 
4330.000000	1.075315 
4329.000000	1.076602 
4328.000000	1.077842 
4327.000000	1.079106 
4326.000000	1.080441 
4325.000000	1.081824 
4324.000000	1.083278 
4323.000000	1.084756 
4322.000000	1.086235 
4321.000000	1.087689 
4320.000000	1.089143 
4319.000000	1.090574 
4318.000000	1.091909 
4317.000000	1.093173 
4316.000000	1.094365 
4315.000000	1.095461 
4314.000000	1.096510 
4313.000000	1.097464 
4312.000000	1.098346 
4311.000000	1.099228 
4310.000000	1.100158 
4309.000000	1.101136 
4308.000000	1.102209 
4307.000000	1.103377 
4306.000000	1.104664 
4305.000000	1.106023 
4304.000000	1.107406 
4303.000000	1.108813 
4302.000000	1.110219 
4301.000000	1.111626 
4300.000000	1.113033 
4299.000000	1.114439 
4298.000000	1.115798 
4297.000000	1.117134 
4296.000000	1.118397 
4295.000000	1.119565 
4294.000000	1.120615 
4293.000000	1.121592 
4292.000000	1.122450 
4291.000000	1.123237 
4290.000000	1.124024 
4289.000000	1.124811 
4288.000000	1.125693 
4287.000000	1.126623 
4286.000000	1.127600 
4285.000000	1.128625 
4284.000000	1.129698 
4283.000000	1.130723 
4282.000000	1.131749 
4281.000000	1.132822 
4280.000000	1.133871 
4279.000000	1.134967 
4278.000000	1.136088 
4277.000000	1.137304 
4276.000000	1.138591 
4275.000000	1.139903 
4274.000000	1.141262 
4273.000000	1.142621 
4272.000000	1.143980 
4271.000000	1.145291 
4270.000000	1.146578 
4269.000000	1.147794 
4268.000000	1.148986 
4267.000000	1.150083 
4266.000000	1.151108 
4265.000000	1.152062 
4264.000000	1.152944 
4263.000000	1.153779 
4262.000000	1.154541 
4261.000000	1.155304 
4260.000000	1.156044 
4259.000000	1.156783 
4258.000000	1.157546 
4257.000000	1.158332 
4256.000000	1.159119 
4255.000000	1.159858 
4254.000000	1.160550 
4253.000000	1.161193 
4252.000000	1.161837 
4251.000000	1.162433 
4250.000000	1.163053 
4249.000000	1.163744 
4248.000000	1.164484 
4247.000000	1.165342 
4246.000000	1.166224 
4245.000000	1.167130 
4244.000000	1.167964 
4243.000000	1.168775 
4242.000000	1.169490 
4241.000000	1.170110 
4240.000000	1.170659 
4239.000000	1.171135 
4238.000000	1.171612 
4237.000000	1.172137 
4236.000000	1.172685 
4235.000000	1.173305 
4234.000000	1.173996 
4233.000000	1.174831 
4232.000000	1.175737 
4231.000000	1.176714 
4230.000000	1.177811 
4229.000000	1.178932 
4228.000000	1.180076 
4227.000000	1.181125 
4226.000000	1.182126 
4225.000000	1.182961 
4224.000000	1.183652 
4223.000000	1.184153 
4222.000000	1.184487 
4221.000000	1.184725 
4220.000000	1.184892 
4219.000000	1.185059 
4218.000000	1.185345 
4217.000000	1.185727 
4216.000000	1.186180 
4215.000000	1.186728 
4214.000000	1.187348 
4213.000000	1.187992 
4212.000000	1.188659 
4211.000000	1.189327 
4210.000000	1.189970 
4209.000000	1.190614 
4208.000000	1.191306 
4207.000000	1.191997 
4206.000000	1.192736 
4205.000000	1.193428 
4204.000000	1.194071 
4203.000000	1.194596 
4202.000000	1.195025 
4201.000000	1.195311 
4200.000000	1.195502 
4199.000000	1.195669 
4198.000000	1.195859 
4197.000000	1.196146 
4196.000000	1.196622 
4195.000000	1.197290 
4194.000000	1.198124 
4193.000000	1.199150 
4192.000000	1.200175 
4191.000000	1.201152 
4190.000000	1.201963 
4189.000000	1.202464 
4188.000000	1.202583 
4187.000000	1.202344 
4186.000000	1.201748 
4185.000000	1.200914 
4184.000000	1.199984 
4183.000000	1.199030 
4182.000000	1.198291 
4181.000000	1.197886 
4180.000000	1.197910 
4179.000000	1.198315 
4178.000000	1.199126 
4177.000000	1.200246 
4176.000000	1.201534 
4175.000000	1.202893 
4174.000000	1.204156 
4173.000000	1.205253 
4172.000000	1.206111 
4171.000000	1.206755 
4170.000000	1.207280 
4169.000000	1.207756 
4168.000000	1.208257 
4167.000000	1.208877 
4166.000000	1.209688 
4165.000000	1.210641 
4164.000000	1.211738 
4163.000000	1.212930 
4162.000000	1.214170 
4161.000000	1.215386 
4160.000000	1.216506 
4159.000000	1.217460 
4158.000000	1.218247 
4157.000000	1.218843 
4156.000000	1.219224 
4155.000000	1.219439 
4154.000000	1.219511 
4153.000000	1.219439 
4152.000000	1.219320 
4151.000000	1.219177 
4150.000000	1.219081 
4149.000000	1.219058 
4148.000000	1.219224 
4147.000000	1.219558 
4146.000000	1.220130 
4145.000000	1.220965 
4144.000000	1.221990 
4143.000000	1.223206 
4142.000000	1.224517 
4141.000000	1.225829 
4140.000000	1.227092 
4139.000000	1.228165 
4138.000000	1.229095 
4137.000000	1.229834 
4136.000000	1.230430 
4135.000000	1.230931 
4134.000000	1.231408 
4133.000000	1.231861 
4132.000000	1.232361 
4131.000000	1.232910 
4130.000000	1.233553 
4129.000000	1.234340 
4128.000000	1.235294 
4127.000000	1.236438 
4126.000000	1.237821 
4125.000000	1.239442 
4124.000000	1.241302 
4123.000000	1.243305 
4122.000000	1.245379 
4121.000000	1.247382 
4120.000000	1.249194 
4119.000000	1.250696 
4118.000000	1.251864 
4117.000000	1.252675 
4116.000000	1.253175 
4115.000000	1.253533 
4114.000000	1.253867 
4113.000000	1.254296 
4112.000000	1.254892 
4111.000000	1.255631 
4110.000000	1.256489 
4109.000000	1.257300 
4108.000000	1.257991 
4107.000000	1.258349 
4106.000000	1.258349 
4105.000000	1.257920 
4104.000000	1.257157 
4103.000000	1.256203 
4102.000000	1.255273 
4101.000000	1.254630 
4100.000000	1.254415 
4099.000000	1.254796 
4098.000000	1.255750 
4097.000000	1.257276 
4096.000000	1.259255 
4095.000000	1.261591 
4094.000000	1.264095 
4093.000000	1.266622 
4092.000000	1.269030 
4091.000000	1.271247 
4090.000000	1.273202 
4089.000000	1.274752 
4088.000000	1.275897 
4087.000000	1.276683 
4086.000000	1.277112 
4085.000000	1.277375 
4084.000000	1.277613 
4083.000000	1.278114 
4082.000000	1.279020 
4081.000000	1.280426 
4080.000000	1.282429 
4079.000000	1.284837 
4078.000000	1.287436 
4077.000000	1.290011 
4076.000000	1.292252 
4075.000000	1.294064 
4074.000000	1.295351 
4073.000000	1.296138 
4072.000000	1.296615 
4071.000000	1.297068 
4070.000000	1.297640 
4069.000000	1.298522 
4068.000000	1.299786 
4067.000000	1.301431 
4066.000000	1.303362 
4065.000000	1.305508 
4064.000000	1.307630 
4063.000000	1.309752 
4062.000000	1.311755 
4061.000000	1.313638 
4060.000000	1.315402 
4059.000000	1.317048 
4058.000000	1.318573 
4057.000000	1.319980 
4056.000000	1.321315 
4055.000000	1.322507 
4054.000000	1.323652 
4053.000000	1.324725 
4052.000000	1.325798 
4051.000000	1.326894 
4050.000000	1.328086 
4049.000000	1.329421 
4048.000000	1.330804 
4047.000000	1.332306 
4046.000000	1.333880 
4045.000000	1.335406 
4044.000000	1.336836 
4043.000000	1.338148 
4042.000000	1.339340 
4041.000000	1.340460 
4040.000000	1.341485 
4039.000000	1.342582 
4038.000000	1.343846 
4037.000000	1.345252 
4036.000000	1.346874 
4035.000000	1.348686 
4034.000000	1.350641 
4033.000000	1.352643 
4032.000000	1.354622 
4031.000000	1.356458 
4030.000000	1.358151 
4029.000000	1.359629 
4028.000000	1.360869 
4027.000000	1.361966 
4026.000000	1.362848 
4025.000000	1.363635 
4024.000000	1.364302 
4023.000000	1.364922 
4022.000000	1.365590 
4021.000000	1.366353 
4020.000000	1.367259 
4019.000000	1.368331 
4018.000000	1.369643 
4017.000000	1.371049 
4016.000000	1.372575 
4015.000000	1.374030 
4014.000000	1.375389 
4013.000000	1.376485 
4012.000000	1.377248 
4011.000000	1.377725 
4010.000000	1.377844 
4009.000000	1.377701 
4008.000000	1.377415 
4007.000000	1.377081 
4006.000000	1.376867 
4005.000000	1.376914 
4004.000000	1.377320 
4003.000000	1.378107 
4002.000000	1.379323 
4001.000000	1.380896 
4000.000000	1.382732 
3999.000000	1.384735 
3998.000000	1.386737 
3997.000000	1.388645 
3996.000000	1.390385 
3995.000000	1.391911 
3994.000000	1.393222 
3993.000000	1.394295 
3992.000000	1.395201 
3991.000000	1.395988 
3990.000000	1.396656 
3989.000000	1.397228 
3988.000000	1.397633 
3987.000000	1.397919 
3986.000000	1.398086 
3985.000000	1.398134 
3984.000000	1.398158 
3983.000000	1.398181 
3982.000000	1.398324 
3981.000000	1.398611 
3980.000000	1.399135 
3979.000000	1.399779 
3978.000000	1.400566 
3977.000000	1.401495 
3976.000000	1.402425 
3975.000000	1.403379 
3974.000000	1.404309 
3973.000000	1.405143 
3972.000000	1.405954 
3971.000000	1.406669 
3970.000000	1.407313 
3969.000000	1.407885 
3968.000000	1.408386 
3967.000000	1.408743 
3966.000000	1.409053 
3965.000000	1.409268 
3964.000000	1.409459 
3963.000000	1.409649 
3962.000000	1.409912 
3961.000000	1.410293 
3960.000000	1.410770 
3959.000000	1.411366 
3958.000000	1.412081 
3957.000000	1.412844 
3956.000000	1.413583 
3955.000000	1.414299 
3954.000000	1.414966 
3953.000000	1.415467 
3952.000000	1.415824 
3951.000000	1.416063 
3950.000000	1.416110 
3949.000000	1.416039 
3948.000000	1.415848 
3947.000000	1.415562 
3946.000000	1.415205 
3945.000000	1.414823 
3944.000000	1.414442 
3943.000000	1.414132 
3942.000000	1.413917 
3941.000000	1.413846 
3940.000000	1.413917 
3939.000000	1.414155 
3938.000000	1.414561 
3937.000000	1.415085 
3936.000000	1.415681 
3935.000000	1.416349 
3934.000000	1.417040 
3933.000000	1.417660 
3932.000000	1.418232 
3931.000000	1.418709 
3930.000000	1.419115 
3929.000000	1.419448 
3928.000000	1.419758 
3927.000000	1.420021 
3926.000000	1.420283 
3925.000000	1.420521 
3924.000000	1.420760 
3923.000000	1.420950 
3922.000000	1.421141 
3921.000000	1.421260 
3920.000000	1.421332 
3919.000000	1.421332 
3918.000000	1.421332 
3917.000000	1.421308 
3916.000000	1.421308 
3915.000000	1.421380 
3914.000000	1.421475 
3913.000000	1.421618 
3912.000000	1.421666 
3911.000000	1.421642 
3910.000000	1.421427 
3909.000000	1.421070 
3908.000000	1.420545 
3907.000000	1.419925 
3906.000000	1.419305 
3905.000000	1.418781 
3904.000000	1.418519 
3903.000000	1.418566 
3902.000000	1.418972 
3901.000000	1.419734 
3900.000000	1.420783 
3899.000000	1.421999 
3898.000000	1.423311 
3897.000000	1.424574 
3896.000000	1.425695 
3895.000000	1.426577 
3894.000000	1.427268 
3893.000000	1.427674 
3892.000000	1.427865 
3891.000000	1.427888 
3890.000000	1.427769 
3889.000000	1.427602 
3888.000000	1.427435 
3887.000000	1.427388 
3886.000000	1.427507 
3885.000000	1.427936 
3884.000000	1.428604 
3883.000000	1.429581 
3882.000000	1.430797 
3881.000000	1.432132 
3880.000000	1.433467 
3879.000000	1.434612 
3878.000000	1.435399 
3877.000000	1.435828 
3876.000000	1.435804 
3875.000000	1.435422 
3874.000000	1.434755 
3873.000000	1.433944 
3872.000000	1.433253 
3871.000000	1.432728 
3870.000000	1.432561 
3869.000000	1.432871 
3868.000000	1.433634 
3867.000000	1.434922 
3866.000000	1.436614 
3865.000000	1.438498 
3864.000000	1.440453 
3863.000000	1.442241 
3862.000000	1.443600 
3861.000000	1.444339 
3860.000000	1.444363 
3859.000000	1.443672 
3858.000000	1.442432 
3857.000000	1.441049 
3856.000000	1.439809 
3855.000000	1.439118 
3854.000000	1.439285 
3853.000000	1.440453 
3852.000000	1.442599 
3851.000000	1.445555 
3850.000000	1.448965 
3849.000000	1.452445 
3848.000000	1.455593 
3847.000000	1.458144 
3846.000000	1.459908 
3845.000000	1.460909 
3844.000000	1.461172 
3843.000000	1.460909 
3842.000000	1.460409 
3841.000000	1.459813 
3840.000000	1.459407 
3839.000000	1.459288 
3838.000000	1.459574 
3837.000000	1.460361 
3836.000000	1.461482 
3835.000000	1.462960 
3834.000000	1.464700 
3833.000000	1.466584 
3832.000000	1.468443 
3831.000000	1.470208 
3830.000000	1.471781 
3829.000000	1.473093 
3828.000000	1.474142 
3827.000000	1.474952 
3826.000000	1.475596 
3825.000000	1.476073 
3824.000000	1.476478 
3823.000000	1.476955 
3822.000000	1.477599 
3821.000000	1.478457 
3820.000000	1.479625 
3819.000000	1.481151 
3818.000000	1.483058 
3817.000000	1.485252 
3816.000000	1.487660 
3815.000000	1.490116 
3814.000000	1.492500 
3813.000000	1.494598 
3812.000000	1.496267 
3811.000000	1.497483 
3810.000000	1.498198 
3809.000000	1.498484 
3808.000000	1.498508 
3807.000000	1.498389 
3806.000000	1.498365 
3805.000000	1.498603 
3804.000000	1.499223 
3803.000000	1.500272 
3802.000000	1.501798 
3801.000000	1.503753 
3800.000000	1.506066 
3799.000000	1.508617 
3798.000000	1.511263 
3797.000000	1.513910 
3796.000000	1.516437 
3795.000000	1.518774 
3794.000000	1.520848 
3793.000000	1.522660 
3792.000000	1.524209 
3791.000000	1.525521 
3790.000000	1.526641 
3789.000000	1.527643 
3788.000000	1.528501 
3787.000000	1.529312 
3786.000000	1.530122 
3785.000000	1.530933 
3784.000000	1.531744 
3783.000000	1.532649 
3782.000000	1.533699 
3781.000000	1.534819 
3780.000000	1.536011 
3779.000000	1.537227 
3778.000000	1.538395 
3777.000000	1.539373 
3776.000000	1.540112 
3775.000000	1.540565 
3774.000000	1.540756 
3773.000000	1.540780 
3772.000000	1.540732 
3771.000000	1.540780 
3770.000000	1.541018 
3769.000000	1.541614 
3768.000000	1.542568 
3767.000000	1.543807 
3766.000000	1.545238 
3765.000000	1.546764 
3764.000000	1.548171 
3763.000000	1.549291 
3762.000000	1.550030 
3761.000000	1.550292 
3760.000000	1.549983 
3759.000000	1.549148 
3758.000000	1.547741 
3757.000000	1.545906 
3756.000000	1.543688 
3755.000000	1.541328 
3754.000000	1.538896 
3753.000000	1.536583 
3752.000000	1.534557 
3751.000000	1.532936 
3750.000000	1.531863 
3749.000000	1.531386 
3748.000000	1.531553 
3747.000000	1.532363 
3746.000000	1.533722 
3745.000000	1.535534 
3744.000000	1.537680 
3743.000000	1.539897 
3742.000000	1.541996 
3741.000000	1.543879 
3740.000000	1.545357 
3739.000000	1.546406 
3738.000000	1.547122 
3737.000000	1.547670 
3736.000000	1.548194 
3735.000000	1.548910 
3734.000000	1.549959 
3733.000000	1.551365 
3732.000000	1.553106 
3731.000000	1.555037 
3730.000000	1.556992 
3729.000000	1.558804 
3728.000000	1.560354 
3727.000000	1.561641 
3726.000000	1.562643 
3725.000000	1.563429 
3724.000000	1.564073 
3723.000000	1.564669 
3722.000000	1.565194 
3721.000000	1.565623 
3720.000000	1.565957 
3719.000000	1.566004 
3718.000000	1.565814 
3717.000000	1.565337 
3716.000000	1.564669 
3715.000000	1.563882 
3714.000000	1.563143 
3713.000000	1.562595 
3712.000000	1.562261 
3711.000000	1.562261 
3710.000000	1.562595 
3709.000000	1.563191 
3708.000000	1.563930 
3707.000000	1.564717 
3706.000000	1.565504 
3705.000000	1.566219 
3704.000000	1.566910 
3703.000000	1.567506 
3702.000000	1.568102 
3701.000000	1.568579 
3700.000000	1.568937 
3699.000000	1.569128 
3698.000000	1.569032 
3697.000000	1.568555 
3696.000000	1.567697 
3695.000000	1.566410 
3694.000000	1.564884 
3693.000000	1.563262 
3692.000000	1.561808 
3691.000000	1.560735 
3690.000000	1.560187 
3689.000000	1.560258 
3688.000000	1.560926 
3687.000000	1.561999 
3686.000000	1.563215 
3685.000000	1.564288 
3684.000000	1.565003 
3683.000000	1.565122 
3682.000000	1.564598 
3681.000000	1.563382 
3680.000000	1.561641 
3679.000000	1.559567 
3678.000000	1.557397 
3677.000000	1.555323 
3676.000000	1.553654 
3675.000000	1.552462 
3674.000000	1.551938 
3673.000000	1.552057 
3672.000000	1.552844 
3671.000000	1.554203 
3670.000000	1.556062 
3669.000000	1.558303 
3668.000000	1.560759 
3667.000000	1.563215 
3666.000000	1.565527 
3665.000000	1.567506 
3664.000000	1.569056 
3663.000000	1.570105 
3662.000000	1.570582 
3661.000000	1.570510 
3660.000000	1.569938 
3659.000000	1.568961 
3658.000000	1.567625 
3657.000000	1.566028 
3656.000000	1.564240 
3655.000000	1.562380 
3654.000000	1.560616 
3653.000000	1.559066 
3652.000000	1.557922 
3651.000000	1.557374 
3650.000000	1.557517 
3649.000000	1.558446 
3648.000000	1.560020 
3647.000000	1.562094 
3646.000000	1.564478 
3645.000000	1.566910 
3644.000000	1.569175 
3643.000000	1.571130 
3642.000000	1.572608 
3641.000000	1.573634 
3640.000000	1.574230 
3639.000000	1.574397 
3638.000000	1.574158 
3637.000000	1.573538 
3636.000000	1.572585 
3635.000000	1.571249 
3634.000000	1.569724 
3633.000000	1.568055 
3632.000000	1.566505 
3631.000000	1.565265 
3630.000000	1.564478 
3629.000000	1.564335 
3628.000000	1.564741 
3627.000000	1.565599 
3626.000000	1.566791 
3625.000000	1.568055 
3624.000000	1.569151 
3623.000000	1.569986 
3622.000000	1.570439 
3621.000000	1.570606 
3620.000000	1.570534 
3619.000000	1.570367 
3618.000000	1.570200 
3617.000000	1.570105 
3616.000000	1.570200 
3615.000000	1.570439 
3614.000000	1.570868 
3613.000000	1.571488 
3612.000000	1.572275 
3611.000000	1.573228 
3610.000000	1.574397 
3609.000000	1.575732 
3608.000000	1.577258 
3607.000000	1.578831 
3606.000000	1.580405 
3605.000000	1.581859 
3604.000000	1.583194 
3603.000000	1.584362 
3602.000000	1.585292 
3601.000000	1.586031 
3600.000000	1.586627 
3599.000000	1.587009 
3598.000000	1.587319 
3597.000000	1.587414 
3596.000000	1.587390 
3595.000000	1.587224 
3594.000000	1.586914 
3593.000000	1.586484 
3592.000000	1.586079 
3591.000000	1.585698 
3590.000000	1.585531 
3589.000000	1.585578 
3588.000000	1.585936 
3587.000000	1.586556 
3586.000000	1.587486 
3585.000000	1.588559 
3584.000000	1.589775 
3583.000000	1.590967 
3582.000000	1.592111 
3581.000000	1.593184 
3580.000000	1.594114 
3579.000000	1.594924 
3578.000000	1.595616 
3577.000000	1.596212 
3576.000000	1.596736 
3575.000000	1.597213 
3574.000000	1.597571 
3573.000000	1.597809 
3572.000000	1.597976 
3571.000000	1.598072 
3570.000000	1.598167 
3569.000000	1.598286 
3568.000000	1.598525 
3567.000000	1.598906 
3566.000000	1.599383 
3565.000000	1.600003 
3564.000000	1.600718 
3563.000000	1.601457 
3562.000000	1.602196 
3561.000000	1.602959 
3560.000000	1.603698 
3559.000000	1.604485 
3558.000000	1.605296 
3557.000000	1.606225 
3556.000000	1.607251 
3555.000000	1.608300 
3554.000000	1.609420 
3553.000000	1.610398 
3552.000000	1.611232 
3551.000000	1.611900 
3550.000000	1.612377 
3549.000000	1.612734 
3548.000000	1.613020 
3547.000000	1.613235 
3546.000000	1.613497 
3545.000000	1.613783 
3544.000000	1.614093 
3543.000000	1.614403 
3542.000000	1.614689 
3541.000000	1.614832 
3540.000000	1.614832 
3539.000000	1.614713 
3538.000000	1.614499 
3537.000000	1.614165 
3536.000000	1.613831 
3535.000000	1.613450 
3534.000000	1.613163 
3533.000000	1.612997 
3532.000000	1.612949 
3531.000000	1.613068 
3530.000000	1.613378 
3529.000000	1.613879 
3528.000000	1.614522 
3527.000000	1.615309 
3526.000000	1.616144 
3525.000000	1.617050 
3524.000000	1.617884 
3523.000000	1.618671 
3522.000000	1.619386 
3521.000000	1.619958 
3520.000000	1.620411 
3519.000000	1.620697 
3518.000000	1.620817 
3517.000000	1.620769 
3516.000000	1.620531 
3515.000000	1.620101 
3514.000000	1.619529 
3513.000000	1.618838 
3512.000000	1.618123 
3511.000000	1.617407 
3510.000000	1.616740 
3509.000000	1.616168 
3508.000000	1.615715 
3507.000000	1.615357 
3506.000000	1.615095 
3505.000000	1.614880 
3504.000000	1.614642 
3503.000000	1.614451 
3502.000000	1.614260 
3501.000000	1.614069 
3500.000000	1.613903 
3499.000000	1.613736 
3498.000000	1.613521 
3497.000000	1.613330 
3496.000000	1.613068 
3495.000000	1.612758 
3494.000000	1.612353 
3493.000000	1.611828 
3492.000000	1.611256 
3491.000000	1.610541 
3490.000000	1.609778 
3489.000000	1.608967 
3488.000000	1.608133 
3487.000000	1.607298 
3486.000000	1.606464 
3485.000000	1.605629 
3484.000000	1.604747 
3483.000000	1.603937 
3482.000000	1.603126 
3481.000000	1.602363 
3480.000000	1.601624 
3479.000000	1.600885 
3478.000000	1.600241 
3477.000000	1.599669 
3476.000000	1.599168 
3475.000000	1.598715 
3474.000000	1.598334 
3473.000000	1.598000 
3472.000000	1.597714 
3471.000000	1.597499 
3470.000000	1.597309 
3469.000000	1.597166 
3468.000000	1.596999 
3467.000000	1.596856 
3466.000000	1.596689 
3465.000000	1.596522 
3464.000000	1.596283 
3463.000000	1.595997 
3462.000000	1.595664 
3461.000000	1.595258 
3460.000000	1.594853 
3459.000000	1.594376 
3458.000000	1.593875 
3457.000000	1.593399 
3456.000000	1.592946 
3455.000000	1.592516 
3454.000000	1.592063 
3453.000000	1.591610 
3452.000000	1.591062 
3451.000000	1.590418 
3450.000000	1.589608 
3449.000000	1.588654 
3448.000000	1.587533 
3447.000000	1.586294 
3446.000000	1.584982 
3445.000000	1.583647 
3444.000000	1.582312 
3443.000000	1.581072 
3442.000000	1.579976 
3441.000000	1.578998 
3440.000000	1.578164 
3439.000000	1.577401 
3438.000000	1.576733 
3437.000000	1.576209 
3436.000000	1.575708 
3435.000000	1.575255 
3434.000000	1.574873 
3433.000000	1.574587 
3432.000000	1.574373 
3431.000000	1.574301 
3430.000000	1.574301 
3429.000000	1.574373 
3428.000000	1.574540 
3427.000000	1.574683 
3426.000000	1.574826 
3425.000000	1.574969 
3424.000000	1.575112 
3423.000000	1.575255 
3422.000000	1.575398 
3421.000000	1.575517 
3420.000000	1.575684 
3419.000000	1.575875 
3418.000000	1.576113 
3417.000000	1.576352 
3416.000000	1.576614 
3415.000000	1.576900 
3414.000000	1.577234 
3413.000000	1.577639 
3412.000000	1.578164 
3411.000000	1.578807 
3410.000000	1.579570 
3409.000000	1.580500 
3408.000000	1.581501 
3407.000000	1.582574 
3406.000000	1.583623 
3405.000000	1.584625 
3404.000000	1.585531 
3403.000000	1.586294 
3402.000000	1.586842 
3401.000000	1.587224 
3400.000000	1.587486 
3399.000000	1.587653 
3398.000000	1.587748 
3397.000000	1.587867 
3396.000000	1.588106 
3395.000000	1.588439 
3394.000000	1.588869 
3393.000000	1.589417 
3392.000000	1.590037 
3391.000000	1.590728 
3390.000000	1.591467 
3389.000000	1.592183 
3388.000000	1.592922 
3387.000000	1.593637 
3386.000000	1.594328 
3385.000000	1.595020 
3384.000000	1.595711 
3383.000000	1.596379 
3382.000000	1.597070 
3381.000000	1.597762 
3380.000000	1.598429 
3379.000000	1.599144 
3378.000000	1.599860 
3377.000000	1.600646 
3376.000000	1.601529 
3375.000000	1.602411 
3374.000000	1.603412 
3373.000000	1.604509 
3372.000000	1.605677 
3371.000000	1.606893 
3370.000000	1.608204 
3369.000000	1.609539 
3368.000000	1.610898 
3367.000000	1.612257 
3366.000000	1.613664 
3365.000000	1.615118 
3364.000000	1.616573 
3363.000000	1.618051 
3362.000000	1.619529 
3361.000000	1.621031 
3360.000000	1.622509 
3359.000000	1.623964 
3358.000000	1.625347 
3357.000000	1.626658 
3356.000000	1.627945 
3355.000000	1.629209 
3354.000000	1.630449 
3353.000000	1.631736 
3352.000000	1.633119 
3351.000000	1.634597 
3350.000000	1.636219 
3349.000000	1.637959 
3348.000000	1.639819 
3347.000000	1.641750 
3346.000000	1.643681 
3345.000000	1.645612 
3344.000000	1.647448 
3343.000000	1.649236 
3342.000000	1.650881 
3341.000000	1.652455 
3340.000000	1.653909 
3339.000000	1.655316 
3338.000000	1.656651 
3337.000000	1.657938 
3336.000000	1.659250 
3335.000000	1.660561 
3334.000000	1.661896 
3333.000000	1.663303 
3332.000000	1.664733 
3331.000000	1.666235 
3330.000000	1.667737 
3329.000000	1.669216 
3328.000000	1.670646 
3327.000000	1.672077 
3326.000000	1.673412 
3325.000000	1.674723 
3324.000000	1.676011 
3323.000000	1.677322 
3322.000000	1.678681 
3321.000000	1.680040 
3320.000000	1.681447 
3319.000000	1.682853 
3318.000000	1.684236 
3317.000000	1.685595 
3316.000000	1.686882 
3315.000000	1.688075 
3314.000000	1.689219 
3313.000000	1.690316 
3312.000000	1.691389 
3311.000000	1.692485 
3310.000000	1.693606 
3309.000000	1.694822 
3308.000000	1.696062 
3307.000000	1.697373 
3306.000000	1.698780 
3305.000000	1.700258 
3304.000000	1.701784 
3303.000000	1.703333 
3302.000000	1.704907 
3301.000000	1.706457 
3300.000000	1.707983 
3299.000000	1.709461 
3298.000000	1.710867 
3297.000000	1.712203 
3296.000000	1.713442 
3295.000000	1.714611 
3294.000000	1.715707 
3293.000000	1.716804 
3292.000000	1.717877 
3291.000000	1.718926 
3290.000000	1.720023 
3289.000000	1.721215 
3288.000000	1.722431 
3287.000000	1.723766 
3286.000000	1.725172 
3285.000000	1.726627 
3284.000000	1.728129 
3283.000000	1.729631 
3282.000000	1.731157 
3281.000000	1.732635 
3280.000000	1.734089 
3279.000000	1.735544 
3278.000000	1.736974 
3277.000000	1.738381 
3276.000000	1.739764 
3275.000000	1.741051 
3274.000000	1.742291 
3273.000000	1.743412 
3272.000000	1.744437 
3271.000000	1.745367 
3270.000000	1.746249 
3269.000000	1.747107 
3268.000000	1.747989 
3267.000000	1.748847 
3266.000000	1.749706 
3265.000000	1.750516 
3264.000000	1.751255 
3263.000000	1.751899 
3262.000000	1.752424 
3261.000000	1.752924 
3260.000000	1.753377 
3259.000000	1.753926 
3258.000000	1.754546 
3257.000000	1.755332 
3256.000000	1.756286 
3255.000000	1.757359 
3254.000000	1.758527 
3253.000000	1.759696 
3252.000000	1.760816 
3251.000000	1.761794 
3250.000000	1.762604 
3249.000000	1.763248 
3248.000000	1.763725 
3247.000000	1.764130 
3246.000000	1.764488 
3245.000000	1.764869 
3244.000000	1.765251 
3243.000000	1.765656 
3242.000000	1.766085 
3241.000000	1.766514 
3240.000000	1.766967 
3239.000000	1.767349 
3238.000000	1.767683 
3237.000000	1.767969 
3236.000000	1.768207 
3235.000000	1.768445 
3234.000000	1.768708 
3233.000000	1.768994 
3232.000000	1.769328 
3231.000000	1.769709 
3230.000000	1.770138 
3229.000000	1.770544 
3228.000000	1.770925 
3227.000000	1.771283 
3226.000000	1.771593 
3225.000000	1.771879 
3224.000000	1.772189 
3223.000000	1.772475 
3222.000000	1.772785 
3221.000000	1.773142 
3220.000000	1.773524 
3219.000000	1.773929 
3218.000000	1.774334 
3217.000000	1.774764 
3216.000000	1.775169 
3215.000000	1.775598 
3214.000000	1.775956 
3213.000000	1.776337 
3212.000000	1.776695 
3211.000000	1.777052 
3210.000000	1.777362 
3209.000000	1.777720 
3208.000000	1.778101 
3207.000000	1.778459 
3206.000000	1.778864 
3205.000000	1.779198 
3204.000000	1.779508 
3203.000000	1.779770 
3202.000000	1.779913 
3201.000000	1.779937 
3200.000000	1.779818 
3199.000000	1.779603 
3198.000000	1.779270 
3197.000000	1.778912 
3196.000000	1.778578 
3195.000000	1.778292 
3194.000000	1.778030 
3193.000000	1.777958 
3192.000000	1.777935 
3191.000000	1.778078 
3190.000000	1.778268 
3189.000000	1.778554 
3188.000000	1.778888 
3187.000000	1.779246 
3186.000000	1.779627 
3185.000000	1.779985 
3184.000000	1.780390 
3183.000000	1.780843 
3182.000000	1.781320 
3181.000000	1.781845 
3180.000000	1.782393 
3179.000000	1.782989 
3178.000000	1.783561 
3177.000000	1.784086 
3176.000000	1.784563 
3175.000000	1.784944 
3174.000000	1.785230 
3173.000000	1.785469 
3172.000000	1.785659 
3171.000000	1.785802 
3170.000000	1.785922 
3169.000000	1.786041 
3168.000000	1.786184 
3167.000000	1.786351 
3166.000000	1.786541 
3165.000000	1.786756 
3164.000000	1.787066 
3163.000000	1.787400 
3162.000000	1.787781 
3161.000000	1.788234 
3160.000000	1.788735 
3159.000000	1.789331 
3158.000000	1.789999 
3157.000000	1.790738 
3156.000000	1.791572 
3155.000000	1.792502 
3154.000000	1.793527 
3153.000000	1.794624 
3152.000000	1.795792 
3151.000000	1.797008 
3150.000000	1.798248 
3149.000000	1.799464 
3148.000000	1.800608 
3147.000000	1.801681 
3146.000000	1.802682 
3145.000000	1.803612 
3144.000000	1.804494 
3143.000000	1.805329 
3142.000000	1.806187 
3141.000000	1.807093 
3140.000000	1.808071 
3139.000000	1.809144 
3138.000000	1.810288 
3137.000000	1.811528 
3136.000000	1.812839 
3135.000000	1.814222 
3134.000000	1.815629 
3133.000000	1.817035 
3132.000000	1.818394 
3131.000000	1.819682 
3130.000000	1.820874 
3129.000000	1.821923 
3128.000000	1.822829 
3127.000000	1.823592 
3126.000000	1.824188 
3125.000000	1.824712 
3124.000000	1.825189 
3123.000000	1.825666 
3122.000000	1.826214 
3121.000000	1.826882 
3120.000000	1.827692 
3119.000000	1.828670 
3118.000000	1.829838 
3117.000000	1.831150 
3116.000000	1.832556 
3115.000000	1.834106 
3114.000000	1.835727 
3113.000000	1.837372 
3112.000000	1.839041 
3111.000000	1.840710 
3110.000000	1.842403 
3109.000000	1.844096 
3108.000000	1.845812 
3107.000000	1.847529 
3106.000000	1.849222 
3105.000000	1.850962 
3104.000000	1.852703 
3103.000000	1.854491 
3102.000000	1.856374 
3101.000000	1.858329 
3100.000000	1.860332 
3099.000000	1.862406 
3098.000000	1.864528 
3097.000000	1.866674 
3096.000000	1.868820 
3095.000000	1.870894 
3094.000000	1.872897 
3093.000000	1.874852 
3092.000000	1.876759 
3091.000000	1.878666 
3090.000000	1.880574 
3089.000000	1.882553 
3088.000000	1.884579 
3087.000000	1.886701 
3086.000000	1.888871 
3085.000000	1.891016 
3084.000000	1.893115 
3083.000000	1.895093 
3082.000000	1.896810 
3081.000000	1.898384 
3080.000000	1.899766 
3079.000000	1.900982 
3078.000000	1.902103 
3077.000000	1.903200 
3076.000000	1.904296 
3075.000000	1.905441 
3074.000000	1.906633 
3073.000000	1.907873 
3072.000000	1.909184 
3071.000000	1.910519 
3070.000000	1.911902 
3069.000000	1.913332 
3068.000000	1.914834 
3067.000000	1.916432 
3066.000000	1.918101 
3065.000000	1.919817 
3064.000000	1.921558 
3063.000000	1.923274 
3062.000000	1.924967 
3061.000000	1.926612 
3060.000000	1.928234 
3059.000000	1.929831 
3058.000000	1.931476 
3057.000000	1.933217 
3056.000000	1.935029 
3055.000000	1.936936 
3054.000000	1.938891 
3053.000000	1.940846 
3052.000000	1.942682 
3051.000000	1.944375 
3050.000000	1.945853 
3049.000000	1.947140 
3048.000000	1.948261 
3047.000000	1.949238 
3046.000000	1.950168 
3045.000000	1.951050 
3044.000000	1.952052 
3043.000000	1.953125 
3042.000000	1.954293 
3041.000000	1.955556 
3040.000000	1.956844 
3039.000000	1.958060 
3038.000000	1.959180 
3037.000000	1.960182 
3036.000000	1.960921 
3035.000000	1.961398 
3034.000000	1.961612 
3033.000000	1.961588 
3032.000000	1.961278 
3031.000000	1.960754 
3030.000000	1.960039 
3029.000000	1.959133 
3028.000000	1.958084 
3027.000000	1.956868 
3026.000000	1.955485 
3025.000000	1.953983 
3024.000000	1.952362 
3023.000000	1.950716 
3022.000000	1.949119 
3021.000000	1.947808 
3020.000000	1.946878 
3019.000000	1.946592 
3018.000000	1.947093 
3017.000000	1.948428 
3016.000000	1.950669 
3015.000000	1.953816 
3014.000000	1.957726 
3013.000000	1.962280 
3012.000000	1.967263 
3011.000000	1.972436 
3010.000000	1.977586 
3009.000000	1.982545 
3008.000000	1.987147 
3007.000000	1.991295 
3006.000000	1.994919 
3005.000000	1.998066 
3004.000000	2.000784 
3003.000000	2.003121 
3002.000000	2.005171 
3001.000000	2.007007 
3000.000000	2.008700 
2999.000000	2.010297 
2998.000000	2.011752 
2997.000000	2.013087 
2996.000000	2.014279 
2995.000000	2.015304 
2994.000000	2.016139 
2993.000000	2.016735 
2992.000000	2.017164 
2991.000000	2.017426 
2990.000000	2.017474 
2989.000000	2.017354 
2988.000000	2.017045 
2987.000000	2.016568 
2986.000000	2.015900 
2985.000000	2.015042 
2984.000000	2.013969 
2983.000000	2.012634 
2982.000000	2.010965 
2981.000000	2.008962 
2980.000000	2.006530 
2979.000000	2.003622 
2978.000000	2.000212 
2977.000000	1.996302 
2976.000000	1.991891 
2975.000000	1.986980 
2974.000000	1.981639 
2973.000000	1.975893 
2972.000000	1.969885 
2971.000000	1.963615 
2970.000000	1.957201 
2969.000000	1.950788 
2968.000000	1.944518 
2967.000000	1.938509 
2966.000000	1.933002 
2965.000000	1.928091 
2964.000000	1.923918 
2963.000000	1.920461 
2962.000000	1.917767 
2961.000000	1.915764 
2960.000000	1.914381 
2959.000000	1.913452 
2958.000000	1.912856 
2957.000000	1.912498 
2956.000000	1.912188 
2955.000000	1.911807 
2954.000000	1.911211 
2953.000000	1.910328 
2952.000000	1.909089 
2951.000000	1.907348 
2950.000000	1.904988 
2949.000000	1.901936 
2948.000000	1.898145 
2947.000000	1.893544 
2946.000000	1.888036 
2945.000000	1.881599 
2944.000000	1.874351 
2943.000000	1.866364 
2942.000000	1.857614 
2941.000000	1.848435 
2940.000000	1.838970 
2939.000000	1.829361 
2938.000000	1.819872 
2937.000000	1.810717 
2936.000000	1.802039 
2935.000000	1.793861 
2934.000000	1.786255 
2933.000000	1.779222 
2932.000000	1.772737 
2931.000000	1.766824 
2930.000000	1.761579 
2929.000000	1.757144 
2928.000000	1.753759 
2927.000000	1.751661 
2926.000000	1.751136 
2925.000000	1.752519 
2924.000000	1.755881 
2923.000000	1.761364 
2922.000000	1.768898 
2921.000000	1.778316 
2920.000000	1.789283 
2919.000000	1.801419 
2918.000000	1.814246 
2917.000000	1.827383 
2916.000000	1.840305 
2915.000000	1.852750 
2914.000000	1.864361 
2913.000000	1.875042 
2912.000000	1.884722 
2911.000000	1.893305 
2910.000000	1.900935 
2909.000000	1.907730 
2908.000000	1.913809 
2907.000000	1.919317 
2906.000000	1.924347 
2905.000000	1.929020 
2904.000000	1.933407 
2903.000000	1.937556 
2902.000000	1.941418 
2901.000000	1.945090 
2900.000000	1.948523 
2899.000000	1.951789 
2898.000000	1.954889 
2897.000000	1.957798 
2896.000000	1.960635 
2895.000000	1.963424 
2894.000000	1.966094 
2893.000000	1.968693 
2892.000000	1.971197 
2891.000000	1.973605 
2890.000000	1.975846 
2889.000000	1.977920 
2888.000000	1.979875 
2887.000000	1.981639 
2886.000000	1.983261 
2885.000000	1.984715 
2884.000000	1.986002 
2883.000000	1.987147 
2882.000000	1.988053 
2881.000000	1.988720 
2880.000000	1.989054 
2879.000000	1.988911 
2878.000000	1.988267 
2877.000000	1.987004 
2876.000000	1.984953 
2875.000000	1.982045 
2874.000000	1.978182 
2873.000000	1.973295 
2872.000000	1.967430 
2871.000000	1.960611 
2870.000000	1.952886 
2869.000000	1.944470 
2868.000000	1.935529 
2867.000000	1.926398 
2866.000000	1.917433 
2865.000000	1.909065 
2864.000000	1.901698 
2863.000000	1.895761 
2862.000000	1.891613 
2861.000000	1.889491 
2860.000000	1.889538 
2859.000000	1.891756 
2858.000000	1.895976 
2857.000000	1.902008 
2856.000000	1.909470 
2855.000000	1.918077 
2854.000000	1.927447 
2853.000000	1.937317 
2852.000000	1.947426 
2851.000000	1.957583 
2850.000000	1.967668 
2849.000000	1.977562 
2848.000000	1.987314 
2847.000000	1.996803 
2846.000000	2.005982 
2845.000000	2.014875 
2844.000000	2.023410 
2843.000000	2.031493 
2842.000000	2.039098 
2841.000000	2.046155 
2840.000000	2.052640 
2839.000000	2.058553 
2838.000000	2.063846 
2837.000000	2.068543 
2836.000000	2.072739 
2835.000000	2.076530 
2834.000000	2.079963 
2833.000000	2.083182 
2832.000000	2.086234 
2831.000000	2.089238 
2830.000000	2.092218 
2829.000000	2.095174 
2828.000000	2.098155 
2827.000000	2.101135 
2826.000000	2.104091 
2825.000000	2.107024 
2824.000000	2.109909 
2823.000000	2.112770 
2822.000000	2.115607 
2821.000000	2.118444 
2820.000000	2.121233 
2819.000000	2.124023 
2818.000000	2.126765 
2817.000000	2.129459 
2816.000000	2.132081 
2815.000000	2.134633 
2814.000000	2.137064 
2813.000000	2.139377 
2812.000000	2.141666 
2811.000000	2.143859 
2810.000000	2.146029 
2809.000000	2.148151 
2808.000000	2.150249 
2807.000000	2.152371 
2806.000000	2.154517 
2805.000000	2.156615 
2804.000000	2.158665 
2803.000000	2.160620 
2802.000000	2.162432 
2801.000000	2.164077 
2800.000000	2.165627 
2799.000000	2.167010 
2798.000000	2.168297 
2797.000000	2.169513 
2796.000000	2.170753 
2795.000000	2.172064 
2794.000000	2.173447 
2793.000000	2.174949 
2792.000000	2.176523 
2791.000000	2.178192 
2790.000000	2.179956 
2789.000000	2.181792 
2788.000000	2.183675 
2787.000000	2.185606 
2786.000000	2.187633 
2785.000000	2.189707 
2784.000000	2.191829 
2783.000000	2.194094 
2782.000000	2.196359 
2781.000000	2.198576 
2780.000000	2.200794 
2779.000000	2.202916 
2778.000000	2.204966 
2777.000000	2.206897 
2776.000000	2.208733 
2775.000000	2.210450 
2774.000000	2.212095 
2773.000000	2.213692 
2772.000000	2.215194 
2771.000000	2.216649 
2770.000000	2.218008 
2769.000000	2.219295 
2768.000000	2.220439 
2767.000000	2.221488 
2766.000000	2.222347 
2765.000000	2.223110 
2764.000000	2.223730 
2763.000000	2.224230 
2762.000000	2.224731 
2761.000000	2.225208 
2760.000000	2.225708 
2759.000000	2.226328 
2758.000000	2.226972 
2757.000000	2.227783 
2756.000000	2.228689 
2755.000000	2.229666 
2754.000000	2.230739 
2753.000000	2.231788 
2752.000000	2.232766 
2751.000000	2.233600 
2750.000000	2.234268 
2749.000000	2.234745 
2748.000000	2.235078 
2747.000000	2.235221 
2746.000000	2.235269 
2745.000000	2.235245 
2744.000000	2.235198 
2743.000000	2.235198 
2742.000000	2.235245 
2741.000000	2.235388 
2740.000000	2.235579 
2739.000000	2.235841 
2738.000000	2.236199 
2737.000000	2.236580 
2736.000000	2.237057 
2735.000000	2.237606 
2734.000000	2.238130 
2733.000000	2.238702 
2732.000000	2.239251 
2731.000000	2.239727 
2730.000000	2.240109 
2729.000000	2.240371 
2728.000000	2.240490 
2727.000000	2.240562 
2726.000000	2.240538 
2725.000000	2.240419 
2724.000000	2.240300 
2723.000000	2.240157 
2722.000000	2.240037 
2721.000000	2.239871 
2720.000000	2.239727 
2719.000000	2.239561 
2718.000000	2.239346 
2717.000000	2.239060 
2716.000000	2.238655 
2715.000000	2.238130 
2714.000000	2.237486 
2713.000000	2.236723 
2712.000000	2.235841 
2711.000000	2.234911 
2710.000000	2.233958 
2709.000000	2.233052 
2708.000000	2.232265 
2707.000000	2.231621 
2706.000000	2.231144 
2705.000000	2.230858 
2704.000000	2.230763 
2703.000000	2.230787 
2702.000000	2.230811 
2701.000000	2.230787 
2700.000000	2.230668 
2699.000000	2.230405 
2698.000000	2.230000 
2697.000000	2.229404 
2696.000000	2.228713 
2695.000000	2.227950 
2694.000000	2.227139 
2693.000000	2.226352 
2692.000000	2.225565 
2691.000000	2.224850 
2690.000000	2.224206 
2689.000000	2.223587 
2688.000000	2.222990 
2687.000000	2.222394 
2686.000000	2.221822 
2685.000000	2.221250 
2684.000000	2.220678 
2683.000000	2.220106 
2682.000000	2.219557 
2681.000000	2.219033 
2680.000000	2.218556 
2679.000000	2.218079 
2678.000000	2.217602 
2677.000000	2.217125 
2676.000000	2.216601 
2675.000000	2.216124 
2674.000000	2.215552 
2673.000000	2.214956 
2672.000000	2.214312 
2671.000000	2.213644 
2670.000000	2.212929 
2669.000000	2.212190 
2668.000000	2.211523 
2667.000000	2.210855 
2666.000000	2.210211 
2665.000000	2.209591 
2664.000000	2.208971 
2663.000000	2.208328 
2662.000000	2.207589 
2661.000000	2.206802 
2660.000000	2.205896 
2659.000000	2.204918 
2658.000000	2.203965 
2657.000000	2.203011 
2656.000000	2.202177 
2655.000000	2.201485 
2654.000000	2.200984 
2653.000000	2.200675 
2652.000000	2.200531 
2651.000000	2.200555 
2650.000000	2.200651 
2649.000000	2.200746 
2648.000000	2.200818 
2647.000000	2.200818 
2646.000000	2.200722 
2645.000000	2.200508 
2644.000000	2.200269 
2643.000000	2.199935 
2642.000000	2.199554 
2641.000000	2.199196 
2640.000000	2.198839 
2639.000000	2.198529 
2638.000000	2.198290 
2637.000000	2.198147 
2636.000000	2.198123 
2635.000000	2.198243 
2634.000000	2.198505 
2633.000000	2.198934 
2632.000000	2.199482 
2631.000000	2.200126 
2630.000000	2.200818 
2629.000000	2.201461 
2628.000000	2.202033 
2627.000000	2.202510 
2626.000000	2.202820 
2625.000000	2.203035 
2624.000000	2.203130 
2623.000000	2.203130 
2622.000000	2.203083 
2621.000000	2.203035 
2620.000000	2.202987 
2619.000000	2.202987 
2618.000000	2.203059 
2617.000000	2.203202 
2616.000000	2.203369 
2615.000000	2.203607 
2614.000000	2.203869 
2613.000000	2.204155 
2612.000000	2.204418 
2611.000000	2.204680 
2610.000000	2.204895 
2609.000000	2.205109 
2608.000000	2.205300 
2607.000000	2.205443 
2606.000000	2.205610 
2605.000000	2.205777 
2604.000000	2.205967 
2603.000000	2.206206 
2602.000000	2.206516 
2601.000000	2.206850 
2600.000000	2.207231 
2599.000000	2.207660 
2598.000000	2.208137 
2597.000000	2.208614 
2596.000000	2.209091 
2595.000000	2.209568 
2594.000000	2.209997 
2593.000000	2.210450 
2592.000000	2.210903 
2591.000000	2.211380 
2590.000000	2.211928 
2589.000000	2.212572 
2588.000000	2.213406 
2587.000000	2.214407 
2586.000000	2.215623 
2585.000000	2.217030 
2584.000000	2.218651 
2583.000000	2.220392 
2582.000000	2.222204 
2581.000000	2.224087 
2580.000000	2.225947 
2579.000000	2.227783 
2578.000000	2.229571 
2577.000000	2.231359 
2576.000000	2.233076 
2575.000000	2.234745 
2574.000000	2.236390 
2573.000000	2.238011 
2572.000000	2.239584 
2571.000000	2.241134 
2570.000000	2.242660 
2569.000000	2.244162 
2568.000000	2.245616 
2567.000000	2.247023 
2566.000000	2.248382 
2565.000000	2.249670 
2564.000000	2.250862 
2563.000000	2.251911 
2562.000000	2.252936 
2561.000000	2.253913 
2560.000000	2.254915 
2559.000000	2.256011 
2558.000000	2.257227 
2557.000000	2.258515 
2556.000000	2.259898 
2555.000000	2.261352 
2554.000000	2.262806 
2553.000000	2.264189 
2552.000000	2.265501 
2551.000000	2.266693 
2550.000000	2.267765 
2549.000000	2.268767 
2548.000000	2.269744 
2547.000000	2.270722 
2546.000000	2.271723 
2545.000000	2.272820 
2544.000000	2.273964 
2543.000000	2.275133 
2542.000000	2.276349 
2541.000000	2.277588 
2540.000000	2.278780 
2539.000000	2.279925 
2538.000000	2.281022 
2537.000000	2.282047 
2536.000000	2.283072 
2535.000000	2.284049 
2534.000000	2.285051 
2533.000000	2.286076 
2532.000000	2.287173 
2531.000000	2.288317 
2530.000000	2.289485 
2529.000000	2.290678 
2528.000000	2.291846 
2527.000000	2.292919 
2526.000000	2.293920 
2525.000000	2.294731 
2524.000000	2.295351 
2523.000000	2.295756 
2522.000000	2.295994 
2521.000000	2.296066 
2520.000000	2.296090 
2519.000000	2.296090 
2518.000000	2.296137 
2517.000000	2.296233 
2516.000000	2.296495 
2515.000000	2.296876 
2514.000000	2.297377 
2513.000000	2.297925 
2512.000000	2.298545 
2511.000000	2.299189 
2510.000000	2.299857 
2509.000000	2.300524 
2508.000000	2.301168 
2507.000000	2.301788 
2506.000000	2.302408 
2505.000000	2.303028 
2504.000000	2.303671 
2503.000000	2.304315 
2502.000000	2.305030 
2501.000000	2.305698 
2500.000000	2.306365 
2499.000000	2.307033 
2498.000000	2.307629 
2497.000000	2.308130 
2496.000000	2.308511 
2495.000000	2.308773 
2494.000000	2.308917 
2493.000000	2.308940 
2492.000000	2.308821 
2491.000000	2.308535 
2490.000000	2.308177 
2489.000000	2.307677 
2488.000000	2.307105 
2487.000000	2.306413 
2486.000000	2.305674 
2485.000000	2.304911 
2484.000000	2.304100 
2483.000000	2.303314 
2482.000000	2.302598 
2481.000000	2.301931 
2480.000000	2.301287 
2479.000000	2.300763 
2478.000000	2.300262 
2477.000000	2.299785 
2476.000000	2.299308 
2475.000000	2.298855 
2474.000000	2.298378 
2473.000000	2.297878 
2472.000000	2.297377 
2471.000000	2.296805 
2470.000000	2.296161 
2469.000000	2.295470 
2468.000000	2.294707 
2467.000000	2.293848 
2466.000000	2.292966 
2465.000000	2.292037 
2464.000000	2.291059 
2463.000000	2.290081 
2462.000000	2.289080 
2461.000000	2.288079 
2460.000000	2.287101 
2459.000000	2.286124 
2458.000000	2.285146 
2457.000000	2.284169 
2456.000000	2.283239 
2455.000000	2.282333 
2454.000000	2.281451 
2453.000000	2.280640 
2452.000000	2.279853 
2451.000000	2.279019 
2450.000000	2.278208 
2449.000000	2.277398 
2448.000000	2.276492 
2447.000000	2.275586 
2446.000000	2.274632 
2445.000000	2.273678 
2444.000000	2.272725 
2443.000000	2.271795 
2442.000000	2.270913 
2441.000000	2.270030 
2440.000000	2.269172 
2439.000000	2.268290 
2438.000000	2.267313 
2437.000000	2.266216 
2436.000000	2.264928 
2435.000000	2.263474 
2434.000000	2.261853 
2433.000000	2.260112 
2432.000000	2.258229 
2431.000000	2.256298 
2430.000000	2.254390 
2429.000000	2.252554 
2428.000000	2.250862 
2427.000000	2.249336 
2426.000000	2.247929 
2425.000000	2.246737 
2424.000000	2.245688 
2423.000000	2.244830 
2422.000000	2.244138 
2421.000000	2.243614 
2420.000000	2.243208 
2419.000000	2.242970 
2418.000000	2.242803 
2417.000000	2.242708 
2416.000000	2.242660 
2415.000000	2.242612 
2414.000000	2.242517 
2413.000000	2.242350 
2412.000000	2.242040 
2411.000000	2.241563 
2410.000000	2.240920 
2409.000000	2.240180 
2408.000000	2.239274 
2407.000000	2.238345 
2406.000000	2.237367 
2405.000000	2.236390 
2404.000000	2.235484 
2403.000000	2.234601 
2402.000000	2.233791 
2401.000000	2.233028 
2400.000000	2.232336 
2399.000000	2.231669 
2398.000000	2.231097 
2397.000000	2.230572 
2396.000000	2.230119 
2395.000000	2.229714 
2394.000000	2.229404 
2393.000000	2.229118 
2392.000000	2.228903 
2391.000000	2.228665 
2390.000000	2.228426 
2389.000000	2.228140 
2388.000000	2.227807 
2387.000000	2.227401 
2386.000000	2.226948 
2385.000000	2.226424 
2384.000000	2.225852 
2383.000000	2.225232 
2382.000000	2.224493 
2381.000000	2.223706 
2380.000000	2.222776 
2379.000000	2.221775 
2378.000000	2.220630 
2377.000000	2.219414 
2376.000000	2.218198 
2375.000000	2.216982 
2374.000000	2.215862 
2373.000000	2.214860 
2372.000000	2.213978 
2371.000000	2.213215 
2370.000000	2.212595 
2369.000000	2.212071 
2368.000000	2.211666 
2367.000000	2.211332 
2366.000000	2.211093 
2365.000000	2.210974 
2364.000000	2.210998 
2363.000000	2.211236 
2362.000000	2.211713 
2361.000000	2.212500 
2360.000000	2.213597 
2359.000000	2.215003 
2358.000000	2.216696 
2357.000000	2.218699 
2356.000000	2.220869 
2355.000000	2.223157 
2354.000000	2.225494 
2353.000000	2.227783 
2352.000000	2.229905 
2351.000000	2.231812 
2350.000000	2.233457 
2349.000000	2.234792 
2348.000000	2.235817 
2347.000000	2.236533 
2346.000000	2.237057 
2345.000000	2.237439 
2344.000000	2.237749 
2343.000000	2.238178 
2342.000000	2.238702 
2341.000000	2.239418 
2340.000000	2.240347 
2339.000000	2.241539 
2338.000000	2.242875 
2337.000000	2.244424 
2336.000000	2.246093 
2335.000000	2.247858 
2334.000000	2.249741 
2333.000000	2.251648 
2332.000000	2.253627 
2331.000000	2.255582 
2330.000000	2.257561 
2329.000000	2.259540 
2328.000000	2.261519 
2327.000000	2.263450 
2326.000000	2.265429 
2325.000000	2.267432 
2324.000000	2.269482 
2323.000000	2.271556 
2322.000000	2.273631 
2321.000000	2.275705 
2320.000000	2.277755 
2319.000000	2.279758 
2318.000000	2.281665 
2317.000000	2.283477 
2316.000000	2.285289 
2315.000000	2.287006 
2314.000000	2.288770 
2313.000000	2.290558 
2312.000000	2.292394 
2311.000000	2.294254 
2310.000000	2.296161 
2309.000000	2.298116 
2308.000000	2.300047 
2307.000000	2.301931 
2306.000000	2.303791 
2305.000000	2.305555 
2304.000000	2.307248 
2303.000000	2.308893 
2302.000000	2.310514 
2301.000000	2.312111 
2300.000000	2.313685 
2299.000000	2.315235 
2298.000000	2.316761 
2297.000000	2.318263 
2296.000000	2.319717 
2295.000000	2.321124 
2294.000000	2.322506 
2293.000000	2.323889 
2292.000000	2.325296 
2291.000000	2.326726 
2290.000000	2.328157 
2289.000000	2.329587 
2288.000000	2.330994 
2287.000000	2.332305 
2286.000000	2.333521 
2285.000000	2.334618 
2284.000000	2.335524 
2283.000000	2.336311 
2282.000000	2.337002 
2281.000000	2.337646 
2280.000000	2.338290 
2279.000000	2.338957 
2278.000000	2.339673 
2277.000000	2.340435 
2276.000000	2.341318 
2275.000000	2.342224 
2274.000000	2.343177 
2273.000000	2.344107 
2272.000000	2.344989 
2271.000000	2.345848 
2270.000000	2.346611 
2269.000000	2.347278 
2268.000000	2.347874 
2267.000000	2.348375 
2266.000000	2.348828 
2265.000000	2.349257 
2264.000000	2.349686 
2263.000000	2.350163 
2262.000000	2.350735 
2261.000000	2.351331 
2260.000000	2.351975 
2259.000000	2.352595 
2258.000000	2.353215 
2257.000000	2.353739 
2256.000000	2.354145 
2255.000000	2.354431 
2254.000000	2.354550 
2253.000000	2.354526 
2252.000000	2.354407 
2251.000000	2.354240 
2250.000000	2.354097 
2249.000000	2.353930 
2248.000000	2.353858 
2247.000000	2.353906 
2246.000000	2.354049 
2245.000000	2.354335 
2244.000000	2.354645 
2243.000000	2.354979 
2242.000000	2.355265 
2241.000000	2.355456 
2240.000000	2.355551 
2239.000000	2.355551 
2238.000000	2.355408 
2237.000000	2.355217 
2236.000000	2.355003 
2235.000000	2.354812 
2234.000000	2.354621 
2233.000000	2.354454 
2232.000000	2.354288 
2231.000000	2.354097 
2230.000000	2.353906 
2229.000000	2.353715 
2228.000000	2.353453 
2227.000000	2.353167 
2226.000000	2.352809 
2225.000000	2.352380 
2224.000000	2.351856 
2223.000000	2.351284 
2222.000000	2.350640 
2221.000000	2.349925 
2220.000000	2.349162 
2219.000000	2.348351 
2218.000000	2.347517 
2217.000000	2.346658 
2216.000000	2.345824 
2215.000000	2.344965 
2214.000000	2.344107 
2213.000000	2.343225 
2212.000000	2.342319 
2211.000000	2.341365 
2210.000000	2.340459 
2209.000000	2.339577 
2208.000000	2.338719 
2207.000000	2.337932 
2206.000000	2.337169 
2205.000000	2.336454 
2204.000000	2.335786 
2203.000000	2.335071 
2202.000000	2.334308 
2201.000000	2.333474 
2200.000000	2.332639 
2199.000000	2.331757 
2198.000000	2.330946 
2197.000000	2.330160 
2196.000000	2.329444 
2195.000000	2.328824 
2194.000000	2.328324 
2193.000000	2.327775 
2192.000000	2.327227 
2191.000000	2.326631 
2190.000000	2.325940 
2189.000000	2.325201 
2188.000000	2.324390 
2187.000000	2.323508 
2186.000000	2.322602 
2185.000000	2.321720 
2184.000000	2.320861 
2183.000000	2.320075 
2182.000000	2.319312 
2181.000000	2.318596 
2180.000000	2.317929 
2179.000000	2.317214 
2178.000000	2.316451 
2177.000000	2.315568 
2176.000000	2.314591 
2175.000000	2.313470 
2174.000000	2.312231 
2173.000000	2.310967 
2172.000000	2.309703 
2171.000000	2.308583 
2170.000000	2.307653 
2169.000000	2.307009 
2168.000000	2.306604 
2167.000000	2.306509 
2166.000000	2.306652 
2165.000000	2.307033 
2164.000000	2.307486 
2163.000000	2.308011 
2162.000000	2.308511 
2161.000000	2.308964 
2160.000000	2.309298 
2159.000000	2.309560 
2158.000000	2.309679 
2157.000000	2.309727 
2156.000000	2.309703 
2155.000000	2.309656 
2154.000000	2.309584 
2153.000000	2.309536 
2152.000000	2.309513 
2151.000000	2.309536 
2150.000000	2.309536 
2149.000000	2.309560 
2148.000000	2.309536 
2147.000000	2.309417 
2146.000000	2.309203 
2145.000000	2.308893 
2144.000000	2.308440 
2143.000000	2.307963 
2142.000000	2.307462 
2141.000000	2.307009 
2140.000000	2.306652 
2139.000000	2.306437 
2138.000000	2.306365 
2137.000000	2.306413 
2136.000000	2.306532 
2135.000000	2.306723 
2134.000000	2.306890 
2133.000000	2.307033 
2132.000000	2.307081 
2131.000000	2.307057 
2130.000000	2.306890 
2129.000000	2.306675 
2128.000000	2.306413 
2127.000000	2.306175 
2126.000000	2.306008 
2125.000000	2.305889 
2124.000000	2.305912 
2123.000000	2.306032 
2122.000000	2.306246 
2121.000000	2.306556 
2120.000000	2.306866 
2119.000000	2.307176 
2118.000000	2.307486 
2117.000000	2.307772 
2116.000000	2.308034 
2115.000000	2.308297 
2114.000000	2.308535 
2113.000000	2.308821 
2112.000000	2.309155 
2111.000000	2.309536 
2110.000000	2.309918 
2109.000000	2.310371 
2108.000000	2.310776 
2107.000000	2.311182 
2106.000000	2.311468 
2105.000000	2.311658 
2104.000000	2.311730 
2103.000000	2.311658 
2102.000000	2.311468 
2101.000000	2.311182 
2100.000000	2.310800 
2099.000000	2.310371 
2098.000000	2.309989 
2097.000000	2.309632 
2096.000000	2.309346 
2095.000000	2.309155 
2094.000000	2.309060 
2093.000000	2.309012 
2092.000000	2.309036 
2091.000000	2.309083 
2090.000000	2.309179 
2089.000000	2.309298 
2088.000000	2.309465 
2087.000000	2.309751 
2086.000000	2.310132 
2085.000000	2.310657 
2084.000000	2.311277 
2083.000000	2.312040 
2082.000000	2.312874 
2081.000000	2.313876 
2080.000000	2.314996 
2079.000000	2.316260 
2078.000000	2.317667 
2077.000000	2.319264 
2076.000000	2.321052 
2075.000000	2.323007 
2074.000000	2.325129 
2073.000000	2.327394 
2072.000000	2.329754 
2071.000000	2.332162 
2070.000000	2.334547 
2069.000000	2.336883 
2068.000000	2.339124 
2067.000000	2.341294 
2066.000000	2.343368 
2065.000000	2.345323 
2064.000000	2.347254 
2063.000000	2.349138 
2062.000000	2.350974 
2061.000000	2.352738 
2060.000000	2.354454 
2059.000000	2.356123 
2058.000000	2.357769 
2057.000000	2.359366 
2056.000000	2.361011 
2055.000000	2.362728 
2054.000000	2.364468 
2053.000000	2.366375 
2052.000000	2.368354 
2051.000000	2.370476 
2050.000000	2.372694 
2049.000000	2.374935 
2048.000000	2.377152 
2047.000000	2.379345 
2046.000000	2.381420 
2045.000000	2.383375 
2044.000000	2.385210 
2043.000000	2.386975 
2042.000000	2.388668 
2041.000000	2.390289 
2040.000000	2.391934 
2039.000000	2.393603 
2038.000000	2.395296 
2037.000000	2.397012 
2036.000000	2.398777 
2035.000000	2.400493 
2034.000000	2.402138 
2033.000000	2.403736 
2032.000000	2.405261 
2031.000000	2.406668 
2030.000000	2.408003 
2029.000000	2.409219 
2028.000000	2.410340 
2027.000000	2.411365 
2026.000000	2.412343 
2025.000000	2.413201 
2024.000000	2.413964 
2023.000000	2.414655 
2022.000000	2.415251 
2021.000000	2.415776 
2020.000000	2.416253 
2019.000000	2.416753 
2018.000000	2.417254 
2017.000000	2.417850 
2016.000000	2.418518 
2015.000000	2.419233 
2014.000000	2.420020 
2013.000000	2.420806 
2012.000000	2.421641 
2011.000000	2.422428 
2010.000000	2.423143 
2009.000000	2.423787 
2008.000000	2.424383 
2007.000000	2.424931 
2006.000000	2.425432 
2005.000000	2.425909 
2004.000000	2.426362 
2003.000000	2.426862 
2002.000000	2.427315 
2001.000000	2.427768 
2000.000000	2.428174 
1999.000000	2.428531 
1998.000000	2.428746 
1997.000000	2.428817 
1996.000000	2.428698 
1995.000000	2.428388 
1994.000000	2.427911 
1993.000000	2.427363 
1992.000000	2.426695 
1991.000000	2.426052 
1990.000000	2.425456 
1989.000000	2.424955 
1988.000000	2.424550 
1987.000000	2.424168 
1986.000000	2.423787 
1985.000000	2.423357 
1984.000000	2.422857 
1983.000000	2.422237 
1982.000000	2.421426 
1981.000000	2.420568 
1980.000000	2.419638 
1979.000000	2.418661 
1978.000000	2.417707 
1977.000000	2.416849 
1976.000000	2.416086 
1975.000000	2.415418 
1974.000000	2.414846 
1973.000000	2.414274 
1972.000000	2.413702 
1971.000000	2.413082 
1970.000000	2.412390 
1969.000000	2.411532 
1968.000000	2.410578 
1967.000000	2.409505 
1966.000000	2.408337 
1965.000000	2.407097 
1964.000000	2.405834 
1963.000000	2.404570 
1962.000000	2.403354 
1961.000000	2.402162 
1960.000000	2.401065 
1959.000000	2.400064 
1958.000000	2.399158 
1957.000000	2.398347 
1956.000000	2.397561 
1955.000000	2.396774 
1954.000000	2.395939 
1953.000000	2.395009 
1952.000000	2.393984 
1951.000000	2.392840 
1950.000000	2.391648 
1949.000000	2.390432 
1948.000000	2.389311 
1947.000000	2.388310 
1946.000000	2.387452 
1945.000000	2.386784 
1944.000000	2.386283 
1943.000000	2.385902 
1942.000000	2.385544 
1941.000000	2.385163 
1940.000000	2.384686 
1939.000000	2.384138 
1938.000000	2.383422 
1937.000000	2.382612 
1936.000000	2.381706 
1935.000000	2.380728 
1934.000000	2.379679 
1933.000000	2.378606 
1932.000000	2.377533 
1931.000000	2.376389 
1930.000000	2.375221 
1929.000000	2.373981 
1928.000000	2.372622 
1927.000000	2.371215 
1926.000000	2.369713 
1925.000000	2.368164 
1924.000000	2.366590 
1923.000000	2.365112 
1922.000000	2.363729 
1921.000000	2.362513 
1920.000000	2.361416 
1919.000000	2.360534 
1918.000000	2.359795 
1917.000000	2.359151 
1916.000000	2.358508 
1915.000000	2.357864 
1914.000000	2.357101 
1913.000000	2.356219 
1912.000000	2.355217 
1911.000000	2.354145 
1910.000000	2.353024 
1909.000000	2.351975 
1908.000000	2.350950 
1907.000000	2.350068 
1906.000000	2.349281 
1905.000000	2.348566 
1904.000000	2.347898 
1903.000000	2.347183 
1902.000000	2.346444 
1901.000000	2.345681 
1900.000000	2.344799 
1899.000000	2.343869 
1898.000000	2.342939 
1897.000000	2.342057 
1896.000000	2.341198 
1895.000000	2.340531 
1894.000000	2.340078 
1893.000000	2.339792 
1892.000000	2.339720 
1891.000000	2.339863 
1890.000000	2.340173 
1889.000000	2.340626 
1888.000000	2.341127 
1887.000000	2.341699 
1886.000000	2.342247 
1885.000000	2.342724 
1884.000000	2.343153 
1883.000000	2.343559 
1882.000000	2.343893 
1881.000000	2.344179 
1880.000000	2.344441 
1879.000000	2.344632 
1878.000000	2.344751 
1877.000000	2.344799 
1876.000000	2.344775 
1875.000000	2.344703 
1874.000000	2.344632 
1873.000000	2.344560 
1872.000000	2.344608 
1871.000000	2.344822 
1870.000000	2.345228 
1869.000000	2.345848 
1868.000000	2.346706 
1867.000000	2.347731 
1866.000000	2.348875 
1865.000000	2.350115 
1864.000000	2.351331 
1863.000000	2.352476 
1862.000000	2.353549 
1861.000000	2.354454 
1860.000000	2.355289 
1859.000000	2.356028 
1858.000000	2.356743 
1857.000000	2.357506 
1856.000000	2.358245 
1855.000000	2.358937 
1854.000000	2.359533 
1853.000000	2.359962 
1852.000000	2.360105 
1851.000000	2.359986 
1850.000000	2.359533 
1849.000000	2.358841 
1848.000000	2.358102 
1847.000000	2.357482 
1846.000000	2.357101 
1845.000000	2.357149 
1844.000000	2.357745 
1843.000000	2.358865 
1842.000000	2.360439 
1841.000000	2.362346 
1840.000000	2.364444 
1839.000000	2.366495 
1838.000000	2.368450 
1837.000000	2.370119 
1836.000000	2.371430 
1835.000000	2.372455 
1834.000000	2.373170 
1833.000000	2.373647 
1832.000000	2.373933 
1831.000000	2.374148 
1830.000000	2.374410 
1829.000000	2.374768 
1828.000000	2.375268 
1827.000000	2.375984 
1826.000000	2.376937 
1825.000000	2.378129 
1824.000000	2.379536 
1823.000000	2.381086 
1822.000000	2.382755 
1821.000000	2.384448 
1820.000000	2.386116 
1819.000000	2.387642 
1818.000000	2.389025 
1817.000000	2.390241 
1816.000000	2.391219 
1815.000000	2.392053 
1814.000000	2.392768 
1813.000000	2.393364 
1812.000000	2.393913 
1811.000000	2.394390 
1810.000000	2.394843 
1809.000000	2.395319 
1808.000000	2.395725 
1807.000000	2.396154 
1806.000000	2.396512 
1805.000000	2.396798 
1804.000000	2.397036 
1803.000000	2.397251 
1802.000000	2.397346 
1801.000000	2.397274 
1800.000000	2.397036 
1799.000000	2.396559 
1798.000000	2.395844 
1797.000000	2.394938 
1796.000000	2.393913 
1795.000000	2.392864 
1794.000000	2.391958 
1793.000000	2.391338 
1792.000000	2.391076 
1791.000000	2.391242 
1790.000000	2.391767 
1789.000000	2.392601 
1788.000000	2.393579 
1787.000000	2.394556 
1786.000000	2.395415 
1785.000000	2.396059 
1784.000000	2.396416 
1783.000000	2.396440 
1782.000000	2.396106 
1781.000000	2.395343 
1780.000000	2.394199 
1779.000000	2.392601 
1778.000000	2.390575 
1777.000000	2.388238 
1776.000000	2.385711 
1775.000000	2.383208 
1774.000000	2.380967 
1773.000000	2.379155 
1772.000000	2.377963 
1771.000000	2.377367 
1770.000000	2.377367 
1769.000000	2.377820 
1768.000000	2.378511 
1767.000000	2.379202 
1766.000000	2.379703 
1765.000000	2.379941 
1764.000000	2.379870 
1763.000000	2.379441 
1762.000000	2.378678 
1761.000000	2.377629 
1760.000000	2.376317 
1759.000000	2.374649 
1758.000000	2.372598 
1757.000000	2.370095 
1756.000000	2.367210 
1755.000000	2.363944 
1754.000000	2.360415 
1753.000000	2.356791 
1752.000000	2.353191 
1751.000000	2.349853 
1750.000000	2.346777 
1749.000000	2.344036 
1748.000000	2.341556 
1747.000000	2.339196 
1746.000000	2.336788 
1745.000000	2.334117 
1744.000000	2.331089 
1743.000000	2.327489 
1742.000000	2.323317 
1741.000000	2.318596 
1740.000000	2.313470 
1739.000000	2.308106 
1738.000000	2.302837 
1737.000000	2.297997 
1736.000000	2.293896 
1735.000000	2.290797 
1734.000000	2.288818 
1733.000000	2.288007 
1732.000000	2.288222 
1731.000000	2.289247 
1730.000000	2.290773 
1729.000000	2.292394 
1728.000000	2.293729 
1727.000000	2.294445 
1726.000000	2.294278 
1725.000000	2.293086 
1724.000000	2.290821 
1723.000000	2.287578 
1722.000000	2.283716 
1721.000000	2.279520 
1720.000000	2.275371 
1719.000000	2.271723 
1718.000000	2.268934 
1717.000000	2.267146 
1716.000000	2.266407 
1715.000000	2.266573 
1714.000000	2.267336 
1713.000000	2.268314 
1712.000000	2.269029 
1711.000000	2.269124 
1710.000000	2.268314 
1709.000000	2.266478 
1708.000000	2.263498 
1707.000000	2.259421 
1706.000000	2.254438 
1705.000000	2.248716 
1704.000000	2.242565 
1703.000000	2.236318 
1702.000000	2.230358 
1701.000000	2.225112 
1700.000000	2.220964 
1699.000000	2.218174 
1698.000000	2.216935 
1697.000000	2.217245 
1696.000000	2.218818 
1695.000000	2.221274 
1694.000000	2.223920 
1693.000000	2.226138 
1692.000000	2.227377 
1691.000000	2.227282 
1690.000000	2.225685 
1689.000000	2.222776 
1688.000000	2.218985 
1687.000000	2.214860 
1686.000000	2.210998 
1685.000000	2.207922 
1684.000000	2.205896 
1683.000000	2.204942 
1682.000000	2.204847 
1681.000000	2.205276 
1680.000000	2.205753 
1679.000000	2.205872 
1678.000000	2.205371 
1677.000000	2.204132 
1676.000000	2.202272 
1675.000000	2.200055 
1674.000000	2.197694 
1673.000000	2.195429 
1672.000000	2.193474 
1671.000000	2.191805 
1670.000000	2.190423 
1669.000000	2.189159 
1668.000000	2.187943 
1667.000000	2.186679 
1666.000000	2.185297 
1665.000000	2.183723 
1664.000000	2.181911 
1663.000000	2.179741 
1662.000000	2.177047 
1661.000000	2.173614 
1660.000000	2.169322 
1659.000000	2.164101 
1658.000000	2.157998 
1657.000000	2.151346 
1656.000000	2.144575 
1655.000000	2.138161 
1654.000000	2.132630 
1653.000000	2.128386 
1652.000000	2.125525 
1651.000000	2.124166 
1650.000000	2.124071 
1649.000000	2.124857 
1648.000000	2.126240 
1647.000000	2.127742 
1646.000000	2.129054 
1645.000000	2.129864 
1644.000000	2.129936 
1643.000000	2.129220 
1642.000000	2.127671 
1641.000000	2.125310 
1640.000000	2.122235 
1639.000000	2.118754 
1638.000000	2.115106 
1637.000000	2.111625 
1636.000000	2.108573 
1635.000000	2.106094 
1634.000000	2.104210 
1633.000000	2.102851 
1632.000000	2.101731 
1631.000000	2.100563 
1630.000000	2.099084 
1629.000000	2.097010 
1628.000000	2.094268 
1627.000000	2.090764 
1626.000000	2.086424 
1625.000000	2.081346 
1624.000000	2.075552 
1623.000000	2.069067 
1622.000000	2.061915 
1621.000000	2.054095 
1620.000000	2.045655 
1619.000000	2.036643 
1618.000000	2.027082 
1617.000000	2.017164 
1616.000000	2.006959 
1615.000000	1.996731 
1614.000000	1.986598 
1613.000000	1.976823 
1612.000000	1.967740 
1611.000000	1.959633 
1610.000000	1.952838 
1609.000000	1.947617 
1608.000000	1.944231 
1607.000000	1.942729 
1606.000000	1.943039 
1605.000000	1.944971 
1604.000000	1.948189 
1603.000000	1.952266 
1602.000000	1.956796 
1601.000000	1.961517 
1600.000000	1.966047 
1599.000000	1.970195 
1598.000000	1.973915 
1597.000000	1.977109 
1596.000000	1.979780 
1595.000000	1.981949 
1594.000000	1.983594 
1593.000000	1.984810 
1592.000000	1.985478 
1591.000000	1.985716 
1590.000000	1.985526 
1589.000000	1.984882 
1588.000000	1.983857 
1587.000000	1.982402 
1586.000000	1.980566 
1585.000000	1.978349 
1584.000000	1.975679 
1583.000000	1.972651 
1582.000000	1.969289 
1581.000000	1.965713 
1580.000000	1.962113 
1579.000000	1.958703 
1578.000000	1.955652 
1577.000000	1.953077 
1576.000000	1.951050 
1575.000000	1.949620 
1574.000000	1.948666 
1573.000000	1.948046 
1572.000000	1.947665 
1571.000000	1.947212 
1570.000000	1.946425 
1569.000000	1.945042 
1568.000000	1.942706 
1567.000000	1.939272 
1566.000000	1.934671 
1565.000000	1.928901 
1564.000000	1.922249 
1563.000000	1.915192 
1562.000000	1.908302 
1561.000000	1.902270 
1560.000000	1.897740 
1559.000000	1.895236 
1558.000000	1.894974 
1557.000000	1.896977 
1556.000000	1.900887 
1555.000000	1.906180 
1554.000000	1.912164 
1553.000000	1.918125 
1552.000000	1.923441 
1551.000000	1.927566 
1550.000000	1.930284 
1549.000000	1.931476 
1548.000000	1.931357 
1547.000000	1.930260 
1546.000000	1.928782 
1545.000000	1.927566 
1544.000000	1.927447 
1543.000000	1.929020 
1542.000000	1.932907 
1541.000000	1.939344 
1540.000000	1.948356 
1539.000000	1.959609 
1538.000000	1.972675 
1537.000000	1.986813 
1536.000000	2.001285 
1535.000000	2.015423 
1534.000000	2.028584 
1533.000000	2.040386 
1532.000000	2.050471 
1531.000000	2.058863 
1530.000000	2.065563 
1529.000000	2.070689 
1528.000000	2.074289 
1527.000000	2.076673 
1526.000000	2.078008 
1525.000000	2.078509 
1524.000000	2.078366 
1523.000000	2.077865 
1522.000000	2.077150 
1521.000000	2.076339 
1520.000000	2.075552 
1519.000000	2.074742 
1518.000000	2.073860 
1517.000000	2.072763 
1516.000000	2.071332 
1515.000000	2.069282 
1514.000000	2.066516 
1513.000000	2.062869 
1512.000000	2.058386 
1511.000000	2.052855 
1510.000000	2.046394 
1509.000000	2.038764 
1508.000000	2.029705 
1507.000000	2.018523 
1506.000000	2.004551 
1505.000000	1.986813 
1504.000000	1.964473 
1503.000000	1.936912 
1502.000000	1.904082 
1501.000000	1.866531 
1500.000000	1.825714 
1499.000000	1.783776 
1498.000000	1.743292 
1497.000000	1.707124 
1496.000000	1.677989 
1495.000000	1.657891 
1494.000000	1.647973 
1493.000000	1.648569 
1492.000000	1.659083 
1491.000000	1.677846 
1490.000000	1.702976 
1489.000000	1.732158 
1488.000000	1.763367 
1487.000000	1.794528 
1486.000000	1.824164 
1485.000000	1.851058 
1484.000000	1.874613 
1483.000000	1.894378 
1482.000000	1.910352 
1481.000000	1.922774 
1480.000000	1.931786 
1479.000000	1.938056 
1478.000000	1.942086 
1477.000000	1.944398 
1476.000000	1.945424 
1475.000000	1.945734 
1474.000000	1.945567 
1473.000000	1.945042 
1472.000000	1.944208 
1471.000000	1.943111 
1470.000000	1.941561 
1469.000000	1.939249 
1468.000000	1.936030 
1467.000000	1.931762 
1466.000000	1.926136 
1465.000000	1.918935 
1464.000000	1.909899 
1463.000000	1.898884 
1462.000000	1.885867 
1461.000000	1.870822 
1460.000000	1.854014 
1459.000000	1.835775 
1458.000000	1.816821 
1457.000000	1.798009 
1456.000000	1.780176 
1455.000000	1.764297 
1454.000000	1.751327 
1453.000000	1.742100 
1452.000000	1.737022 
1451.000000	1.736330 
1450.000000	1.739859 
1449.000000	1.747107 
1448.000000	1.757168 
1447.000000	1.769042 
1446.000000	1.781702 
1445.000000	1.794004 
1444.000000	1.805138 
1443.000000	1.814579 
1442.000000	1.822042 
1441.000000	1.827645 
1440.000000	1.831603 
1439.000000	1.834416 
1438.000000	1.836466 
1437.000000	1.838183 
1436.000000	1.839780 
1435.000000	1.841330 
1434.000000	1.842832 
1433.000000	1.844143 
1432.000000	1.845192 
1431.000000	1.845860 
1430.000000	1.846003 
1429.000000	1.845693 
1428.000000	1.844882 
1427.000000	1.843643 
1426.000000	1.841998 
1425.000000	1.840043 
1424.000000	1.837849 
1423.000000	1.835536 
1422.000000	1.833128 
1421.000000	1.830744 
1420.000000	1.828432 
1419.000000	1.826143 
1418.000000	1.823782 
1417.000000	1.821136 
1416.000000	1.817917 
1415.000000	1.813745 
1414.000000	1.808309 
1413.000000	1.801347 
1412.000000	1.792693 
1411.000000	1.782464 
1410.000000	1.770853 
1409.000000	1.758313 
1408.000000	1.745557 
1407.000000	1.733303 
1406.000000	1.722288 
1405.000000	1.713275 
1404.000000	1.706695 
1403.000000	1.702976 
1402.000000	1.702117 
1401.000000	1.704001 
1400.000000	1.708269 
1399.000000	1.714444 
1398.000000	1.721954 
1397.000000	1.730179 
1396.000000	1.738405 
1395.000000	1.746177 
1394.000000	1.752972 
1393.000000	1.758408 
1392.000000	1.762247 
1391.000000	1.764416 
1390.000000	1.765084 
1389.000000	1.764488 
1388.000000	1.763129 
1387.000000	1.761555 
1386.000000	1.760268 
1385.000000	1.759743 
1384.000000	1.760292 
1383.000000	1.761913 
1382.000000	1.764535 
1381.000000	1.767849 
1380.000000	1.771521 
1379.000000	1.775169 
1378.000000	1.778507 
1377.000000	1.781368 
1376.000000	1.783680 
1375.000000	1.785492 
1374.000000	1.786923 
1373.000000	1.788043 
1372.000000	1.788973 
1371.000000	1.789760 
1370.000000	1.790428 
1369.000000	1.790952 
1368.000000	1.791357 
1367.000000	1.791620 
1366.000000	1.791787 
1365.000000	1.791906 
1364.000000	1.792025 
1363.000000	1.792192 
1362.000000	1.792335 
1361.000000	1.792502 
1360.000000	1.792645 
1359.000000	1.792740 
1358.000000	1.792716 
1357.000000	1.792573 
1356.000000	1.792311 
1355.000000	1.791954 
1354.000000	1.791572 
1353.000000	1.791143 
1352.000000	1.790690 
1351.000000	1.790213 
1350.000000	1.789760 
1349.000000	1.789259 
1348.000000	1.788687 
1347.000000	1.788091 
1346.000000	1.787567 
1345.000000	1.787137 
1344.000000	1.786923 
1343.000000	1.787042 
1342.000000	1.787662 
1341.000000	1.788806 
1340.000000	1.790547 
1339.000000	1.792860 
1338.000000	1.795697 
1337.000000	1.798868 
1336.000000	1.802253 
1335.000000	1.805663 
1334.000000	1.808929 
1333.000000	1.811885 
1332.000000	1.814508 
1331.000000	1.816725 
1330.000000	1.818561 
1329.000000	1.819992 
1328.000000	1.821160 
1327.000000	1.822042 
1326.000000	1.822805 
1325.000000	1.823472 
1324.000000	1.824045 
1323.000000	1.824545 
1322.000000	1.825046 
1321.000000	1.825451 
1320.000000	1.825833 
1319.000000	1.826238 
1318.000000	1.826667 
1317.000000	1.827073 
1316.000000	1.827526 
1315.000000	1.827979 
1314.000000	1.828455 
1313.000000	1.828908 
1312.000000	1.829338 
1311.000000	1.829671 
1310.000000	1.829886 
1309.000000	1.830005 
1308.000000	1.830005 
1307.000000	1.829862 
1306.000000	1.829648 
1305.000000	1.829385 
1304.000000	1.829123 
1303.000000	1.828908 
1302.000000	1.828718 
1301.000000	1.828598 
1300.000000	1.828503 
1299.000000	1.828455 
1298.000000	1.828455 
1297.000000	1.828432 
1296.000000	1.828408 
1295.000000	1.828384 
1294.000000	1.828360 
1293.000000	1.828336 
1292.000000	1.828312 
1291.000000	1.828312 
1290.000000	1.828336 
1289.000000	1.828360 
1288.000000	1.828360 
1287.000000	1.828265 
1286.000000	1.828002 
1285.000000	1.827549 
1284.000000	1.826810 
1283.000000	1.825737 
1282.000000	1.824331 
1281.000000	1.822590 
1280.000000	1.820445 
1279.000000	1.817870 
1278.000000	1.814842 
1277.000000	1.811265 
1276.000000	1.807022 
1275.000000	1.801943 
1274.000000	1.795983 
1273.000000	1.788949 
1272.000000	1.780700 
1271.000000	1.771306 
1270.000000	1.760864 
1269.000000	1.749563 
1268.000000	1.737833 
1267.000000	1.726198 
1266.000000	1.715278 
1265.000000	1.705718 
1264.000000	1.698207 
1263.000000	1.693224 
1262.000000	1.691174 
1261.000000	1.692128 
1260.000000	1.696085 
1259.000000	1.702666 
1258.000000	1.711392 
1257.000000	1.721596 
1256.000000	1.732635 
1255.000000	1.743841 
1254.000000	1.754641 
1253.000000	1.764655 
1252.000000	1.773548 
1251.000000	1.781201 
1250.000000	1.787662 
1249.000000	1.792955 
1248.000000	1.797223 
1247.000000	1.800656 
1246.000000	1.803350 
1245.000000	1.805472 
1244.000000	1.807141 
1243.000000	1.808428 
1242.000000	1.809477 
1241.000000	1.810240 
1240.000000	1.810765 
1239.000000	1.811099 
1238.000000	1.811265 
1237.000000	1.811242 
1236.000000	1.811075 
1235.000000	1.810693 
1234.000000	1.810145 
1233.000000	1.809382 
1232.000000	1.808357 
1231.000000	1.807141 
1230.000000	1.805663 
1229.000000	1.803970 
1228.000000	1.802039 
1227.000000	1.799821 
1226.000000	1.797342 
1225.000000	1.794648 
1224.000000	1.791644 
1223.000000	1.788330 
1222.000000	1.784777 
1221.000000	1.780939 
1220.000000	1.776814 
1219.000000	1.772379 
1218.000000	1.767706 
1217.000000	1.762843 
1216.000000	1.757812 
1215.000000	1.752758 
1214.000000	1.747775 
1213.000000	1.742982 
1212.000000	1.738524 
1211.000000	1.734566 
1210.000000	1.731181 
1209.000000	1.728439 
1208.000000	1.726365 
1207.000000	1.724886 
1206.000000	1.724004 
1205.000000	1.723575 
1204.000000	1.723504 
1203.000000	1.723694 
1202.000000	1.723980 
1201.000000	1.724267 
1200.000000	1.724505 
1199.000000	1.724576 
1198.000000	1.724433 
1197.000000	1.724052 
1196.000000	1.723384 
1195.000000	1.722455 
1194.000000	1.721286 
1193.000000	1.719927 
1192.000000	1.718425 
1191.000000	1.716780 
1190.000000	1.715064 
1189.000000	1.713252 
1188.000000	1.711344 
1187.000000	1.709342 
1186.000000	1.707220 
1185.000000	1.705002 
1184.000000	1.702690 
1183.000000	1.700282 
1182.000000	1.697754 
1181.000000	1.695156 
1180.000000	1.692461 
1179.000000	1.689648 
1178.000000	1.686668 
1177.000000	1.683545 
1176.000000	1.680231 
1175.000000	1.676702 
1174.000000	1.672935 
1173.000000	1.668953 
1172.000000	1.664781 
1171.000000	1.660442 
1170.000000	1.655936 
1169.000000	1.651334 
1168.000000	1.646661 
1167.000000	1.641869 
1166.000000	1.637029 
1165.000000	1.632142 
1164.000000	1.627254 
1163.000000	1.622462 
1162.000000	1.617836 
1161.000000	1.613521 
1160.000000	1.609516 
1159.000000	1.605963 
1158.000000	1.602888 
1157.000000	1.600217 
1156.000000	1.598024 
1155.000000	1.596283 
1154.000000	1.594781 
1153.000000	1.593518 
1152.000000	1.592326 
1151.000000	1.591157 
1150.000000	1.589870 
1149.000000	1.588416 
1148.000000	1.586747 
1147.000000	1.584839 
1146.000000	1.582741 
1145.000000	1.580500 
1144.000000	1.578116 
1143.000000	1.575660 
1142.000000	1.573204 
1141.000000	1.570701 
1140.000000	1.568198 
1139.000000	1.565623 
1138.000000	1.562952 
1137.000000	1.560115 
1136.000000	1.557040 
1135.000000	1.553702 
1134.000000	1.550102 
1133.000000	1.546192 
1132.000000	1.542019 
1131.000000	1.537561 
1130.000000	1.532936 
1129.000000	1.528120 
1128.000000	1.523137 
1127.000000	1.518082 
1126.000000	1.512956 
1125.000000	1.507782 
1124.000000	1.502633 
1123.000000	1.497507 
1122.000000	1.492381 
1121.000000	1.487278 
1120.000000	1.482176 
1119.000000	1.477050 
1118.000000	1.471853 
1117.000000	1.466608 
1116.000000	1.461362 
1115.000000	1.456141 
1114.000000	1.450943 
1113.000000	1.445937 
1112.000000	1.441121 
1111.000000	1.436614 
1110.000000	1.432466 
1109.000000	1.428675 
1108.000000	1.425313 
1107.000000	1.422333 
1106.000000	1.419782 
1105.000000	1.417589 
1104.000000	1.415777 
1103.000000	1.414275 
1102.000000	1.413083 
1101.000000	1.412081 
1100.000000	1.411318 
1099.000000	1.410746 
1098.000000	1.410245 
1097.000000	1.409840 
1096.000000	1.409506 
1095.000000	1.409244 
1094.000000	1.409029 
1093.000000	1.408910 
1092.000000	1.408886 
1091.000000	1.409006 
1090.000000	1.409244 
1089.000000	1.409626 
1088.000000	1.410126 
1087.000000	1.410722 
1086.000000	1.411342 
1085.000000	1.411890 
1084.000000	1.412272 
1083.000000	1.412558 
1082.000000	1.412701 
1081.000000	1.412749 
1080.000000	1.412677 
1079.000000	1.412630 
1078.000000	1.412677 
1077.000000	1.412916 
1076.000000	1.413393 
1075.000000	1.414084 
1074.000000	1.414966 
1073.000000	1.416063 
1072.000000	1.417231 
1071.000000	1.418423 
1070.000000	1.419544 
1069.000000	1.420545 
1068.000000	1.421356 
1067.000000	1.421880 
1066.000000	1.422023 
1065.000000	1.421713 
1064.000000	1.420712 
1063.000000	1.418781 
1062.000000	1.415562 
1061.000000	1.410746 
1060.000000	1.403903 
1059.000000	1.394724 
1058.000000	1.383161 
1057.000000	1.369357 
1056.000000	1.353859 
1055.000000	1.337528 
1054.000000	1.321434 
1053.000000	1.306986 
1052.000000	1.295304 
1051.000000	1.287412 
1050.000000	1.283979 
1049.000000	1.285052 
1048.000000	1.290321 
1047.000000	1.298904 
1046.000000	1.309680 
1045.000000	1.321434 
1044.000000	1.333069 
1043.000000	1.343584 
1042.000000	1.352405 
1041.000000	1.359272 
1040.000000	1.364111 
1039.000000	1.367139 
1038.000000	1.368689 
1037.000000	1.369071 
1036.000000	1.368570 
1035.000000	1.367425 
1034.000000	1.365900 
1033.000000	1.364040 
1032.000000	1.361942 
1031.000000	1.359701 
1030.000000	1.357388 
1029.000000	1.355051 
1028.000000	1.352715 
1027.000000	1.350522 
1026.000000	1.348447 
1025.000000	1.346611 
1024.000000	1.345109 
1023.000000	1.344013 
1022.000000	1.343393 
1021.000000	1.343321 
1020.000000	1.343846 
1019.000000	1.344919 
1018.000000	1.346540 
1017.000000	1.348638 
1016.000000	1.351094 
1015.000000	1.353836 
1014.000000	1.356697 
1013.000000	1.359677 
1012.000000	1.362609 
1011.000000	1.365375 
1010.000000	1.367974 
1009.000000	1.370406 
1008.000000	1.372599 
1007.000000	1.374626 
1006.000000	1.376461 
1005.000000	1.378083 
1004.000000	1.379489 
1003.000000	1.380681 
1002.000000	1.381587 
1001.000000	1.382279 
1000.000000	1.382732 
999.000000	 1.382875 
998.000000	 1.382780 
997.000000	 1.382470 
996.000000	 1.381969 
995.000000	 1.381325 
994.000000	 1.380562 
993.000000	 1.379680 
992.000000	 1.378655 
991.000000	 1.377534 
990.000000	 1.376247 
989.000000	 1.374769 
988.000000	 1.373100 
987.000000	 1.371264 
986.000000	 1.369261 
985.000000	 1.367139 
984.000000	 1.364994 
983.000000	 1.362872 
982.000000	 1.360774 
981.000000	 1.358795 
980.000000	 1.356959 
979.000000	 1.355242 
978.000000	 1.353621 
977.000000	 1.351928 
976.000000	 1.350164 
975.000000	 1.348233 
974.000000	 1.346087 
973.000000	 1.343631 
972.000000	 1.340866 
971.000000	 1.337885 
970.000000	 1.334691 
969.000000	 1.331377 
968.000000	 1.328015 
967.000000	 1.324629 
966.000000	 1.321268 
965.000000	 1.317930 
964.000000	 1.314544 
963.000000	 1.311182 
962.000000	 1.307797 
961.000000	 1.304340 
960.000000	 1.300835 
959.000000	 1.297307 
958.000000	 1.293802 
957.000000	 1.290249 
956.000000	 1.286745 
955.000000	 1.283311 
954.000000	 1.279973 
953.000000	 1.276755 
952.000000	 1.273655 
951.000000	 1.270651 
950.000000	 1.267790 
949.000000	 1.265025 
948.000000	 1.262354 
947.000000	 1.259827 
946.000000	 1.257419 
945.000000	 1.255130 
944.000000	 1.252937 
943.000000	 1.250815 
942.000000	 1.248812 
941.000000	 1.246786 
940.000000	 1.244783 
939.000000	 1.242756 
938.000000	 1.240706 
937.000000	 1.238656 
936.000000	 1.236581 
935.000000	 1.234507 
934.000000	 1.232409 
933.000000	 1.230335 
932.000000	 1.228284 
931.000000	 1.226282 
930.000000	 1.224255 
929.000000	 1.222205 
928.000000	 1.220154 
927.000000	 1.218104 
926.000000	 1.216030 
925.000000	 1.213908 
924.000000	 1.211714 
923.000000	 1.209473 
922.000000	 1.207113 
921.000000	 1.204633 
920.000000	 1.201939 
919.000000	 1.199054 
918.000000	 1.195883 
917.000000	 1.192450 
916.000000	 1.188802 
915.000000	 1.184964 
914.000000	 1.180934 
913.000000	 1.176857 
912.000000	 1.172757 
911.000000	 1.168680 
910.000000	 1.164770 
909.000000	 1.161050 
908.000000	 1.157546 
907.000000	 1.154303 
906.000000	 1.151347 
905.000000	 1.148700 
904.000000	 1.146340 
903.000000	 1.144313 
902.000000	 1.142573 
901.000000	 1.141071 
900.000000	 1.139807 
899.000000	 1.138687 
898.000000	 1.137614 
897.000000	 1.136517 
896.000000	 1.135325 
895.000000	 1.133918 
894.000000	 1.132082 
893.000000	 1.129794 
892.000000	 1.126933 
891.000000	 1.123356 
890.000000	 1.118898 
889.000000	 1.113605 
888.000000	 1.107406 
887.000000	 1.100349 
886.000000	 1.092410 
885.000000	 1.083827 
884.000000	 1.074695 
883.000000	 1.065230 
882.000000	 1.055765 
881.000000	 1.046657 
880.000000	 1.038169 
879.000000	 1.030683 
878.000000	 1.024580 
877.000000	 1.020097 
876.000000	 1.017498 
875.000000	 1.016831 
874.000000	 1.018095 
873.000000	 1.021099 
872.000000	 1.025629 
871.000000	 1.031303 
870.000000	 1.037740 
869.000000	 1.044535 
868.000000	 1.051282 
867.000000	 1.057672 
866.000000	 1.063489 
865.000000	 1.068496 
864.000000	 1.072621 
863.000000	 1.075816 
862.000000	 1.078128 
861.000000	 1.079583 
860.000000	 1.080250 
859.000000	 1.080298 
858.000000	 1.079869 
857.000000	 1.079058 
856.000000	 1.077985 
855.000000	 1.076793 
854.000000	 1.075553 
853.000000	 1.074361 
852.000000	 1.073193 
851.000000	 1.072120 
850.000000	 1.071143 
849.000000	 1.070165 
848.000000	 1.069188 
847.000000	 1.068091 
846.000000	 1.066827 
845.000000	 1.065301 
844.000000	 1.063394 
843.000000	 1.060986 
842.000000	 1.057958 
841.000000	 1.054120 
840.000000	 1.049256 
839.000000	 1.043272 
838.000000	 1.035785 
837.000000	 1.026701 
836.000000	 1.015758 
835.000000	 1.002860 
834.000000	 0.987911 
833.000000	 0.971031 
832.000000	 0.952553 
831.000000	 0.932931 
830.000000	 0.912952 
829.000000	 0.893425 
828.000000	 0.875473 
827.000000	 0.860095 
826.000000	 0.848150 
825.000000	 0.840353 
824.000000	 0.837016 
823.000000	 0.838160 
822.000000	 0.843286 
821.000000	 0.851631 
820.000000	 0.862288 
819.000000	 0.874161 
818.000000	 0.886297 
817.000000	 0.897765 
816.000000	 0.908017 
815.000000	 0.916671 
814.000000	 0.923562 
813.000000	 0.928759 
812.000000	 0.932431 
811.000000	 0.934815 
810.000000	 0.936222 
809.000000	 0.936794 
808.000000	 0.936770 
807.000000	 0.936460 
806.000000	 0.935935 
805.000000	 0.935339 
804.000000	 0.934839 
803.000000	 0.934505 
802.000000	 0.934433 
801.000000	 0.934624 
800.000000	 0.935173 
799.000000	 0.936079 
798.000000	 0.937271 
797.000000	 0.938773 
796.000000	 0.940561 
795.000000	 0.942611 
794.000000	 0.944924 
793.000000	 0.947403 
792.000000	 0.949978 
791.000000	 0.952672 
790.000000	 0.955367 
789.000000	 0.958037 
788.000000	 0.960493 
787.000000	 0.962781 
786.000000	 0.964760 
785.000000	 0.966525 
784.000000	 0.967955 
783.000000	 0.969052 
782.000000	 0.969815 
781.000000	 0.970292 
780.000000	 0.970482 
779.000000	 0.970458 
778.000000	 0.970149 
777.000000	 0.969648 
776.000000	 0.968933 
775.000000	 0.967979 
774.000000	 0.966882 
773.000000	 0.965642 
772.000000	 0.964307 
771.000000	 0.962972 
770.000000	 0.961709 
769.000000	 0.960564 
768.000000	 0.959539 
767.000000	 0.958728 
766.000000	 0.958108 
765.000000	 0.957608 
764.000000	 0.957226 
763.000000	 0.956940 
762.000000	 0.956630 
761.000000	 0.956273 
760.000000	 0.955843 
759.000000	 0.955343 
758.000000	 0.954699 
757.000000	 0.953936 
756.000000	 0.952982 
755.000000	 0.951910 
754.000000	 0.950670 
753.000000	 0.949287 
752.000000	 0.947737 
751.000000	 0.946021 
750.000000	 0.944232 
749.000000	 0.942325 
748.000000	 0.940370 
747.000000	 0.938415 
746.000000	 0.936436 
745.000000	 0.934457 
744.000000	 0.932455 
743.000000	 0.930404 
742.000000	 0.928282 
741.000000	 0.926113 
740.000000	 0.923919 
739.000000	 0.921702 
738.000000	 0.919532 
737.000000	 0.917387 
736.000000	 0.915360 
735.000000	 0.913405 
734.000000	 0.911450 
733.000000	 0.909543 
732.000000	 0.907492 
731.000000	 0.905299 
730.000000	 0.902867 
729.000000	 0.900173 
728.000000	 0.897169 
727.000000	 0.893878 
726.000000	 0.890374 
725.000000	 0.886726 
724.000000	 0.883054 
723.000000	 0.879430 
722.000000	 0.875949 
721.000000	 0.872659 
720.000000	 0.869607 
719.000000	 0.866794 
718.000000	 0.864171 
717.000000	 0.861692 
716.000000	 0.859284 
715.000000	 0.856900 
714.000000	 0.854468 
713.000000	 0.851917 
712.000000	 0.849246 
711.000000	 0.846409 
710.000000	 0.843429 
709.000000	 0.840306 
708.000000	 0.837016 
707.000000	 0.833535 
706.000000	 0.830006 
705.000000	 0.826334 
704.000000	 0.822567 
703.000000	 0.818753 
702.000000	 0.814843 
701.000000	 0.810837 
700.000000	 0.806641 
699.000000	 0.802183 
698.000000	 0.797343 
697.000000	 0.791954 
696.000000	 0.785875 
695.000000	 0.779080 
694.000000	 0.771617 
693.000000	 0.763702 
692.000000	 0.755596 
691.000000	 0.747656 
690.000000	 0.740313 
689.000000	 0.733971 
688.000000	 0.728917 
687.000000	 0.725293 
686.000000	 0.723123 
685.000000	 0.722241 
684.000000	 0.722336 
683.000000	 0.723052 
682.000000	 0.724005 
681.000000	 0.724911 
680.000000	 0.725483 
679.000000	 0.725579 
678.000000	 0.725150 
677.000000	 0.724196 
676.000000	 0.722765 
675.000000	 0.720953 
674.000000	 0.718855 
673.000000	 0.716567 
672.000000	 0.714135 
671.000000	 0.711679 
670.000000	 0.709223 
669.000000	 0.706791 
668.000000	 0.704407 
667.000000	 0.702118 
666.000000	 0.699901 
665.000000	 0.697779 
664.000000	 0.695753 
663.000000	 0.693798 
662.000000	 0.691938 
661.000000	 0.690126 
660.000000	 0.688314 
659.000000	 0.686454 
658.000000	 0.684499 
657.000000	 0.682449 
656.000000	 0.680255 
655.000000	 0.677871 
654.000000	 0.675320 
653.000000	 0.672698 
652.000000	 0.669860 
651.000000	 0.666999 
650.000000	 0.664043 
649.000000	 0.661063 
648.000000	 0.658082 
647.000000	 0.655078 
646.000000	 0.652098 
645.000000	 0.649118 
644.000000	 0.646185 
643.000000	 0.643324 
642.000000	 0.640511 
641.000000	 0.637793 
640.000000	 0.635147 
639.000000	 0.632596 
638.000000	 0.630092 
637.000000	 0.627660 
636.000000	 0.625300 
635.000000	 0.622940 
634.000000	 0.620532 
633.000000	 0.618076 
632.000000	 0.615549 
631.000000	 0.612974 
630.000000	 0.610375 
629.000000	 0.607752 
628.000000	 0.605106 
627.000000	 0.602483 
626.000000	 0.599932 
625.000000	 0.597381 
624.000000	 0.594830 
623.000000	 0.592303 
622.000000	 0.589704 
621.000000	 0.587010 
620.000000	 0.584173 
619.000000	 0.581121 
618.000000	 0.577855 
617.000000	 0.574374 
616.000000	 0.570559 
615.000000	 0.566434 
614.000000	 0.561976 
613.000000	 0.557231 
612.000000	 0.552248 
611.000000	 0.547170 
610.000000	 0.542140 
609.000000	 0.537347 
608.000000	 0.532913 
607.000000	 0.529050 
606.000000	 0.525832 
605.000000	 0.523328 
604.000000	 0.521469 
603.000000	 0.520205 
602.000000	 0.519347 
601.000000	 0.518727 
600.000000	 0.518274 
599.000000	 0.517773 
598.000000	 0.517153 
597.000000	 0.516390 
596.000000	 0.515437 
595.000000	 0.514364 
594.000000	 0.513219 
593.000000	 0.512003 
592.000000	 0.510811 
591.000000	 0.509691 
590.000000	 0.508594 
589.000000	 0.507569 
588.000000	 0.506544 
587.000000	 0.505590 
586.000000	 0.504612 
585.000000	 0.503611 
584.000000	 0.502562 
583.000000	 0.501489 
582.000000	 0.500416 
581.000000	 0.499391 
580.000000	 0.498390 
579.000000	 0.497460 
578.000000	 0.496602 
577.000000	 0.495767 
576.000000	 0.494956 
575.000000	 0.494170 
574.000000	 0.493240 
573.000000	 0.492262 
572.000000	 0.491070 
571.000000	 0.489783 
570.000000	 0.488352 
569.000000	 0.486826 
568.000000	 0.485277 
567.000000	 0.483679 
566.000000	 0.482177 
565.000000	 0.480747 
564.000000	 0.479412 
563.000000	 0.478100 
562.000000	 0.476789 
561.000000	 0.475430 
560.000000	 0.473904 
559.000000	 0.472235 
558.000000	 0.470399 
557.000000	 0.468373 
556.000000	 0.466275 
555.000000	 0.464153 
554.000000	 0.462102 
553.000000	 0.460147 
552.000000	 0.458359 
551.000000	 0.456786 
550.000000	 0.455331 
549.000000	 0.453901 
548.000000	 0.452446 
547.000000	 0.450921 
546.000000	 0.449252 
545.000000	 0.447416 
544.000000	 0.445508 
543.000000	 0.443530 
542.000000	 0.441598 
541.000000	 0.439739 
540.000000	 0.437974 
539.000000	 0.436401 
538.000000	 0.434923 
537.000000	 0.433611 
536.000000	 0.432443 
535.000000	 0.431370 
534.000000	 0.430345 
533.000000	 0.429344 
532.000000	 0.428295 
531.000000	 0.427150 
530.000000	 0.425815 
529.000000	 0.424170 
528.000000	 0.422167 
527.000000	 0.419735 
526.000000	 0.416898 
525.000000	 0.413703 
524.000000	 0.410246 
523.000000	 0.406646 
522.000000	 0.403094 
521.000000	 0.399756 
520.000000	 0.396704 
519.000000	 0.394058 
518.000000	 0.391721 
517.000000	 0.389695 
516.000000	 0.387811 
515.000000	 0.385904 
514.000000	 0.383830 
513.000000	 0.381517 
512.000000	 0.378918 
511.000000	 0.376009 
510.000000	 0.372910 
509.000000	 0.369715 
508.000000	 0.366544 
507.000000	 0.363492 
506.000000	 0.360512 
505.000000	 0.357651 
504.000000	 0.354766 
503.000000	 0.351858 
502.000000	 0.348806 
501.000000	 0.345587 
500.000000	 0.342273 
499.000000	 0.338888 
498.000000	 0.335502 
497.000000	 0.332164 
496.000000	 0.328969 
495.000000	 0.325846 
494.000000	 0.322747 
493.000000	 0.319623 
492.000000	 0.316357 
491.000000	 0.312948 
490.000000	 0.309348 
489.000000	 0.305652 
488.000000	 0.301861 
487.000000	 0.298094 
486.000000	 0.294423 
485.000000	 0.290870 
484.000000	 0.287461 
483.000000	 0.284242 
482.000000	 0.281143 
481.000000	 0.278139 
480.000000	 0.275254 
479.000000	 0.272369 
478.000000	 0.269508 
477.000000	 0.266575 
476.000000	 0.263500 
475.000000	 0.260329 
474.000000	 0.256967 
473.000000	 0.253438 
472.000000	 0.249719 
471.000000	 0.245928 
470.000000	 0.242066 
469.000000	 0.238227 
468.000000	 0.234365 
467.000000	 0.230669 
466.000000	 0.227093 
465.000000	 0.223684 
464.000000	 0.220394 
463.000000	 0.217270 
462.000000	 0.214242 
461.000000	 0.211334 
460.000000	 0.208473 
459.000000	 0.205683 
458.000000	 0.202870 
457.000000	 0.200009 
456.000000	 0.197100 
455.000000	 0.194072 
454.000000	 0.190949 
453.000000	 0.187754 
452.000000	 0.184512 
451.000000	 0.181293 
450.000000	 0.178074 
449.000000	 0.174927 
448.000000	 0.171780 
447.000000	 0.168681 
446.000000	 0.165557 
445.000000	 0.162434 
444.000000	 0.159215 
443.000000	 0.155949 
442.000000	 0.152611 
441.000000	 0.149273 
440.000000	 0.145959 
439.000000	 0.142669 
438.000000	 0.139522 
437.000000	 0.136542 
436.000000	 0.133681 
435.000000	 0.130963 
434.000000	 0.128316 
433.000000	 0.125813 
432.000000	 0.123333 
431.000000	 0.120902 
430.000000	 0.118422 
429.000000	 0.115847 
428.000000	 0.113177 
427.000000	 0.110292 
426.000000	 0.107192 
425.000000	 0.103878 
424.000000	 0.100350 
423.000000	 0.096702 
422.000000	 0.092959 
421.000000	 0.089263 
420.000000	 0.085663 
419.000000	 0.082254 
418.000000	 0.079131 
417.000000	 0.076246 
416.000000	 0.073623 
415.000000	 0.071239 
414.000000	 0.068974 
413.000000	 0.066876 
412.000000	 0.064778 
411.000000	 0.062727 
410.000000	 0.060653 
409.000000	 0.058555 
408.000000	 0.056433 
407.000000	 0.054240 
406.000000	 0.052046 
405.000000	 0.049805 
404.000000	 0.047612 
403.000000	 0.045442 
402.000000	 0.043344 
401.000000	 0.041317 
400.000000	 0.039410 
399.000000	 0.037622 
398.000000	 0.036001 
397.000000	 0.034475 
396.000000	 0.033020 
395.000000	 0.031638 
394.000000	 0.030279 
393.000000	 0.028920 
392.000000	 0.027513 
391.000000	 0.026059 
390.000000	 0.024580 
389.000000	 0.023055 
388.000000	 0.021553 
387.000000	 0.020051 
386.000000	 0.018548 
385.000000	 0.017118 
384.000000	 0.015711 
383.000000	 0.014400 
382.000000	 0.013279 
381.000000	 0.012326 
380.000000	 0.011563 
379.000000	 0.011062 
378.000000	 0.010704 
377.000000	 0.010561 
376.000000	 0.010466 
375.000000	 0.010371 
374.000000	 0.010204 
373.000000	 0.009870 
372.000000	 0.009393 
371.000000	 0.008749 
370.000000	 0.008010 

