PE IR       SPECTRUM    SPECTRUM    ASCII       PEDS        1.60        
  -1
LP06BB~1.ASC
17/05/16
16:11:26.00
17/05/16
16:11:26.00
tln
$LPE453_e0123$<ebV0>[-23.3,12.1,10.0,0.0,27,1,0]
370.000000
64









2002,4.07    
MIRTGS : RIGHTBACK : INTERNAL 2
MIR : ON : INTERNAL 2
OPTKBR

0.200000
8
8.000000
FILLER
SINGLE
SPECTRUM
UNLOCKED 256

DOUBLE

COMBINED
1
0
0


1.000000
BACKG


1
0
TRUE
51149
0
LEFT NOT FITTED RIGHT NOT FITTED 0
NONE
NONE
15600
12.000000
4.427000
51148
TRUE
1 0 8 72 0 0 0 0 

15798.010000






#HDR
-1
-1
#GR
CM-1
EGY
0.00002384185791015625
0.0
5000.000000
-1.000000
4631
8
2.420973
0.006079
#DATA
5000.000000	0.765037 
4999.000000	0.765657 
4998.000000	0.766372 
4997.000000	0.767111 
4996.000000	0.767827 
4995.000000	0.768446 
4994.000000	0.768971 
4993.000000	0.769329 
4992.000000	0.769567 
4991.000000	0.769686 
4990.000000	0.769782 
4989.000000	0.769925 
4988.000000	0.770139 
4987.000000	0.770568 
4986.000000	0.771117 
4985.000000	0.771856 
4984.000000	0.772643 
4983.000000	0.773453 
4982.000000	0.774264 
4981.000000	0.774931 
4980.000000	0.775432 
4979.000000	0.775790 
4978.000000	0.776028 
4977.000000	0.776100 
4976.000000	0.776100 
4975.000000	0.776076 
4974.000000	0.776052 
4973.000000	0.776076 
4972.000000	0.776076 
4971.000000	0.776147 
4970.000000	0.776267 
4969.000000	0.776433 
4968.000000	0.776672 
4967.000000	0.776982 
4966.000000	0.777339 
4965.000000	0.777792 
4964.000000	0.778341 
4963.000000	0.779008 
4962.000000	0.779795 
4961.000000	0.780630 
4960.000000	0.781559 
4959.000000	0.782394 
4958.000000	0.783133 
4957.000000	0.783681 
4956.000000	0.784039 
4955.000000	0.784230 
4954.000000	0.784254 
4953.000000	0.784158 
4952.000000	0.784087 
4951.000000	0.784111 
4950.000000	0.784277 
4949.000000	0.784611 
4948.000000	0.785088 
4947.000000	0.785756 
4946.000000	0.786495 
4945.000000	0.787258 
4944.000000	0.788021 
4943.000000	0.788736 
4942.000000	0.789427 
4941.000000	0.790023 
4940.000000	0.790524 
4939.000000	0.791001 
4938.000000	0.791406 
4937.000000	0.791788 
4936.000000	0.792121 
4935.000000	0.792503 
4934.000000	0.792908 
4933.000000	0.793385 
4932.000000	0.793910 
4931.000000	0.794506 
4930.000000	0.795149 
4929.000000	0.795745 
4928.000000	0.796270 
4927.000000	0.796699 
4926.000000	0.796985 
4925.000000	0.797152 
4924.000000	0.797295 
4923.000000	0.797438 
4922.000000	0.797605 
4921.000000	0.797915 
4920.000000	0.798368 
4919.000000	0.798964 
4918.000000	0.799632 
4917.000000	0.800347 
4916.000000	0.801014 
4915.000000	0.801634 
4914.000000	0.802159 
4913.000000	0.802612 
4912.000000	0.802969 
4911.000000	0.803279 
4910.000000	0.803589 
4909.000000	0.803875 
4908.000000	0.804185 
4907.000000	0.804471 
4906.000000	0.804734 
4905.000000	0.804972 
4904.000000	0.805187 
4903.000000	0.805354 
4902.000000	0.805521 
4901.000000	0.805640 
4900.000000	0.805735 
4899.000000	0.805807 
4898.000000	0.805854 
4897.000000	0.805830 
4896.000000	0.805783 
4895.000000	0.805711 
4894.000000	0.805687 
4893.000000	0.805687 
4892.000000	0.805783 
4891.000000	0.805997 
4890.000000	0.806427 
4889.000000	0.807023 
4888.000000	0.807857 
4887.000000	0.808763 
4886.000000	0.809764 
4885.000000	0.810742 
4884.000000	0.811624 
4883.000000	0.812363 
4882.000000	0.812911 
4881.000000	0.813317 
4880.000000	0.813579 
4879.000000	0.813841 
4878.000000	0.814151 
4877.000000	0.814652 
4876.000000	0.815391 
4875.000000	0.816369 
4874.000000	0.817584 
4873.000000	0.818896 
4872.000000	0.820207 
4871.000000	0.821423 
4870.000000	0.822377 
4869.000000	0.823068 
4868.000000	0.823402 
4867.000000	0.823473 
4866.000000	0.823354 
4865.000000	0.823187 
4864.000000	0.823092 
4863.000000	0.823140 
4862.000000	0.823402 
4861.000000	0.823855 
4860.000000	0.824403 
4859.000000	0.825047 
4858.000000	0.825738 
4857.000000	0.826406 
4856.000000	0.826978 
4855.000000	0.827550 
4854.000000	0.828075 
4853.000000	0.828647 
4852.000000	0.829267 
4851.000000	0.829935 
4850.000000	0.830602 
4849.000000	0.831270 
4848.000000	0.831937 
4847.000000	0.832557 
4846.000000	0.833129 
4845.000000	0.833678 
4844.000000	0.834226 
4843.000000	0.834774 
4842.000000	0.835371 
4841.000000	0.836062 
4840.000000	0.836777 
4839.000000	0.837540 
4838.000000	0.838303 
4837.000000	0.839018 
4836.000000	0.839710 
4835.000000	0.840330 
4834.000000	0.840926 
4833.000000	0.841474 
4832.000000	0.842022 
4831.000000	0.842618 
4830.000000	0.843262 
4829.000000	0.843977 
4828.000000	0.844764 
4827.000000	0.845575 
4826.000000	0.846433 
4825.000000	0.847315 
4824.000000	0.848150 
4823.000000	0.848937 
4822.000000	0.849676 
4821.000000	0.850296 
4820.000000	0.850868 
4819.000000	0.851368 
4818.000000	0.851869 
4817.000000	0.852346 
4816.000000	0.852823 
4815.000000	0.853347 
4814.000000	0.853919 
4813.000000	0.854539 
4812.000000	0.855183 
4811.000000	0.855875 
4810.000000	0.856590 
4809.000000	0.857305 
4808.000000	0.858020 
4807.000000	0.858712 
4806.000000	0.859403 
4805.000000	0.860095 
4804.000000	0.860786 
4803.000000	0.861454 
4802.000000	0.862121 
4801.000000	0.862789 
4800.000000	0.863432 
4799.000000	0.864100 
4798.000000	0.864720 
4797.000000	0.865340 
4796.000000	0.865936 
4795.000000	0.866508 
4794.000000	0.867033 
4793.000000	0.867509 
4792.000000	0.867938 
4791.000000	0.868320 
4790.000000	0.868630 
4789.000000	0.868892 
4788.000000	0.869131 
4787.000000	0.869345 
4786.000000	0.869560 
4785.000000	0.869846 
4784.000000	0.870203 
4783.000000	0.870656 
4782.000000	0.871205 
4781.000000	0.871801 
4780.000000	0.872421 
4779.000000	0.873041 
4778.000000	0.873541 
4777.000000	0.873947 
4776.000000	0.874233 
4775.000000	0.874495 
4774.000000	0.874733 
4773.000000	0.875043 
4772.000000	0.875449 
4771.000000	0.875973 
4770.000000	0.876641 
4769.000000	0.877404 
4768.000000	0.878190 
4767.000000	0.878977 
4766.000000	0.879716 
4765.000000	0.880312 
4764.000000	0.880861 
4763.000000	0.881385 
4762.000000	0.881910 
4761.000000	0.882434 
4760.000000	0.883030 
4759.000000	0.883674 
4758.000000	0.884318 
4757.000000	0.884938 
4756.000000	0.885462 
4755.000000	0.885868 
4754.000000	0.886106 
4753.000000	0.886178 
4752.000000	0.886130 
4751.000000	0.885987 
4750.000000	0.885868 
4749.000000	0.885820 
4748.000000	0.885939 
4747.000000	0.886178 
4746.000000	0.886559 
4745.000000	0.887060 
4744.000000	0.887584 
4743.000000	0.888085 
4742.000000	0.888538 
4741.000000	0.888943 
4740.000000	0.889277 
4739.000000	0.889611 
4738.000000	0.890040 
4737.000000	0.890564 
4736.000000	0.891232 
4735.000000	0.892066 
4734.000000	0.892949 
4733.000000	0.893831 
4732.000000	0.894665 
4731.000000	0.895309 
4730.000000	0.895738 
4729.000000	0.895953 
4728.000000	0.895977 
4727.000000	0.895833 
4726.000000	0.895643 
4725.000000	0.895404 
4724.000000	0.895309 
4723.000000	0.895261 
4722.000000	0.895428 
4721.000000	0.895690 
4720.000000	0.896072 
4719.000000	0.896525 
4718.000000	0.897002 
4717.000000	0.897479 
4716.000000	0.897860 
4715.000000	0.898146 
4714.000000	0.898361 
4713.000000	0.898480 
4712.000000	0.898504 
4711.000000	0.898456 
4710.000000	0.898337 
4709.000000	0.898170 
4708.000000	0.897955 
4707.000000	0.897717 
4706.000000	0.897502 
4705.000000	0.897431 
4704.000000	0.897479 
4703.000000	0.897789 
4702.000000	0.898289 
4701.000000	0.899004 
4700.000000	0.899910 
4699.000000	0.900912 
4698.000000	0.901889 
4697.000000	0.902748 
4696.000000	0.903367 
4695.000000	0.903725 
4694.000000	0.903820 
4693.000000	0.903630 
4692.000000	0.903177 
4691.000000	0.902557 
4690.000000	0.901794 
4689.000000	0.901031 
4688.000000	0.900316 
4687.000000	0.899720 
4686.000000	0.899338 
4685.000000	0.899195 
4684.000000	0.899291 
4683.000000	0.899600 
4682.000000	0.900101 
4681.000000	0.900745 
4680.000000	0.901436 
4679.000000	0.902080 
4678.000000	0.902676 
4677.000000	0.903153 
4676.000000	0.903534 
4675.000000	0.903773 
4674.000000	0.903964 
4673.000000	0.904011 
4672.000000	0.904011 
4671.000000	0.903964 
4670.000000	0.903940 
4669.000000	0.903892 
4668.000000	0.903892 
4667.000000	0.904035 
4666.000000	0.904273 
4665.000000	0.904703 
4664.000000	0.905227 
4663.000000	0.905799 
4662.000000	0.906372 
4661.000000	0.906872 
4660.000000	0.907182 
4659.000000	0.907301 
4658.000000	0.907254 
4657.000000	0.907039 
4656.000000	0.906753 
4655.000000	0.906467 
4654.000000	0.906252 
4653.000000	0.906157 
4652.000000	0.906181 
4651.000000	0.906252 
4650.000000	0.906348 
4649.000000	0.906467 
4648.000000	0.906515 
4647.000000	0.906515 
4646.000000	0.906538 
4645.000000	0.906634 
4644.000000	0.906848 
4643.000000	0.907230 
4642.000000	0.907850 
4641.000000	0.908684 
4640.000000	0.909638 
4639.000000	0.910663 
4638.000000	0.911664 
4637.000000	0.912594 
4636.000000	0.913429 
4635.000000	0.914168 
4634.000000	0.914883 
4633.000000	0.915551 
4632.000000	0.916266 
4631.000000	0.917005 
4630.000000	0.917744 
4629.000000	0.918459 
4628.000000	0.919151 
4627.000000	0.919723 
4626.000000	0.920200 
4625.000000	0.920557 
4624.000000	0.920891 
4623.000000	0.921177 
4622.000000	0.921535 
4621.000000	0.921988 
4620.000000	0.922536 
4619.000000	0.923204 
4618.000000	0.924015 
4617.000000	0.924944 
4616.000000	0.925993 
4615.000000	0.927209 
4614.000000	0.928521 
4613.000000	0.929903 
4612.000000	0.931334 
4611.000000	0.932669 
4610.000000	0.933837 
4609.000000	0.934743 
4608.000000	0.935316 
4607.000000	0.935482 
4606.000000	0.935268 
4605.000000	0.934743 
4604.000000	0.934028 
4603.000000	0.933170 
4602.000000	0.932264 
4601.000000	0.931382 
4600.000000	0.930547 
4599.000000	0.929760 
4598.000000	0.929021 
4597.000000	0.928378 
4596.000000	0.927853 
4595.000000	0.927567 
4594.000000	0.927567 
4593.000000	0.927877 
4592.000000	0.928473 
4591.000000	0.929331 
4590.000000	0.930356 
4589.000000	0.931477 
4588.000000	0.932669 
4587.000000	0.933909 
4586.000000	0.935244 
4585.000000	0.936794 
4584.000000	0.938653 
4583.000000	0.940847 
4582.000000	0.943350 
4581.000000	0.945997 
4580.000000	0.948596 
4579.000000	0.950908 
4578.000000	0.952649 
4577.000000	0.953722 
4576.000000	0.954031 
4575.000000	0.953722 
4574.000000	0.952982 
4573.000000	0.952053 
4572.000000	0.951242 
4571.000000	0.950765 
4570.000000	0.950765 
4569.000000	0.951313 
4568.000000	0.952410 
4567.000000	0.953960 
4566.000000	0.955724 
4565.000000	0.957608 
4564.000000	0.959396 
4563.000000	0.960874 
4562.000000	0.961971 
4561.000000	0.962615 
4560.000000	0.962781 
4559.000000	0.962567 
4558.000000	0.961995 
4557.000000	0.961136 
4556.000000	0.960135 
4555.000000	0.959086 
4554.000000	0.958180 
4553.000000	0.957512 
4552.000000	0.957155 
4551.000000	0.957202 
4550.000000	0.957655 
4549.000000	0.958538 
4548.000000	0.959801 
4547.000000	0.961327 
4546.000000	0.963020 
4545.000000	0.964927 
4544.000000	0.967001 
4543.000000	0.969409 
4542.000000	0.972151 
4541.000000	0.975227 
4540.000000	0.978589 
4539.000000	0.982022 
4538.000000	0.985217 
4537.000000	0.987863 
4536.000000	0.989651 
4535.000000	0.990629 
4534.000000	0.990867 
4533.000000	0.990676 
4532.000000	0.990486 
4531.000000	0.990533 
4530.000000	0.990962 
4529.000000	0.991821 
4528.000000	0.992774 
4527.000000	0.993561 
4526.000000	0.993919 
4525.000000	0.993824 
4524.000000	0.993585 
4523.000000	0.993704 
4522.000000	0.994753 
4521.000000	0.997233 
4520.000000	1.001262 
4519.000000	1.006436 
4518.000000	1.011776 
4517.000000	1.016044 
4516.000000	1.017904 
4515.000000	1.016354 
4514.000000	1.010870 
4513.000000	1.001882 
4512.000000	0.990319 
4511.000000	0.977921 
4510.000000	0.966477 
4509.000000	0.957798 
4508.000000	0.953197 
4507.000000	0.953269 
4506.000000	0.957846 
4505.000000	0.966048 
4504.000000	0.976419 
4503.000000	0.987458 
4502.000000	0.997495 
4501.000000	1.005339 
4500.000000	1.010107 
4499.000000	1.011562 
4498.000000	1.009821 
4497.000000	1.005530 
4496.000000	0.999498 
4495.000000	0.992703 
4494.000000	0.986170 
4493.000000	0.980710 
4492.000000	0.976920 
4491.000000	0.975131 
4490.000000	0.975370 
4489.000000	0.977301 
4488.000000	0.980496 
4487.000000	0.984358 
4486.000000	0.988245 
4485.000000	0.991678 
4484.000000	0.994324 
4483.000000	0.996017 
4482.000000	0.996780 
4481.000000	0.996732 
4480.000000	0.996065 
4479.000000	0.995039 
4478.000000	0.993847 
4477.000000	0.992727 
4476.000000	0.991773 
4475.000000	0.991153 
4474.000000	0.991010 
4473.000000	0.991320 
4472.000000	0.992083 
4471.000000	0.993204 
4470.000000	0.994634 
4469.000000	0.996255 
4468.000000	0.997900 
4467.000000	0.999498 
4466.000000	1.000905 
4465.000000	1.002168 
4464.000000	1.003265 
4463.000000	1.004171 
4462.000000	1.004910 
4461.000000	1.005554 
4460.000000	1.006126 
4459.000000	1.006603 
4458.000000	1.006960 
4457.000000	1.007175 
4456.000000	1.007318 
4455.000000	1.007413 
4454.000000	1.007461 
4453.000000	1.007580 
4452.000000	1.007676 
4451.000000	1.007795 
4450.000000	1.007914 
4449.000000	1.007938 
4448.000000	1.007866 
4447.000000	1.007723 
4446.000000	1.007461 
4445.000000	1.007175 
4444.000000	1.006889 
4443.000000	1.006698 
4442.000000	1.006674 
4441.000000	1.006841 
4440.000000	1.007151 
4439.000000	1.007580 
4438.000000	1.008033 
4437.000000	1.008439 
4436.000000	1.008701 
4435.000000	1.008796 
4434.000000	1.008701 
4433.000000	1.008462 
4432.000000	1.008152 
4431.000000	1.007819 
4430.000000	1.007556 
4429.000000	1.007437 
4428.000000	1.007556 
4427.000000	1.007866 
4426.000000	1.008391 
4425.000000	1.009082 
4424.000000	1.009869 
4423.000000	1.010727 
4422.000000	1.011466 
4421.000000	1.012110 
4420.000000	1.012587 
4419.000000	1.012849 
4418.000000	1.012945 
4417.000000	1.012897 
4416.000000	1.012754 
4415.000000	1.012587 
4414.000000	1.012396 
4413.000000	1.012277 
4412.000000	1.012229 
4411.000000	1.012349 
4410.000000	1.012659 
4409.000000	1.013207 
4408.000000	1.013970 
4407.000000	1.014995 
4406.000000	1.016163 
4405.000000	1.017427 
4404.000000	1.018667 
4403.000000	1.019883 
4402.000000	1.020884 
4401.000000	1.021742 
4400.000000	1.022362 
4399.000000	1.022815 
4398.000000	1.023149 
4397.000000	1.023435 
4396.000000	1.023674 
4395.000000	1.023864 
4394.000000	1.024007 
4393.000000	1.024079 
4392.000000	1.024031 
4391.000000	1.023888 
4390.000000	1.023674 
4389.000000	1.023387 
4388.000000	1.023125 
4387.000000	1.022982 
4386.000000	1.022982 
4385.000000	1.023125 
4384.000000	1.023483 
4383.000000	1.023983 
4382.000000	1.024651 
4381.000000	1.025462 
4380.000000	1.026344 
4379.000000	1.027274 
4378.000000	1.028227 
4377.000000	1.029229 
4376.000000	1.030302 
4375.000000	1.031398 
4374.000000	1.032471 
4373.000000	1.033592 
4372.000000	1.034617 
4371.000000	1.035666 
4370.000000	1.036691 
4369.000000	1.037693 
4368.000000	1.038599 
4367.000000	1.039481 
4366.000000	1.040291 
4365.000000	1.041054 
4364.000000	1.041722 
4363.000000	1.042342 
4362.000000	1.042842 
4361.000000	1.043295 
4360.000000	1.043701 
4359.000000	1.044082 
4358.000000	1.044487 
4357.000000	1.044917 
4356.000000	1.045441 
4355.000000	1.046085 
4354.000000	1.046872 
4353.000000	1.047730 
4352.000000	1.048684 
4351.000000	1.049613 
4350.000000	1.050615 
4349.000000	1.051568 
4348.000000	1.052522 
4347.000000	1.053476 
4346.000000	1.054501 
4345.000000	1.055574 
4344.000000	1.056742 
4343.000000	1.058053 
4342.000000	1.059436 
4341.000000	1.060867 
4340.000000	1.062297 
4339.000000	1.063704 
4338.000000	1.065015 
4337.000000	1.066255 
4336.000000	1.067423 
4335.000000	1.068496 
4334.000000	1.069498 
4333.000000	1.070451 
4332.000000	1.071381 
4331.000000	1.072216 
4330.000000	1.072931 
4329.000000	1.073575 
4328.000000	1.074171 
4327.000000	1.074719 
4326.000000	1.075291 
4325.000000	1.075983 
4324.000000	1.076841 
4323.000000	1.077914 
4322.000000	1.079177 
4321.000000	1.080632 
4320.000000	1.082205 
4319.000000	1.083850 
4318.000000	1.085543 
4317.000000	1.087164 
4316.000000	1.088690 
4315.000000	1.090025 
4314.000000	1.091217 
4313.000000	1.092171 
4312.000000	1.093029 
4311.000000	1.093721 
4310.000000	1.094317 
4309.000000	1.094937 
4308.000000	1.095676 
4307.000000	1.096487 
4306.000000	1.097512 
4305.000000	1.098752 
4304.000000	1.100158 
4303.000000	1.101732 
4302.000000	1.103401 
4301.000000	1.105141 
4300.000000	1.106905 
4299.000000	1.108646 
4298.000000	1.110339 
4297.000000	1.111984 
4296.000000	1.113557 
4295.000000	1.115083 
4294.000000	1.116490 
4293.000000	1.117730 
4292.000000	1.118850 
4291.000000	1.119756 
4290.000000	1.120471 
4289.000000	1.120996 
4288.000000	1.121425 
4287.000000	1.121735 
4286.000000	1.122021 
4285.000000	1.122355 
4284.000000	1.122832 
4283.000000	1.123476 
4282.000000	1.124310 
4281.000000	1.125311 
4280.000000	1.126432 
4279.000000	1.127672 
4278.000000	1.129007 
4277.000000	1.130366 
4276.000000	1.131725 
4275.000000	1.133203 
4274.000000	1.134705 
4273.000000	1.136231 
4272.000000	1.137804 
4271.000000	1.139330 
4270.000000	1.140785 
4269.000000	1.142096 
4268.000000	1.143240 
4267.000000	1.144170 
4266.000000	1.144957 
4265.000000	1.145625 
4264.000000	1.146221 
4263.000000	1.146817 
4262.000000	1.147460 
4261.000000	1.148200 
4260.000000	1.149058 
4259.000000	1.149988 
4258.000000	1.150965 
4257.000000	1.152014 
4256.000000	1.153087 
4255.000000	1.154160 
4254.000000	1.155209 
4253.000000	1.156210 
4252.000000	1.157164 
4251.000000	1.158094 
4250.000000	1.158952 
4249.000000	1.159667 
4248.000000	1.160287 
4247.000000	1.160883 
4246.000000	1.161384 
4245.000000	1.161861 
4244.000000	1.162362 
4243.000000	1.162910 
4242.000000	1.163578 
4241.000000	1.164340 
4240.000000	1.165223 
4239.000000	1.166200 
4238.000000	1.167178 
4237.000000	1.168203 
4236.000000	1.169061 
4235.000000	1.169776 
4234.000000	1.170277 
4233.000000	1.170587 
4232.000000	1.170730 
4231.000000	1.170802 
4230.000000	1.170849 
4229.000000	1.170969 
4228.000000	1.171183 
4227.000000	1.171565 
4226.000000	1.172065 
4225.000000	1.172685 
4224.000000	1.173400 
4223.000000	1.174139 
4222.000000	1.174855 
4221.000000	1.175522 
4220.000000	1.176142 
4219.000000	1.176691 
4218.000000	1.177215 
4217.000000	1.177716 
4216.000000	1.178216 
4215.000000	1.178789 
4214.000000	1.179409 
4213.000000	1.180124 
4212.000000	1.180839 
4211.000000	1.181650 
4210.000000	1.182484 
4209.000000	1.183319 
4208.000000	1.184129 
4207.000000	1.184892 
4206.000000	1.185584 
4205.000000	1.186203 
4204.000000	1.186776 
4203.000000	1.187300 
4202.000000	1.187777 
4201.000000	1.188135 
4200.000000	1.188421 
4199.000000	1.188588 
4198.000000	1.188588 
4197.000000	1.188468 
4196.000000	1.188158 
4195.000000	1.187777 
4194.000000	1.187348 
4193.000000	1.186966 
4192.000000	1.186776 
4191.000000	1.186823 
4190.000000	1.187133 
4189.000000	1.187729 
4188.000000	1.188564 
4187.000000	1.189517 
4186.000000	1.190519 
4185.000000	1.191520 
4184.000000	1.192355 
4183.000000	1.193046 
4182.000000	1.193618 
4181.000000	1.194095 
4180.000000	1.194620 
4179.000000	1.195216 
4178.000000	1.196002 
4177.000000	1.197004 
4176.000000	1.198172 
4175.000000	1.199436 
4174.000000	1.200723 
4173.000000	1.201915 
4172.000000	1.202964 
4171.000000	1.203751 
4170.000000	1.204347 
4169.000000	1.204776 
4168.000000	1.205158 
4167.000000	1.205492 
4166.000000	1.205968 
4165.000000	1.206588 
4164.000000	1.207351 
4163.000000	1.208186 
4162.000000	1.209068 
4161.000000	1.209902 
4160.000000	1.210594 
4159.000000	1.211142 
4158.000000	1.211524 
4157.000000	1.211786 
4156.000000	1.211977 
4155.000000	1.212191 
4154.000000	1.212477 
4153.000000	1.212859 
4152.000000	1.213383 
4151.000000	1.214003 
4150.000000	1.214742 
4149.000000	1.215457 
4148.000000	1.216125 
4147.000000	1.216721 
4146.000000	1.217246 
4145.000000	1.217603 
4144.000000	1.217889 
4143.000000	1.218152 
4142.000000	1.218390 
4141.000000	1.218724 
4140.000000	1.219201 
4139.000000	1.219820 
4138.000000	1.220631 
4137.000000	1.221489 
4136.000000	1.222419 
4135.000000	1.223397 
4134.000000	1.224303 
4133.000000	1.225256 
4132.000000	1.226139 
4131.000000	1.227116 
4130.000000	1.228141 
4129.000000	1.229190 
4128.000000	1.230359 
4127.000000	1.231575 
4126.000000	1.232814 
4125.000000	1.234030 
4124.000000	1.235151 
4123.000000	1.236200 
4122.000000	1.237130 
4121.000000	1.237988 
4120.000000	1.238799 
4119.000000	1.239633 
4118.000000	1.240468 
4117.000000	1.241302 
4116.000000	1.242136 
4115.000000	1.242923 
4114.000000	1.243710 
4113.000000	1.244425 
4112.000000	1.245141 
4111.000000	1.245880 
4110.000000	1.246619 
4109.000000	1.247453 
4108.000000	1.248407 
4107.000000	1.249432 
4106.000000	1.250529 
4105.000000	1.251626 
4104.000000	1.252722 
4103.000000	1.253724 
4102.000000	1.254701 
4101.000000	1.255631 
4100.000000	1.256537 
4099.000000	1.257491 
4098.000000	1.258540 
4097.000000	1.259684 
4096.000000	1.260995 
4095.000000	1.262402 
4094.000000	1.263880 
4093.000000	1.265406 
4092.000000	1.266884 
4091.000000	1.268243 
4090.000000	1.269483 
4089.000000	1.270556 
4088.000000	1.271438 
4087.000000	1.272273 
4086.000000	1.273083 
4085.000000	1.273941 
4084.000000	1.274895 
4083.000000	1.275944 
4082.000000	1.277208 
4081.000000	1.278591 
4080.000000	1.280045 
4079.000000	1.281619 
4078.000000	1.283216 
4077.000000	1.284766 
4076.000000	1.286292 
4075.000000	1.287770 
4074.000000	1.289200 
4073.000000	1.290559 
4072.000000	1.291823 
4071.000000	1.293015 
4070.000000	1.294112 
4069.000000	1.295161 
4068.000000	1.296162 
4067.000000	1.297187 
4066.000000	1.298260 
4065.000000	1.299452 
4064.000000	1.300764 
4063.000000	1.302194 
4062.000000	1.303768 
4061.000000	1.305460 
4060.000000	1.307153 
4059.000000	1.308798 
4058.000000	1.310420 
4057.000000	1.311969 
4056.000000	1.313424 
4055.000000	1.314806 
4054.000000	1.316142 
4053.000000	1.317429 
4052.000000	1.318693 
4051.000000	1.320004 
4050.000000	1.321291 
4049.000000	1.322627 
4048.000000	1.323938 
4047.000000	1.325273 
4046.000000	1.326560 
4045.000000	1.327824 
4044.000000	1.329016 
4043.000000	1.330113 
4042.000000	1.331114 
4041.000000	1.332044 
4040.000000	1.332950 
4039.000000	1.333856 
4038.000000	1.334834 
4037.000000	1.335930 
4036.000000	1.337218 
4035.000000	1.338696 
4034.000000	1.340293 
4033.000000	1.342010 
4032.000000	1.343703 
4031.000000	1.345372 
4030.000000	1.346921 
4029.000000	1.348304 
4028.000000	1.349449 
4027.000000	1.350426 
4026.000000	1.351284 
4025.000000	1.352024 
4024.000000	1.352739 
4023.000000	1.353430 
4022.000000	1.354146 
4021.000000	1.354956 
4020.000000	1.355838 
4019.000000	1.356840 
4018.000000	1.357936 
4017.000000	1.359105 
4016.000000	1.360321 
4015.000000	1.361608 
4014.000000	1.362919 
4013.000000	1.364183 
4012.000000	1.365447 
4011.000000	1.366662 
4010.000000	1.367855 
4009.000000	1.369047 
4008.000000	1.370215 
4007.000000	1.371407 
4006.000000	1.372623 
4005.000000	1.373815 
4004.000000	1.375031 
4003.000000	1.376175 
4002.000000	1.377272 
4001.000000	1.378297 
4000.000000	1.379275 
3999.000000	1.380157 
3998.000000	1.381039 
3997.000000	1.381874 
3996.000000	1.382708 
3995.000000	1.383543 
3994.000000	1.384401 
3993.000000	1.385188 
3992.000000	1.385951 
3991.000000	1.386666 
3990.000000	1.387381 
3989.000000	1.388072 
3988.000000	1.388716 
3987.000000	1.389408 
3986.000000	1.390147 
3985.000000	1.390862 
3984.000000	1.391553 
3983.000000	1.392245 
3982.000000	1.392889 
3981.000000	1.393485 
3980.000000	1.394081 
3979.000000	1.394629 
3978.000000	1.395225 
3977.000000	1.395845 
3976.000000	1.396536 
3975.000000	1.397299 
3974.000000	1.398134 
3973.000000	1.399016 
3972.000000	1.399898 
3971.000000	1.400804 
3970.000000	1.401615 
3969.000000	1.402378 
3968.000000	1.402950 
3967.000000	1.403427 
3966.000000	1.403689 
3965.000000	1.403808 
3964.000000	1.403784 
3963.000000	1.403665 
3962.000000	1.403522 
3961.000000	1.403450 
3960.000000	1.403522 
3959.000000	1.403737 
3958.000000	1.404118 
3957.000000	1.404619 
3956.000000	1.405215 
3955.000000	1.405835 
3954.000000	1.406431 
3953.000000	1.406931 
3952.000000	1.407408 
3951.000000	1.407742 
3950.000000	1.408004 
3949.000000	1.408243 
3948.000000	1.408505 
3947.000000	1.408815 
3946.000000	1.409244 
3945.000000	1.409745 
3944.000000	1.410388 
3943.000000	1.411080 
3942.000000	1.411843 
3941.000000	1.412582 
3940.000000	1.413273 
3939.000000	1.413846 
3938.000000	1.414251 
3937.000000	1.414465 
3936.000000	1.414585 
3935.000000	1.414537 
3934.000000	1.414370 
3933.000000	1.414179 
3932.000000	1.413965 
3931.000000	1.413798 
3930.000000	1.413726 
3929.000000	1.413679 
3928.000000	1.413726 
3927.000000	1.413869 
3926.000000	1.414155 
3925.000000	1.414537 
3924.000000	1.415014 
3923.000000	1.415586 
3922.000000	1.416158 
3921.000000	1.416730 
3920.000000	1.417279 
3919.000000	1.417756 
3918.000000	1.418185 
3917.000000	1.418638 
3916.000000	1.419138 
3915.000000	1.419734 
3914.000000	1.420426 
3913.000000	1.421260 
3912.000000	1.422071 
3911.000000	1.422739 
3910.000000	1.423192 
3909.000000	1.423335 
3908.000000	1.423096 
3907.000000	1.422572 
3906.000000	1.421809 
3905.000000	1.420950 
3904.000000	1.420211 
3903.000000	1.419711 
3902.000000	1.419639 
3901.000000	1.419973 
3900.000000	1.420712 
3899.000000	1.421737 
3898.000000	1.422929 
3897.000000	1.424145 
3896.000000	1.425313 
3895.000000	1.426291 
3894.000000	1.427006 
3893.000000	1.427412 
3892.000000	1.427650 
3891.000000	1.427674 
3890.000000	1.427507 
3889.000000	1.427292 
3888.000000	1.427054 
3887.000000	1.426959 
3886.000000	1.427054 
3885.000000	1.427412 
3884.000000	1.428055 
3883.000000	1.428985 
3882.000000	1.430130 
3881.000000	1.431369 
3880.000000	1.432585 
3879.000000	1.433706 
3878.000000	1.434612 
3877.000000	1.435303 
3876.000000	1.435756 
3875.000000	1.436018 
3874.000000	1.436209 
3873.000000	1.436376 
3872.000000	1.436638 
3871.000000	1.437020 
3870.000000	1.437568 
3869.000000	1.438307 
3868.000000	1.439213 
3867.000000	1.440262 
3866.000000	1.441359 
3865.000000	1.442408 
3864.000000	1.443314 
3863.000000	1.443886 
3862.000000	1.443982 
3861.000000	1.443529 
3860.000000	1.442503 
3859.000000	1.441001 
3858.000000	1.439189 
3857.000000	1.437354 
3856.000000	1.435875 
3855.000000	1.435041 
3854.000000	1.435065 
3853.000000	1.436090 
3852.000000	1.438069 
3851.000000	1.440787 
3850.000000	1.443982 
3849.000000	1.447248 
3848.000000	1.450395 
3847.000000	1.453089 
3846.000000	1.455187 
3845.000000	1.456713 
3844.000000	1.457667 
3843.000000	1.458215 
3842.000000	1.458501 
3841.000000	1.458716 
3840.000000	1.459002 
3839.000000	1.459503 
3838.000000	1.460242 
3837.000000	1.461362 
3836.000000	1.462745 
3835.000000	1.464438 
3834.000000	1.466345 
3833.000000	1.468372 
3832.000000	1.470422 
3831.000000	1.472377 
3830.000000	1.474142 
3829.000000	1.475572 
3828.000000	1.476669 
3827.000000	1.477360 
3826.000000	1.477694 
3825.000000	1.477646 
3824.000000	1.477360 
3823.000000	1.476907 
3822.000000	1.476454 
3821.000000	1.476097 
3820.000000	1.476001 
3819.000000	1.476287 
3818.000000	1.477026 
3817.000000	1.478219 
3816.000000	1.479816 
3815.000000	1.481747 
3814.000000	1.483845 
3813.000000	1.485991 
3812.000000	1.488041 
3811.000000	1.489853 
3810.000000	1.491379 
3809.000000	1.492595 
3808.000000	1.493477 
3807.000000	1.494145 
3806.000000	1.494693 
3805.000000	1.495218 
3804.000000	1.495862 
3803.000000	1.496672 
3802.000000	1.497769 
3801.000000	1.499223 
3800.000000	1.501035 
3799.000000	1.503157 
3798.000000	1.505541 
3797.000000	1.508069 
3796.000000	1.510643 
3795.000000	1.513123 
3794.000000	1.515412 
3793.000000	1.517438 
3792.000000	1.519179 
3791.000000	1.520609 
3790.000000	1.521754 
3789.000000	1.522636 
3788.000000	1.523303 
3787.000000	1.523852 
3786.000000	1.524305 
3785.000000	1.524734 
3784.000000	1.525163 
3783.000000	1.525640 
3782.000000	1.526188 
3781.000000	1.526856 
3780.000000	1.527643 
3779.000000	1.528549 
3778.000000	1.529479 
3777.000000	1.530408 
3776.000000	1.531291 
3775.000000	1.532077 
3774.000000	1.532745 
3773.000000	1.533293 
3772.000000	1.533794 
3771.000000	1.534247 
3770.000000	1.534700 
3769.000000	1.535129 
3768.000000	1.535630 
3767.000000	1.536130 
3766.000000	1.536679 
3765.000000	1.537203 
3764.000000	1.537704 
3763.000000	1.538205 
3762.000000	1.538562 
3761.000000	1.538777 
3760.000000	1.538753 
3759.000000	1.538443 
3758.000000	1.537775 
3757.000000	1.536774 
3756.000000	1.535415 
3755.000000	1.533865 
3754.000000	1.532196 
3753.000000	1.530599 
3752.000000	1.529192 
3751.000000	1.528072 
3750.000000	1.527357 
3749.000000	1.527118 
3748.000000	1.527357 
3747.000000	1.528143 
3746.000000	1.529383 
3745.000000	1.531052 
3744.000000	1.533055 
3743.000000	1.535177 
3742.000000	1.537299 
3741.000000	1.539301 
3740.000000	1.541042 
3739.000000	1.542496 
3738.000000	1.543641 
3737.000000	1.544499 
3736.000000	1.545357 
3735.000000	1.546192 
3734.000000	1.547193 
3733.000000	1.548385 
3732.000000	1.549744 
3731.000000	1.551198 
3730.000000	1.552605 
3729.000000	1.553916 
3728.000000	1.555037 
3727.000000	1.555919 
3726.000000	1.556658 
3725.000000	1.557278 
3724.000000	1.557874 
3723.000000	1.558470 
3722.000000	1.559090 
3721.000000	1.559662 
3720.000000	1.560091 
3719.000000	1.560330 
3718.000000	1.560282 
3717.000000	1.559925 
3716.000000	1.559305 
3715.000000	1.558494 
3714.000000	1.557707 
3713.000000	1.557040 
3712.000000	1.556634 
3711.000000	1.556611 
3710.000000	1.556992 
3709.000000	1.557660 
3708.000000	1.558589 
3707.000000	1.559662 
3706.000000	1.560735 
3705.000000	1.561784 
3704.000000	1.562714 
3703.000000	1.563549 
3702.000000	1.564288 
3701.000000	1.564908 
3700.000000	1.565384 
3699.000000	1.565718 
3698.000000	1.565766 
3697.000000	1.565456 
3696.000000	1.564764 
3695.000000	1.563620 
3694.000000	1.562094 
3693.000000	1.560306 
3692.000000	1.558470 
3691.000000	1.556801 
3690.000000	1.555490 
3689.000000	1.554751 
3688.000000	1.554608 
3687.000000	1.555037 
3686.000000	1.555895 
3685.000000	1.556968 
3684.000000	1.558017 
3683.000000	1.558780 
3682.000000	1.559090 
3681.000000	1.558852 
3680.000000	1.558041 
3679.000000	1.556801 
3678.000000	1.555252 
3677.000000	1.553678 
3676.000000	1.552271 
3675.000000	1.551246 
3674.000000	1.550650 
3673.000000	1.550650 
3672.000000	1.551175 
3671.000000	1.552224 
3670.000000	1.553726 
3669.000000	1.555514 
3668.000000	1.557469 
3667.000000	1.559472 
3666.000000	1.561307 
3665.000000	1.562929 
3664.000000	1.564192 
3663.000000	1.565098 
3662.000000	1.565575 
3661.000000	1.565647 
3660.000000	1.565313 
3659.000000	1.564669 
3658.000000	1.563668 
3657.000000	1.562428 
3656.000000	1.560997 
3655.000000	1.559472 
3654.000000	1.557946 
3653.000000	1.556539 
3652.000000	1.555418 
3651.000000	1.554679 
3650.000000	1.554536 
3649.000000	1.554918 
3648.000000	1.555919 
3647.000000	1.557350 
3646.000000	1.559138 
3645.000000	1.561069 
3644.000000	1.562952 
3643.000000	1.564693 
3642.000000	1.566100 
3641.000000	1.567173 
3640.000000	1.567864 
3639.000000	1.568150 
3638.000000	1.568031 
3637.000000	1.567530 
3636.000000	1.566696 
3635.000000	1.565623 
3634.000000	1.564383 
3633.000000	1.563143 
3632.000000	1.562047 
3631.000000	1.561236 
3630.000000	1.560902 
3629.000000	1.561069 
3628.000000	1.561665 
3627.000000	1.562619 
3626.000000	1.563787 
3625.000000	1.564931 
3624.000000	1.565980 
3623.000000	1.566791 
3622.000000	1.567292 
3621.000000	1.567602 
3620.000000	1.567745 
3619.000000	1.567816 
3618.000000	1.567864 
3617.000000	1.568007 
3616.000000	1.568198 
3615.000000	1.568508 
3614.000000	1.568889 
3613.000000	1.569366 
3612.000000	1.569867 
3611.000000	1.570463 
3610.000000	1.571178 
3609.000000	1.572012 
3608.000000	1.572942 
3607.000000	1.573967 
3606.000000	1.575088 
3605.000000	1.576256 
3604.000000	1.577401 
3603.000000	1.578521 
3602.000000	1.579642 
3601.000000	1.580619 
3600.000000	1.581549 
3599.000000	1.582336 
3598.000000	1.583051 
3597.000000	1.583552 
3596.000000	1.583886 
3595.000000	1.584053 
3594.000000	1.584076 
3593.000000	1.583933 
3592.000000	1.583743 
3591.000000	1.583552 
3590.000000	1.583456 
3589.000000	1.583504 
3588.000000	1.583719 
3587.000000	1.584148 
3586.000000	1.584720 
3585.000000	1.585388 
3584.000000	1.586103 
3583.000000	1.586866 
3582.000000	1.587581 
3581.000000	1.588273 
3580.000000	1.588916 
3579.000000	1.589488 
3578.000000	1.590013 
3577.000000	1.590490 
3576.000000	1.590824 
3575.000000	1.591014 
3574.000000	1.591062 
3573.000000	1.590967 
3572.000000	1.590776 
3571.000000	1.590561 
3570.000000	1.590418 
3569.000000	1.590490 
3568.000000	1.590824 
3567.000000	1.591515 
3566.000000	1.592445 
3565.000000	1.593685 
3564.000000	1.595115 
3563.000000	1.596570 
3562.000000	1.598000 
3561.000000	1.599264 
3560.000000	1.600384 
3559.000000	1.601266 
3558.000000	1.601958 
3557.000000	1.602530 
3556.000000	1.602983 
3555.000000	1.603412 
3554.000000	1.603817 
3553.000000	1.604247 
3552.000000	1.604676 
3551.000000	1.605081 
3550.000000	1.605463 
3549.000000	1.605820 
3548.000000	1.606106 
3547.000000	1.606321 
3546.000000	1.606488 
3545.000000	1.606559 
3544.000000	1.606607 
3543.000000	1.606607 
3542.000000	1.606607 
3541.000000	1.606631 
3540.000000	1.606726 
3539.000000	1.606845 
3538.000000	1.607036 
3537.000000	1.607322 
3536.000000	1.607608 
3535.000000	1.607894 
3534.000000	1.608180 
3533.000000	1.608443 
3532.000000	1.608562 
3531.000000	1.608610 
3530.000000	1.608562 
3529.000000	1.608443 
3528.000000	1.608228 
3527.000000	1.608014 
3526.000000	1.607847 
3525.000000	1.607751 
3524.000000	1.607775 
3523.000000	1.607894 
3522.000000	1.608157 
3521.000000	1.608514 
3520.000000	1.608896 
3519.000000	1.609277 
3518.000000	1.609587 
3517.000000	1.609849 
3516.000000	1.609921 
3515.000000	1.609873 
3514.000000	1.609706 
3513.000000	1.609444 
3512.000000	1.609063 
3511.000000	1.608705 
3510.000000	1.608324 
3509.000000	1.608014 
3508.000000	1.607799 
3507.000000	1.607608 
3506.000000	1.607489 
3505.000000	1.607441 
3504.000000	1.607418 
3503.000000	1.607394 
3502.000000	1.607394 
3501.000000	1.607346 
3500.000000	1.607298 
3499.000000	1.607179 
3498.000000	1.606988 
3497.000000	1.606774 
3496.000000	1.606464 
3495.000000	1.606130 
3494.000000	1.605701 
3493.000000	1.605224 
3492.000000	1.604652 
3491.000000	1.603960 
3490.000000	1.603174 
3489.000000	1.602268 
3488.000000	1.601314 
3487.000000	1.600337 
3486.000000	1.599383 
3485.000000	1.598548 
3484.000000	1.597881 
3483.000000	1.597380 
3482.000000	1.597046 
3481.000000	1.596856 
3480.000000	1.596784 
3479.000000	1.596713 
3478.000000	1.596617 
3477.000000	1.596379 
3476.000000	1.595997 
3475.000000	1.595497 
3474.000000	1.594901 
3473.000000	1.594233 
3472.000000	1.593518 
3471.000000	1.592826 
3470.000000	1.592159 
3469.000000	1.591539 
3468.000000	1.590919 
3467.000000	1.590371 
3466.000000	1.589870 
3465.000000	1.589369 
3464.000000	1.588940 
3463.000000	1.588559 
3462.000000	1.588249 
3461.000000	1.587963 
3460.000000	1.587796 
3459.000000	1.587581 
3458.000000	1.587438 
3457.000000	1.587247 
3456.000000	1.586961 
3455.000000	1.586651 
3454.000000	1.586198 
3453.000000	1.585698 
3452.000000	1.585054 
3451.000000	1.584362 
3450.000000	1.583576 
3449.000000	1.582741 
3448.000000	1.581859 
3447.000000	1.580953 
3446.000000	1.580071 
3445.000000	1.579165 
3444.000000	1.578307 
3443.000000	1.577472 
3442.000000	1.576614 
3441.000000	1.575732 
3440.000000	1.574802 
3439.000000	1.573848 
3438.000000	1.572871 
3437.000000	1.571917 
3436.000000	1.570987 
3435.000000	1.570153 
3434.000000	1.569414 
3433.000000	1.568746 
3432.000000	1.568222 
3431.000000	1.567840 
3430.000000	1.567602 
3429.000000	1.567459 
3428.000000	1.567435 
3427.000000	1.567554 
3426.000000	1.567816 
3425.000000	1.568222 
3424.000000	1.568770 
3423.000000	1.569414 
3422.000000	1.570177 
3421.000000	1.571011 
3420.000000	1.571846 
3419.000000	1.572680 
3418.000000	1.573443 
3417.000000	1.574134 
3416.000000	1.574754 
3415.000000	1.575326 
3414.000000	1.575827 
3413.000000	1.576328 
3412.000000	1.576828 
3411.000000	1.577305 
3410.000000	1.577854 
3409.000000	1.578378 
3408.000000	1.578927 
3407.000000	1.579427 
3406.000000	1.579856 
3405.000000	1.580190 
3404.000000	1.580452 
3403.000000	1.580595 
3402.000000	1.580715 
3401.000000	1.580786 
3400.000000	1.580905 
3399.000000	1.581096 
3398.000000	1.581382 
3397.000000	1.581835 
3396.000000	1.582479 
3395.000000	1.583218 
3394.000000	1.584124 
3393.000000	1.585078 
3392.000000	1.586127 
3391.000000	1.587152 
3390.000000	1.588201 
3389.000000	1.589202 
3388.000000	1.590156 
3387.000000	1.591038 
3386.000000	1.591873 
3385.000000	1.592636 
3384.000000	1.593327 
3383.000000	1.593899 
3382.000000	1.594424 
3381.000000	1.594877 
3380.000000	1.595354 
3379.000000	1.595807 
3378.000000	1.596379 
3377.000000	1.596999 
3376.000000	1.597762 
3375.000000	1.598572 
3374.000000	1.599454 
3373.000000	1.600408 
3372.000000	1.601386 
3371.000000	1.602339 
3370.000000	1.603341 
3369.000000	1.604390 
3368.000000	1.605558 
3367.000000	1.606869 
3366.000000	1.608324 
3365.000000	1.609921 
3364.000000	1.611638 
3363.000000	1.613378 
3362.000000	1.615095 
3361.000000	1.616740 
3360.000000	1.618266 
3359.000000	1.619696 
3358.000000	1.621055 
3357.000000	1.622390 
3356.000000	1.623773 
3355.000000	1.625204 
3354.000000	1.626729 
3353.000000	1.628351 
3352.000000	1.630067 
3351.000000	1.631784 
3350.000000	1.633501 
3349.000000	1.635122 
3348.000000	1.636600 
3347.000000	1.637959 
3346.000000	1.639175 
3345.000000	1.640272 
3344.000000	1.641297 
3343.000000	1.642298 
3342.000000	1.643276 
3341.000000	1.644349 
3340.000000	1.645565 
3339.000000	1.646876 
3338.000000	1.648330 
3337.000000	1.649880 
3336.000000	1.651477 
3335.000000	1.653075 
3334.000000	1.654624 
3333.000000	1.656055 
3332.000000	1.657366 
3331.000000	1.658582 
3330.000000	1.659679 
3329.000000	1.660752 
3328.000000	1.661801 
3327.000000	1.662945 
3326.000000	1.664185 
3325.000000	1.665568 
3324.000000	1.667046 
3323.000000	1.668596 
3322.000000	1.670217 
3321.000000	1.671886 
3320.000000	1.673531 
3319.000000	1.675224 
3318.000000	1.676869 
3317.000000	1.678466 
3316.000000	1.680111 
3315.000000	1.681709 
3314.000000	1.683330 
3313.000000	1.684951 
3312.000000	1.686525 
3311.000000	1.688098 
3310.000000	1.689600 
3309.000000	1.691007 
3308.000000	1.692318 
3307.000000	1.693606 
3306.000000	1.694726 
3305.000000	1.695775 
3304.000000	1.696801 
3303.000000	1.697826 
3302.000000	1.698803 
3301.000000	1.699829 
3300.000000	1.700949 
3299.000000	1.702094 
3298.000000	1.703286 
3297.000000	1.704454 
3296.000000	1.705622 
3295.000000	1.706743 
3294.000000	1.707744 
3293.000000	1.708722 
3292.000000	1.709675 
3291.000000	1.710653 
3290.000000	1.711654 
3289.000000	1.712751 
3288.000000	1.713991 
3287.000000	1.715278 
3286.000000	1.716613 
3285.000000	1.717948 
3284.000000	1.719212 
3283.000000	1.720452 
3282.000000	1.721596 
3281.000000	1.722717 
3280.000000	1.723790 
3279.000000	1.724839 
3278.000000	1.725935 
3277.000000	1.727008 
3276.000000	1.728129 
3275.000000	1.729297 
3274.000000	1.730489 
3273.000000	1.731657 
3272.000000	1.732826 
3271.000000	1.733994 
3270.000000	1.735115 
3269.000000	1.736211 
3268.000000	1.737260 
3267.000000	1.738238 
3266.000000	1.739168 
3265.000000	1.740097 
3264.000000	1.740980 
3263.000000	1.741909 
3262.000000	1.742911 
3261.000000	1.743936 
3260.000000	1.745033 
3259.000000	1.746129 
3258.000000	1.747274 
3257.000000	1.748442 
3256.000000	1.749610 
3255.000000	1.750802 
3254.000000	1.751923 
3253.000000	1.752996 
3252.000000	1.754045 
3251.000000	1.755023 
3250.000000	1.755905 
3249.000000	1.756644 
3248.000000	1.757264 
3247.000000	1.757717 
3246.000000	1.758098 
3245.000000	1.758384 
3244.000000	1.758599 
3243.000000	1.758837 
3242.000000	1.759147 
3241.000000	1.759529 
3240.000000	1.760005 
3239.000000	1.760601 
3238.000000	1.761293 
3237.000000	1.762032 
3236.000000	1.762795 
3235.000000	1.763606 
3234.000000	1.764416 
3233.000000	1.765155 
3232.000000	1.765894 
3231.000000	1.766538 
3230.000000	1.767086 
3229.000000	1.767492 
3228.000000	1.767826 
3227.000000	1.768016 
3226.000000	1.768088 
3225.000000	1.768088 
3224.000000	1.768064 
3223.000000	1.768016 
3222.000000	1.768016 
3221.000000	1.768040 
3220.000000	1.768112 
3219.000000	1.768302 
3218.000000	1.768517 
3217.000000	1.768708 
3216.000000	1.768922 
3215.000000	1.769065 
3214.000000	1.769161 
3213.000000	1.769161 
3212.000000	1.769113 
3211.000000	1.769018 
3210.000000	1.768898 
3209.000000	1.768851 
3208.000000	1.768827 
3207.000000	1.768875 
3206.000000	1.769018 
3205.000000	1.769232 
3204.000000	1.769518 
3203.000000	1.769876 
3202.000000	1.770281 
3201.000000	1.770687 
3200.000000	1.771140 
3199.000000	1.771569 
3198.000000	1.771998 
3197.000000	1.772451 
3196.000000	1.772880 
3195.000000	1.773357 
3194.000000	1.773810 
3193.000000	1.774287 
3192.000000	1.774764 
3191.000000	1.775217 
3190.000000	1.775622 
3189.000000	1.776027 
3188.000000	1.776385 
3187.000000	1.776695 
3186.000000	1.776933 
3185.000000	1.777148 
3184.000000	1.777291 
3183.000000	1.777386 
3182.000000	1.777434 
3181.000000	1.777434 
3180.000000	1.777434 
3179.000000	1.777386 
3178.000000	1.777338 
3177.000000	1.777267 
3176.000000	1.777219 
3175.000000	1.777219 
3174.000000	1.777243 
3173.000000	1.777362 
3172.000000	1.777577 
3171.000000	1.777863 
3170.000000	1.778292 
3169.000000	1.778817 
3168.000000	1.779484 
3167.000000	1.780271 
3166.000000	1.781153 
3165.000000	1.782035 
3164.000000	1.782894 
3163.000000	1.783704 
3162.000000	1.784372 
3161.000000	1.784920 
3160.000000	1.785302 
3159.000000	1.785612 
3158.000000	1.785850 
3157.000000	1.786065 
3156.000000	1.786303 
3155.000000	1.786637 
3154.000000	1.787042 
3153.000000	1.787519 
3152.000000	1.788115 
3151.000000	1.788783 
3150.000000	1.789522 
3149.000000	1.790308 
3148.000000	1.791119 
3147.000000	1.791977 
3146.000000	1.792907 
3145.000000	1.793909 
3144.000000	1.795005 
3143.000000	1.796174 
3142.000000	1.797437 
3141.000000	1.798725 
3140.000000	1.800084 
3139.000000	1.801371 
3138.000000	1.802587 
3137.000000	1.803684 
3136.000000	1.804518 
3135.000000	1.805210 
3134.000000	1.805710 
3133.000000	1.806068 
3132.000000	1.806378 
3131.000000	1.806688 
3130.000000	1.807045 
3129.000000	1.807546 
3128.000000	1.808190 
3127.000000	1.809024 
3126.000000	1.810002 
3125.000000	1.811146 
3124.000000	1.812458 
3123.000000	1.813888 
3122.000000	1.815485 
3121.000000	1.817178 
3120.000000	1.818919 
3119.000000	1.820755 
3118.000000	1.822590 
3117.000000	1.824355 
3116.000000	1.826024 
3115.000000	1.827573 
3114.000000	1.829004 
3113.000000	1.830363 
3112.000000	1.831698 
3111.000000	1.833081 
3110.000000	1.834607 
3109.000000	1.836252 
3108.000000	1.838088 
3107.000000	1.840043 
3106.000000	1.842117 
3105.000000	1.844239 
3104.000000	1.846337 
3103.000000	1.848316 
3102.000000	1.850175 
3101.000000	1.851892 
3100.000000	1.853513 
3099.000000	1.855134 
3098.000000	1.856803 
3097.000000	1.858544 
3096.000000	1.860380 
3095.000000	1.862311 
3094.000000	1.864314 
3093.000000	1.866364 
3092.000000	1.868343 
3091.000000	1.870298 
3090.000000	1.872158 
3089.000000	1.873970 
3088.000000	1.875782 
3087.000000	1.877593 
3086.000000	1.879477 
3085.000000	1.881408 
3084.000000	1.883411 
3083.000000	1.885437 
3082.000000	1.887488 
3081.000000	1.889491 
3080.000000	1.891446 
3079.000000	1.893305 
3078.000000	1.895046 
3077.000000	1.896595 
3076.000000	1.898026 
3075.000000	1.899290 
3074.000000	1.900458 
3073.000000	1.901531 
3072.000000	1.902461 
3071.000000	1.903414 
3070.000000	1.904320 
3069.000000	1.905274 
3068.000000	1.906251 
3067.000000	1.907348 
3066.000000	1.908588 
3065.000000	1.909947 
3064.000000	1.911449 
3063.000000	1.913094 
3062.000000	1.914858 
3061.000000	1.916718 
3060.000000	1.918625 
3059.000000	1.920509 
3058.000000	1.922369 
3057.000000	1.924157 
3056.000000	1.925826 
3055.000000	1.927423 
3054.000000	1.928925 
3053.000000	1.930403 
3052.000000	1.931810 
3051.000000	1.933240 
3050.000000	1.934719 
3049.000000	1.936244 
3048.000000	1.937818 
3047.000000	1.939392 
3046.000000	1.941013 
3045.000000	1.942634 
3044.000000	1.944231 
3043.000000	1.945805 
3042.000000	1.947283 
3041.000000	1.948714 
3040.000000	1.950049 
3039.000000	1.951265 
3038.000000	1.952314 
3037.000000	1.953172 
3036.000000	1.953816 
3035.000000	1.954150 
3034.000000	1.954221 
3033.000000	1.953935 
3032.000000	1.953315 
3031.000000	1.952290 
3030.000000	1.950955 
3029.000000	1.949357 
3028.000000	1.947450 
3027.000000	1.945352 
3026.000000	1.943159 
3025.000000	1.940941 
3024.000000	1.938772 
3023.000000	1.936793 
3022.000000	1.935172 
3021.000000	1.934003 
3020.000000	1.933550 
3019.000000	1.933860 
3018.000000	1.935076 
3017.000000	1.937270 
3016.000000	1.940417 
3015.000000	1.944422 
3014.000000	1.949119 
3013.000000	1.954388 
3012.000000	1.959919 
3011.000000	1.965498 
3010.000000	1.970958 
3009.000000	1.976060 
3008.000000	1.980638 
3007.000000	1.984691 
3006.000000	1.988148 
3005.000000	1.991057 
3004.000000	1.993513 
3003.000000	1.995635 
3002.000000	1.997494 
3001.000000	1.999187 
3000.000000	2.000784 
2999.000000	2.002382 
2998.000000	2.003955 
2997.000000	2.005434 
2996.000000	2.006840 
2995.000000	2.008056 
2994.000000	2.009057 
2993.000000	2.009868 
2992.000000	2.010393 
2991.000000	2.010679 
2990.000000	2.010655 
2989.000000	2.010369 
2988.000000	2.009820 
2987.000000	2.008986 
2986.000000	2.007842 
2985.000000	2.006363 
2984.000000	2.004599 
2983.000000	2.002573 
2982.000000	2.000260 
2981.000000	1.997709 
2980.000000	1.994919 
2979.000000	1.991844 
2978.000000	1.988458 
2977.000000	1.984691 
2976.000000	1.980519 
2975.000000	1.975870 
2974.000000	1.970744 
2973.000000	1.965260 
2972.000000	1.959419 
2971.000000	1.953363 
2970.000000	1.947259 
2969.000000	1.941275 
2968.000000	1.935458 
2967.000000	1.929950 
2966.000000	1.924824 
2965.000000	1.920175 
2964.000000	1.916027 
2963.000000	1.912450 
2962.000000	1.909446 
2961.000000	1.907086 
2960.000000	1.905345 
2959.000000	1.904153 
2958.000000	1.903462 
2957.000000	1.903152 
2956.000000	1.903057 
2955.000000	1.903033 
2954.000000	1.902866 
2953.000000	1.902413 
2952.000000	1.901531 
2951.000000	1.900076 
2950.000000	1.897931 
2949.000000	1.895046 
2948.000000	1.891326 
2947.000000	1.886701 
2946.000000	1.881074 
2945.000000	1.874518 
2944.000000	1.867151 
2943.000000	1.859045 
2942.000000	1.850318 
2941.000000	1.841187 
2940.000000	1.831936 
2939.000000	1.822710 
2938.000000	1.813673 
2937.000000	1.804971 
2936.000000	1.796674 
2935.000000	1.788806 
2934.000000	1.781368 
2933.000000	1.774311 
2932.000000	1.767706 
2931.000000	1.761555 
2930.000000	1.756119 
2929.000000	1.751565 
2928.000000	1.748156 
2927.000000	1.746153 
2926.000000	1.745867 
2925.000000	1.747488 
2924.000000	1.751112 
2923.000000	1.756811 
2922.000000	1.764440 
2921.000000	1.773881 
2920.000000	1.784706 
2919.000000	1.796579 
2918.000000	1.809144 
2917.000000	1.821923 
2916.000000	1.834607 
2915.000000	1.846790 
2914.000000	1.858234 
2913.000000	1.868820 
2912.000000	1.878452 
2911.000000	1.887035 
2910.000000	1.894688 
2909.000000	1.901507 
2908.000000	1.907587 
2907.000000	1.913046 
2906.000000	1.918005 
2905.000000	1.922631 
2904.000000	1.927018 
2903.000000	1.931166 
2902.000000	1.935148 
2901.000000	1.939010 
2900.000000	1.942729 
2899.000000	1.946330 
2898.000000	1.949810 
2897.000000	1.953101 
2896.000000	1.956319 
2895.000000	1.959419 
2894.000000	1.962304 
2893.000000	1.965045 
2892.000000	1.967597 
2891.000000	1.970005 
2890.000000	1.972222 
2889.000000	1.974248 
2888.000000	1.976132 
2887.000000	1.977968 
2886.000000	1.979589 
2885.000000	1.981139 
2884.000000	1.982498 
2883.000000	1.983690 
2882.000000	1.984548 
2881.000000	1.985049 
2880.000000	1.985073 
2879.000000	1.984596 
2878.000000	1.983499 
2877.000000	1.981735 
2876.000000	1.979255 
2875.000000	1.976037 
2874.000000	1.972031 
2873.000000	1.967191 
2872.000000	1.961469 
2871.000000	1.954936 
2870.000000	1.947522 
2869.000000	1.939415 
2868.000000	1.930737 
2867.000000	1.921820 
2866.000000	1.912975 
2865.000000	1.904678 
2864.000000	1.897311 
2863.000000	1.891374 
2862.000000	1.887249 
2861.000000	1.885199 
2860.000000	1.885414 
2859.000000	1.887798 
2858.000000	1.892209 
2857.000000	1.898455 
2856.000000	1.906132 
2855.000000	1.914882 
2854.000000	1.924347 
2853.000000	1.934242 
2852.000000	1.944279 
2851.000000	1.954340 
2850.000000	1.964282 
2849.000000	1.974010 
2848.000000	1.983451 
2847.000000	1.992607 
2846.000000	2.001380 
2845.000000	2.009773 
2844.000000	2.017760 
2843.000000	2.025246 
2842.000000	2.032208 
2841.000000	2.038645 
2840.000000	2.044558 
2839.000000	2.049922 
2838.000000	2.054810 
2837.000000	2.059173 
2836.000000	2.063226 
2835.000000	2.066969 
2834.000000	2.070498 
2833.000000	2.073836 
2832.000000	2.077150 
2831.000000	2.080392 
2830.000000	2.083611 
2829.000000	2.086806 
2828.000000	2.089929 
2827.000000	2.093029 
2826.000000	2.096033 
2825.000000	2.098941 
2824.000000	2.101778 
2823.000000	2.104616 
2822.000000	2.107453 
2821.000000	2.110338 
2820.000000	2.113223 
2819.000000	2.116107 
2818.000000	2.118968 
2817.000000	2.121710 
2816.000000	2.124285 
2815.000000	2.126693 
2814.000000	2.128815 
2813.000000	2.130699 
2812.000000	2.132320 
2811.000000	2.133846 
2810.000000	2.135252 
2809.000000	2.136611 
2808.000000	2.138018 
2807.000000	2.139496 
2806.000000	2.141094 
2805.000000	2.142810 
2804.000000	2.144575 
2803.000000	2.146482 
2802.000000	2.148461 
2801.000000	2.150464 
2800.000000	2.152538 
2799.000000	2.154636 
2798.000000	2.156758 
2797.000000	2.158832 
2796.000000	2.160859 
2795.000000	2.162837 
2794.000000	2.164793 
2793.000000	2.166652 
2792.000000	2.168464 
2791.000000	2.170252 
2790.000000	2.172064 
2789.000000	2.173900 
2788.000000	2.175784 
2787.000000	2.177739 
2786.000000	2.179718 
2785.000000	2.181720 
2784.000000	2.183699 
2783.000000	2.185678 
2782.000000	2.187585 
2781.000000	2.189397 
2780.000000	2.191185 
2779.000000	2.192926 
2778.000000	2.194666 
2777.000000	2.196455 
2776.000000	2.198266 
2775.000000	2.200126 
2774.000000	2.201986 
2773.000000	2.203822 
2772.000000	2.205562 
2771.000000	2.207159 
2770.000000	2.208542 
2769.000000	2.209663 
2768.000000	2.210569 
2767.000000	2.211284 
2766.000000	2.211880 
2765.000000	2.212476 
2764.000000	2.213025 
2763.000000	2.213668 
2762.000000	2.214455 
2761.000000	2.215313 
2760.000000	2.216362 
2759.000000	2.217459 
2758.000000	2.218556 
2757.000000	2.219676 
2756.000000	2.220821 
2755.000000	2.221918 
2754.000000	2.222990 
2753.000000	2.224016 
2752.000000	2.225017 
2751.000000	2.225923 
2750.000000	2.226758 
2749.000000	2.227520 
2748.000000	2.228164 
2747.000000	2.228713 
2746.000000	2.229142 
2745.000000	2.229499 
2744.000000	2.229785 
2743.000000	2.229976 
2742.000000	2.230119 
2741.000000	2.230310 
2740.000000	2.230525 
2739.000000	2.230787 
2738.000000	2.231144 
2737.000000	2.231526 
2736.000000	2.232003 
2735.000000	2.232503 
2734.000000	2.233004 
2733.000000	2.233409 
2732.000000	2.233719 
2731.000000	2.233886 
2730.000000	2.233910 
2729.000000	2.233815 
2728.000000	2.233624 
2727.000000	2.233386 
2726.000000	2.233123 
2725.000000	2.232909 
2724.000000	2.232742 
2723.000000	2.232575 
2722.000000	2.232384 
2721.000000	2.232146 
2720.000000	2.231836 
2719.000000	2.231383 
2718.000000	2.230858 
2717.000000	2.230262 
2716.000000	2.229619 
2715.000000	2.228951 
2714.000000	2.228355 
2713.000000	2.227807 
2712.000000	2.227282 
2711.000000	2.226805 
2710.000000	2.226376 
2709.000000	2.225899 
2708.000000	2.225446 
2707.000000	2.224922 
2706.000000	2.224421 
2705.000000	2.223873 
2704.000000	2.223372 
2703.000000	2.222919 
2702.000000	2.222537 
2701.000000	2.222299 
2700.000000	2.222180 
2699.000000	2.222204 
2698.000000	2.222347 
2697.000000	2.222561 
2696.000000	2.222800 
2695.000000	2.223038 
2694.000000	2.223253 
2693.000000	2.223348 
2692.000000	2.223348 
2691.000000	2.223253 
2690.000000	2.223038 
2689.000000	2.222752 
2688.000000	2.222418 
2687.000000	2.222037 
2686.000000	2.221608 
2685.000000	2.221107 
2684.000000	2.220487 
2683.000000	2.219772 
2682.000000	2.218937 
2681.000000	2.218031 
2680.000000	2.217078 
2679.000000	2.216124 
2678.000000	2.215194 
2677.000000	2.214336 
2676.000000	2.213573 
2675.000000	2.212882 
2674.000000	2.212214 
2673.000000	2.211523 
2672.000000	2.210736 
2671.000000	2.209973 
2670.000000	2.209162 
2669.000000	2.208280 
2668.000000	2.207493 
2667.000000	2.206754 
2666.000000	2.206110 
2665.000000	2.205586 
2664.000000	2.205157 
2663.000000	2.204799 
2662.000000	2.204442 
2661.000000	2.204060 
2660.000000	2.203631 
2659.000000	2.203202 
2658.000000	2.202749 
2657.000000	2.202320 
2656.000000	2.201890 
2655.000000	2.201581 
2654.000000	2.201366 
2653.000000	2.201247 
2652.000000	2.201128 
2651.000000	2.201032 
2650.000000	2.200913 
2649.000000	2.200722 
2648.000000	2.200484 
2647.000000	2.200174 
2646.000000	2.199792 
2645.000000	2.199387 
2644.000000	2.198934 
2643.000000	2.198433 
2642.000000	2.197933 
2641.000000	2.197432 
2640.000000	2.196955 
2639.000000	2.196455 
2638.000000	2.195978 
2637.000000	2.195572 
2636.000000	2.195215 
2635.000000	2.194952 
2634.000000	2.194833 
2633.000000	2.194762 
2632.000000	2.194833 
2631.000000	2.194976 
2630.000000	2.195167 
2629.000000	2.195382 
2628.000000	2.195620 
2627.000000	2.195858 
2626.000000	2.196121 
2625.000000	2.196383 
2624.000000	2.196645 
2623.000000	2.196955 
2622.000000	2.197265 
2621.000000	2.197670 
2620.000000	2.198076 
2619.000000	2.198505 
2618.000000	2.198910 
2617.000000	2.199292 
2616.000000	2.199625 
2615.000000	2.199888 
2614.000000	2.200031 
2613.000000	2.200126 
2612.000000	2.200126 
2611.000000	2.200150 
2610.000000	2.200150 
2609.000000	2.200126 
2608.000000	2.200150 
2607.000000	2.200269 
2606.000000	2.200436 
2605.000000	2.200627 
2604.000000	2.200818 
2603.000000	2.201008 
2602.000000	2.201151 
2601.000000	2.201271 
2600.000000	2.201294 
2599.000000	2.201271 
2598.000000	2.201223 
2597.000000	2.201175 
2596.000000	2.201175 
2595.000000	2.201318 
2594.000000	2.201628 
2593.000000	2.202177 
2592.000000	2.203035 
2591.000000	2.204155 
2590.000000	2.205491 
2589.000000	2.207040 
2588.000000	2.208709 
2587.000000	2.210474 
2586.000000	2.212238 
2585.000000	2.213954 
2584.000000	2.215600 
2583.000000	2.217173 
2582.000000	2.218675 
2581.000000	2.220106 
2580.000000	2.221488 
2579.000000	2.222847 
2578.000000	2.224206 
2577.000000	2.225565 
2576.000000	2.226948 
2575.000000	2.228283 
2574.000000	2.229595 
2573.000000	2.230906 
2572.000000	2.232146 
2571.000000	2.233409 
2570.000000	2.234649 
2569.000000	2.235841 
2568.000000	2.237057 
2567.000000	2.238273 
2566.000000	2.239561 
2565.000000	2.240824 
2564.000000	2.242112 
2563.000000	2.243423 
2562.000000	2.244710 
2561.000000	2.245998 
2560.000000	2.247214 
2559.000000	2.248454 
2558.000000	2.249693 
2557.000000	2.250909 
2556.000000	2.252149 
2555.000000	2.253437 
2554.000000	2.254700 
2553.000000	2.255964 
2552.000000	2.257156 
2551.000000	2.258276 
2550.000000	2.259325 
2549.000000	2.260303 
2548.000000	2.261257 
2547.000000	2.262163 
2546.000000	2.263140 
2545.000000	2.264118 
2544.000000	2.265262 
2543.000000	2.266550 
2542.000000	2.267909 
2541.000000	2.269387 
2540.000000	2.270984 
2539.000000	2.272629 
2538.000000	2.274274 
2537.000000	2.275848 
2536.000000	2.277350 
2535.000000	2.278685 
2534.000000	2.279877 
2533.000000	2.280902 
2532.000000	2.281761 
2531.000000	2.282524 
2530.000000	2.283215 
2529.000000	2.283930 
2528.000000	2.284646 
2527.000000	2.285361 
2526.000000	2.286076 
2525.000000	2.286767 
2524.000000	2.287459 
2523.000000	2.288126 
2522.000000	2.288746 
2521.000000	2.289390 
2520.000000	2.290081 
2519.000000	2.290844 
2518.000000	2.291703 
2517.000000	2.292609 
2516.000000	2.293515 
2515.000000	2.294349 
2514.000000	2.295088 
2513.000000	2.295660 
2512.000000	2.296090 
2511.000000	2.296400 
2510.000000	2.296638 
2509.000000	2.296781 
2508.000000	2.296948 
2507.000000	2.297186 
2506.000000	2.297472 
2505.000000	2.297854 
2504.000000	2.298259 
2503.000000	2.298688 
2502.000000	2.299094 
2501.000000	2.299451 
2500.000000	2.299761 
2499.000000	2.300071 
2498.000000	2.300405 
2497.000000	2.300739 
2496.000000	2.301096 
2495.000000	2.301430 
2494.000000	2.301716 
2493.000000	2.301955 
2492.000000	2.302002 
2491.000000	2.301859 
2490.000000	2.301430 
2489.000000	2.300810 
2488.000000	2.299952 
2487.000000	2.298974 
2486.000000	2.297902 
2485.000000	2.296900 
2484.000000	2.296042 
2483.000000	2.295374 
2482.000000	2.294993 
2481.000000	2.294826 
2480.000000	2.294850 
2479.000000	2.294993 
2478.000000	2.295184 
2477.000000	2.295351 
2476.000000	2.295398 
2475.000000	2.295279 
2474.000000	2.294993 
2473.000000	2.294516 
2472.000000	2.293920 
2471.000000	2.293229 
2470.000000	2.292513 
2469.000000	2.291846 
2468.000000	2.291250 
2467.000000	2.290725 
2466.000000	2.290225 
2465.000000	2.289748 
2464.000000	2.289223 
2463.000000	2.288603 
2462.000000	2.287793 
2461.000000	2.286815 
2460.000000	2.285718 
2459.000000	2.284479 
2458.000000	2.283120 
2457.000000	2.281737 
2456.000000	2.280354 
2455.000000	2.279019 
2454.000000	2.277779 
2453.000000	2.276659 
2452.000000	2.275657 
2451.000000	2.274775 
2450.000000	2.274060 
2449.000000	2.273464 
2448.000000	2.272963 
2447.000000	2.272534 
2446.000000	2.272105 
2445.000000	2.271628 
2444.000000	2.271056 
2443.000000	2.270364 
2442.000000	2.269625 
2441.000000	2.268791 
2440.000000	2.267980 
2439.000000	2.267169 
2438.000000	2.266430 
2437.000000	2.265667 
2436.000000	2.264904 
2435.000000	2.264070 
2434.000000	2.262997 
2433.000000	2.261710 
2432.000000	2.260160 
2431.000000	2.258443 
2430.000000	2.256608 
2429.000000	2.254819 
2428.000000	2.253174 
2427.000000	2.251839 
2426.000000	2.250814 
2425.000000	2.250170 
2424.000000	2.249813 
2423.000000	2.249598 
2422.000000	2.249455 
2421.000000	2.249217 
2420.000000	2.248811 
2419.000000	2.248191 
2418.000000	2.247357 
2417.000000	2.246284 
2416.000000	2.245044 
2415.000000	2.243733 
2414.000000	2.242374 
2413.000000	2.241039 
2412.000000	2.239704 
2411.000000	2.238512 
2410.000000	2.237415 
2409.000000	2.236366 
2408.000000	2.235412 
2407.000000	2.234554 
2406.000000	2.233719 
2405.000000	2.232980 
2404.000000	2.232289 
2403.000000	2.231597 
2402.000000	2.230930 
2401.000000	2.230286 
2400.000000	2.229714 
2399.000000	2.229166 
2398.000000	2.228641 
2397.000000	2.228164 
2396.000000	2.227711 
2395.000000	2.227330 
2394.000000	2.226948 
2393.000000	2.226614 
2392.000000	2.226305 
2391.000000	2.226018 
2390.000000	2.225780 
2389.000000	2.225637 
2388.000000	2.225542 
2387.000000	2.225470 
2386.000000	2.225375 
2385.000000	2.225255 
2384.000000	2.225089 
2383.000000	2.224731 
2382.000000	2.224159 
2381.000000	2.223443 
2380.000000	2.222490 
2379.000000	2.221393 
2378.000000	2.220225 
2377.000000	2.219009 
2376.000000	2.217793 
2375.000000	2.216601 
2374.000000	2.215480 
2373.000000	2.214407 
2372.000000	2.213358 
2371.000000	2.212357 
2370.000000	2.211380 
2369.000000	2.210450 
2368.000000	2.209591 
2367.000000	2.208828 
2366.000000	2.208232 
2365.000000	2.207851 
2364.000000	2.207732 
2363.000000	2.207875 
2362.000000	2.208328 
2361.000000	2.209067 
2360.000000	2.210092 
2359.000000	2.211475 
2358.000000	2.213144 
2357.000000	2.215170 
2356.000000	2.217388 
2355.000000	2.219843 
2354.000000	2.222466 
2353.000000	2.225089 
2352.000000	2.227640 
2351.000000	2.230072 
2350.000000	2.232241 
2349.000000	2.234125 
2348.000000	2.235627 
2347.000000	2.236795 
2346.000000	2.237606 
2345.000000	2.238130 
2344.000000	2.238440 
2343.000000	2.238607 
2342.000000	2.238702 
2341.000000	2.238893 
2340.000000	2.239131 
2339.000000	2.239561 
2338.000000	2.240180 
2337.000000	2.241039 
2336.000000	2.242136 
2335.000000	2.243471 
2334.000000	2.244973 
2333.000000	2.246665 
2332.000000	2.248454 
2331.000000	2.250337 
2330.000000	2.252316 
2329.000000	2.254343 
2328.000000	2.256393 
2327.000000	2.258467 
2326.000000	2.260541 
2325.000000	2.262592 
2324.000000	2.264642 
2323.000000	2.266621 
2322.000000	2.268528 
2321.000000	2.270388 
2320.000000	2.272152 
2319.000000	2.273941 
2318.000000	2.275705 
2317.000000	2.277541 
2316.000000	2.279400 
2315.000000	2.281355 
2314.000000	2.283406 
2313.000000	2.285456 
2312.000000	2.287530 
2311.000000	2.289581 
2310.000000	2.291584 
2309.000000	2.293515 
2308.000000	2.295374 
2307.000000	2.297186 
2306.000000	2.298998 
2305.000000	2.300786 
2304.000000	2.302575 
2303.000000	2.304363 
2302.000000	2.306151 
2301.000000	2.307868 
2300.000000	2.309513 
2299.000000	2.311015 
2298.000000	2.312302 
2297.000000	2.313446 
2296.000000	2.314448 
2295.000000	2.315354 
2294.000000	2.316212 
2293.000000	2.317070 
2292.000000	2.318000 
2291.000000	2.318978 
2290.000000	2.320003 
2289.000000	2.321076 
2288.000000	2.322077 
2287.000000	2.323031 
2286.000000	2.323865 
2285.000000	2.324628 
2284.000000	2.325320 
2283.000000	2.325963 
2282.000000	2.326655 
2281.000000	2.327394 
2280.000000	2.328205 
2279.000000	2.329087 
2278.000000	2.330112 
2277.000000	2.331209 
2276.000000	2.332401 
2275.000000	2.333664 
2274.000000	2.334952 
2273.000000	2.336263 
2272.000000	2.337598 
2271.000000	2.338933 
2270.000000	2.340221 
2269.000000	2.341437 
2268.000000	2.342581 
2267.000000	2.343606 
2266.000000	2.344489 
2265.000000	2.345228 
2264.000000	2.345848 
2263.000000	2.346348 
2262.000000	2.346682 
2261.000000	2.346944 
2260.000000	2.347135 
2259.000000	2.347326 
2258.000000	2.347493 
2257.000000	2.347660 
2256.000000	2.347874 
2255.000000	2.348113 
2254.000000	2.348351 
2253.000000	2.348613 
2252.000000	2.348875 
2251.000000	2.349138 
2250.000000	2.349376 
2249.000000	2.349591 
2248.000000	2.349781 
2247.000000	2.349996 
2246.000000	2.350163 
2245.000000	2.350330 
2244.000000	2.350497 
2243.000000	2.350664 
2242.000000	2.350783 
2241.000000	2.350902 
2240.000000	2.351021 
2239.000000	2.351093 
2238.000000	2.351093 
2237.000000	2.351093 
2236.000000	2.351021 
2235.000000	2.350854 
2234.000000	2.350616 
2233.000000	2.350330 
2232.000000	2.349972 
2231.000000	2.349519 
2230.000000	2.349019 
2229.000000	2.348423 
2228.000000	2.347731 
2227.000000	2.347016 
2226.000000	2.346205 
2225.000000	2.345323 
2224.000000	2.344393 
2223.000000	2.343487 
2222.000000	2.342557 
2221.000000	2.341723 
2220.000000	2.340936 
2219.000000	2.340221 
2218.000000	2.339577 
2217.000000	2.338981 
2216.000000	2.338457 
2215.000000	2.337861 
2214.000000	2.337241 
2213.000000	2.336525 
2212.000000	2.335715 
2211.000000	2.334880 
2210.000000	2.333974 
2209.000000	2.333140 
2208.000000	2.332401 
2207.000000	2.331781 
2206.000000	2.331280 
2205.000000	2.330899 
2204.000000	2.330636 
2203.000000	2.330422 
2202.000000	2.330136 
2201.000000	2.329778 
2200.000000	2.329325 
2199.000000	2.328753 
2198.000000	2.328038 
2197.000000	2.327275 
2196.000000	2.326464 
2195.000000	2.325654 
2194.000000	2.324891 
2193.000000	2.324151 
2192.000000	2.323436 
2191.000000	2.322697 
2190.000000	2.321910 
2189.000000	2.321076 
2188.000000	2.320170 
2187.000000	2.319240 
2186.000000	2.318310 
2185.000000	2.317428 
2184.000000	2.316570 
2183.000000	2.315807 
2182.000000	2.315115 
2181.000000	2.314472 
2180.000000	2.313876 
2179.000000	2.313327 
2178.000000	2.312803 
2177.000000	2.312278 
2176.000000	2.311801 
2175.000000	2.311348 
2174.000000	2.310967 
2173.000000	2.310585 
2172.000000	2.310252 
2171.000000	2.309942 
2170.000000	2.309656 
2169.000000	2.309346 
2168.000000	2.308988 
2167.000000	2.308583 
2166.000000	2.308154 
2165.000000	2.307748 
2164.000000	2.307367 
2163.000000	2.307033 
2162.000000	2.306771 
2161.000000	2.306580 
2160.000000	2.306437 
2159.000000	2.306294 
2158.000000	2.306151 
2157.000000	2.305984 
2156.000000	2.305769 
2155.000000	2.305483 
2154.000000	2.305150 
2153.000000	2.304816 
2152.000000	2.304530 
2151.000000	2.304244 
2150.000000	2.304053 
2149.000000	2.303934 
2148.000000	2.303886 
2147.000000	2.303910 
2146.000000	2.303934 
2145.000000	2.303910 
2144.000000	2.303838 
2143.000000	2.303671 
2142.000000	2.303409 
2141.000000	2.302980 
2140.000000	2.302503 
2139.000000	2.302026 
2138.000000	2.301526 
2137.000000	2.301025 
2136.000000	2.300572 
2135.000000	2.300214 
2134.000000	2.299904 
2133.000000	2.299737 
2132.000000	2.299666 
2131.000000	2.299714 
2130.000000	2.299928 
2129.000000	2.300286 
2128.000000	2.300763 
2127.000000	2.301359 
2126.000000	2.302026 
2125.000000	2.302765 
2124.000000	2.303433 
2123.000000	2.304005 
2122.000000	2.304434 
2121.000000	2.304673 
2120.000000	2.304744 
2119.000000	2.304649 
2118.000000	2.304530 
2117.000000	2.304434 
2116.000000	2.304434 
2115.000000	2.304553 
2114.000000	2.304863 
2113.000000	2.305364 
2112.000000	2.305865 
2111.000000	2.306413 
2110.000000	2.306890 
2109.000000	2.307224 
2108.000000	2.307367 
2107.000000	2.307319 
2106.000000	2.307105 
2105.000000	2.306699 
2104.000000	2.306199 
2103.000000	2.305650 
2102.000000	2.305078 
2101.000000	2.304506 
2100.000000	2.304029 
2099.000000	2.303576 
2098.000000	2.303194 
2097.000000	2.302908 
2096.000000	2.302670 
2095.000000	2.302551 
2094.000000	2.302479 
2093.000000	2.302455 
2092.000000	2.302479 
2091.000000	2.302527 
2090.000000	2.302622 
2089.000000	2.302718 
2088.000000	2.302908 
2087.000000	2.303218 
2086.000000	2.303647 
2085.000000	2.304220 
2084.000000	2.304935 
2083.000000	2.305698 
2082.000000	2.306509 
2081.000000	2.307319 
2080.000000	2.308154 
2079.000000	2.308964 
2078.000000	2.309894 
2077.000000	2.310919 
2076.000000	2.312159 
2075.000000	2.313566 
2074.000000	2.315258 
2073.000000	2.317214 
2072.000000	2.319383 
2071.000000	2.321672 
2070.000000	2.324032 
2069.000000	2.326440 
2068.000000	2.328801 
2067.000000	2.331042 
2066.000000	2.333164 
2065.000000	2.335166 
2064.000000	2.337074 
2063.000000	2.338910 
2062.000000	2.340698 
2061.000000	2.342486 
2060.000000	2.344274 
2059.000000	2.346181 
2058.000000	2.348136 
2057.000000	2.350187 
2056.000000	2.352333 
2055.000000	2.354550 
2054.000000	2.356910 
2053.000000	2.359342 
2052.000000	2.361822 
2051.000000	2.364325 
2050.000000	2.366828 
2049.000000	2.369260 
2048.000000	2.371621 
2047.000000	2.373838 
2046.000000	2.375912 
2045.000000	2.377843 
2044.000000	2.379655 
2043.000000	2.381348 
2042.000000	2.382969 
2041.000000	2.384519 
2040.000000	2.386021 
2039.000000	2.387523 
2038.000000	2.389001 
2037.000000	2.390408 
2036.000000	2.391791 
2035.000000	2.393150 
2034.000000	2.394461 
2033.000000	2.395796 
2032.000000	2.397131 
2031.000000	2.398443 
2030.000000	2.399706 
2029.000000	2.400922 
2028.000000	2.402019 
2027.000000	2.402949 
2026.000000	2.403736 
2025.000000	2.404379 
2024.000000	2.404880 
2023.000000	2.405357 
2022.000000	2.405810 
2021.000000	2.406287 
2020.000000	2.406811 
2019.000000	2.407455 
2018.000000	2.408146 
2017.000000	2.408885 
2016.000000	2.409696 
2015.000000	2.410507 
2014.000000	2.411317 
2013.000000	2.412080 
2012.000000	2.412843 
2011.000000	2.413535 
2010.000000	2.414178 
2009.000000	2.414822 
2008.000000	2.415394 
2007.000000	2.415943 
2006.000000	2.416515 
2005.000000	2.417111 
2004.000000	2.417683 
2003.000000	2.418255 
2002.000000	2.418828 
2001.000000	2.419400 
2000.000000	2.419900 
1999.000000	2.420330 
1998.000000	2.420639 
1997.000000	2.420854 
1996.000000	2.420949 
1995.000000	2.420973 
1994.000000	2.420878 
1993.000000	2.420711 
1992.000000	2.420496 
1991.000000	2.420210 
1990.000000	2.419877 
1989.000000	2.419471 
1988.000000	2.418994 
1987.000000	2.418398 
1986.000000	2.417731 
1985.000000	2.416944 
1984.000000	2.416086 
1983.000000	2.415180 
1982.000000	2.414226 
1981.000000	2.413225 
1980.000000	2.412247 
1979.000000	2.411293 
1978.000000	2.410364 
1977.000000	2.409434 
1976.000000	2.408480 
1975.000000	2.407503 
1974.000000	2.406454 
1973.000000	2.405405 
1972.000000	2.404308 
1971.000000	2.403259 
1970.000000	2.402210 
1969.000000	2.401232 
1968.000000	2.400302 
1967.000000	2.399468 
1966.000000	2.398705 
1965.000000	2.398014 
1964.000000	2.397370 
1963.000000	2.396774 
1962.000000	2.396249 
1961.000000	2.395725 
1960.000000	2.395224 
1959.000000	2.394747 
1958.000000	2.394318 
1957.000000	2.393913 
1956.000000	2.393484 
1955.000000	2.393054 
1954.000000	2.392578 
1953.000000	2.391982 
1952.000000	2.391266 
1951.000000	2.390408 
1950.000000	2.389454 
1949.000000	2.388405 
1948.000000	2.387261 
1947.000000	2.386140 
1946.000000	2.385044 
1945.000000	2.384018 
1944.000000	2.383089 
1943.000000	2.382278 
1942.000000	2.381515 
1941.000000	2.380824 
1940.000000	2.380204 
1939.000000	2.379608 
1938.000000	2.379035 
1937.000000	2.378416 
1936.000000	2.377772 
1935.000000	2.377104 
1934.000000	2.376365 
1933.000000	2.375602 
1932.000000	2.374768 
1931.000000	2.373838 
1930.000000	2.372860 
1929.000000	2.371835 
1928.000000	2.370667 
1927.000000	2.369356 
1926.000000	2.367925 
1925.000000	2.366399 
1924.000000	2.364826 
1923.000000	2.363228 
1922.000000	2.361702 
1921.000000	2.360296 
1920.000000	2.359032 
1919.000000	2.357983 
1918.000000	2.357077 
1917.000000	2.356290 
1916.000000	2.355527 
1915.000000	2.354788 
1914.000000	2.353930 
1913.000000	2.352952 
1912.000000	2.351832 
1911.000000	2.350544 
1910.000000	2.349162 
1909.000000	2.347660 
1908.000000	2.346086 
1907.000000	2.344536 
1906.000000	2.343034 
1905.000000	2.341628 
1904.000000	2.340388 
1903.000000	2.339267 
1902.000000	2.338314 
1901.000000	2.337527 
1900.000000	2.336835 
1899.000000	2.336263 
1898.000000	2.335691 
1897.000000	2.335119 
1896.000000	2.334499 
1895.000000	2.333879 
1894.000000	2.333259 
1893.000000	2.332735 
1892.000000	2.332329 
1891.000000	2.332115 
1890.000000	2.332139 
1889.000000	2.332425 
1888.000000	2.332901 
1887.000000	2.333593 
1886.000000	2.334380 
1885.000000	2.335214 
1884.000000	2.336049 
1883.000000	2.336859 
1882.000000	2.337598 
1881.000000	2.338242 
1880.000000	2.338790 
1879.000000	2.339196 
1878.000000	2.339410 
1877.000000	2.339434 
1876.000000	2.339243 
1875.000000	2.338910 
1874.000000	2.338385 
1873.000000	2.337765 
1872.000000	2.337193 
1871.000000	2.336788 
1870.000000	2.336597 
1869.000000	2.336740 
1868.000000	2.337241 
1867.000000	2.338075 
1866.000000	2.339196 
1865.000000	2.340483 
1864.000000	2.341818 
1863.000000	2.343130 
1862.000000	2.344346 
1861.000000	2.345418 
1860.000000	2.346420 
1859.000000	2.347302 
1858.000000	2.348136 
1857.000000	2.348947 
1856.000000	2.349781 
1855.000000	2.350544 
1854.000000	2.351212 
1853.000000	2.351760 
1852.000000	2.352118 
1851.000000	2.352285 
1850.000000	2.352261 
1849.000000	2.352166 
1848.000000	2.351999 
1847.000000	2.351999 
1846.000000	2.352190 
1845.000000	2.352690 
1844.000000	2.353525 
1843.000000	2.354717 
1842.000000	2.356171 
1841.000000	2.357792 
1840.000000	2.359461 
1839.000000	2.361059 
1838.000000	2.362465 
1837.000000	2.363610 
1836.000000	2.364492 
1835.000000	2.365088 
1834.000000	2.365469 
1833.000000	2.365684 
1832.000000	2.365851 
1831.000000	2.366018 
1830.000000	2.366280 
1829.000000	2.366733 
1828.000000	2.367377 
1827.000000	2.368259 
1826.000000	2.369356 
1825.000000	2.370619 
1824.000000	2.371978 
1823.000000	2.373409 
1822.000000	2.374815 
1821.000000	2.376151 
1820.000000	2.377390 
1819.000000	2.378487 
1818.000000	2.379536 
1817.000000	2.380514 
1816.000000	2.381443 
1815.000000	2.382326 
1814.000000	2.383208 
1813.000000	2.384138 
1812.000000	2.384996 
1811.000000	2.385807 
1810.000000	2.386522 
1809.000000	2.387118 
1808.000000	2.387571 
1807.000000	2.387928 
1806.000000	2.388215 
1805.000000	2.388429 
1804.000000	2.388644 
1803.000000	2.388858 
1802.000000	2.389049 
1801.000000	2.389168 
1800.000000	2.389216 
1799.000000	2.389097 
1798.000000	2.388811 
1797.000000	2.388358 
1796.000000	2.387762 
1795.000000	2.387142 
1794.000000	2.386617 
1793.000000	2.386188 
1792.000000	2.385973 
1791.000000	2.386021 
1790.000000	2.386236 
1789.000000	2.386593 
1788.000000	2.387022 
1787.000000	2.387428 
1786.000000	2.387785 
1785.000000	2.388048 
1784.000000	2.388215 
1783.000000	2.388215 
1782.000000	2.388000 
1781.000000	2.387523 
1780.000000	2.386713 
1779.000000	2.385497 
1778.000000	2.383899 
1777.000000	2.381944 
1776.000000	2.379822 
1775.000000	2.377653 
1774.000000	2.375745 
1773.000000	2.374267 
1772.000000	2.373409 
1771.000000	2.373147 
1770.000000	2.373480 
1769.000000	2.374219 
1768.000000	2.375078 
1767.000000	2.375888 
1766.000000	2.376413 
1765.000000	2.376508 
1764.000000	2.376174 
1763.000000	2.375364 
1762.000000	2.374172 
1761.000000	2.372694 
1760.000000	2.370953 
1759.000000	2.368950 
1758.000000	2.366638 
1757.000000	2.364087 
1756.000000	2.361273 
1755.000000	2.358222 
1754.000000	2.355027 
1753.000000	2.351856 
1752.000000	2.348732 
1751.000000	2.345800 
1750.000000	2.343058 
1749.000000	2.340483 
1748.000000	2.337956 
1747.000000	2.335309 
1746.000000	2.332401 
1745.000000	2.329039 
1744.000000	2.325177 
1743.000000	2.320790 
1742.000000	2.315878 
1741.000000	2.310633 
1740.000000	2.305221 
1739.000000	2.299904 
1738.000000	2.294969 
1737.000000	2.290678 
1736.000000	2.287244 
1735.000000	2.284884 
1734.000000	2.283596 
1733.000000	2.283334 
1732.000000	2.283978 
1731.000000	2.285218 
1730.000000	2.286720 
1729.000000	2.288222 
1728.000000	2.289342 
1727.000000	2.289772 
1726.000000	2.289366 
1725.000000	2.288007 
1724.000000	2.285695 
1723.000000	2.282524 
1722.000000	2.278733 
1721.000000	2.274703 
1720.000000	2.270722 
1719.000000	2.267217 
1718.000000	2.264428 
1717.000000	2.262544 
1716.000000	2.261638 
1715.000000	2.261543 
1714.000000	2.261948 
1713.000000	2.262544 
1712.000000	2.262902 
1711.000000	2.262711 
1710.000000	2.261710 
1709.000000	2.259778 
1708.000000	2.256846 
1707.000000	2.253031 
1706.000000	2.248477 
1705.000000	2.243447 
1704.000000	2.238225 
1703.000000	2.232980 
1702.000000	2.228045 
1701.000000	2.223658 
1700.000000	2.220129 
1699.000000	2.217555 
1698.000000	2.216124 
1697.000000	2.215838 
1696.000000	2.216482 
1695.000000	2.217793 
1694.000000	2.219295 
1693.000000	2.220559 
1692.000000	2.221155 
1691.000000	2.220797 
1690.000000	2.219343 
1689.000000	2.216863 
1688.000000	2.213740 
1687.000000	2.210354 
1686.000000	2.207207 
1685.000000	2.204656 
1684.000000	2.202987 
1683.000000	2.202248 
1682.000000	2.202224 
1681.000000	2.202606 
1680.000000	2.203011 
1679.000000	2.203130 
1678.000000	2.202653 
1677.000000	2.201581 
1676.000000	2.199983 
1675.000000	2.198076 
1674.000000	2.196049 
1673.000000	2.194094 
1672.000000	2.192330 
1671.000000	2.190804 
1670.000000	2.189421 
1669.000000	2.188134 
1668.000000	2.186822 
1667.000000	2.185463 
1666.000000	2.183985 
1665.000000	2.182340 
1664.000000	2.180457 
1663.000000	2.178239 
1662.000000	2.175474 
1661.000000	2.171993 
1660.000000	2.167606 
1659.000000	2.162313 
1658.000000	2.156233 
1657.000000	2.149653 
1656.000000	2.143025 
1655.000000	2.136754 
1654.000000	2.131414 
1653.000000	2.127242 
1652.000000	2.124381 
1651.000000	2.122855 
1650.000000	2.122497 
1649.000000	2.122902 
1648.000000	2.123785 
1647.000000	2.124810 
1646.000000	2.125692 
1645.000000	2.126193 
1644.000000	2.126121 
1643.000000	2.125310 
1642.000000	2.123808 
1641.000000	2.121615 
1640.000000	2.118802 
1639.000000	2.115559 
1638.000000	2.112174 
1637.000000	2.108860 
1636.000000	2.105879 
1635.000000	2.103376 
1634.000000	2.101373 
1633.000000	2.099704 
1632.000000	2.098250 
1631.000000	2.096676 
1630.000000	2.094721 
1629.000000	2.092242 
1628.000000	2.089118 
1627.000000	2.085256 
1626.000000	2.080750 
1625.000000	2.075552 
1624.000000	2.069783 
1623.000000	2.063417 
1622.000000	2.056431 
1621.000000	2.048826 
1620.000000	2.040672 
1619.000000	2.031922 
1618.000000	2.022695 
1617.000000	2.013087 
1616.000000	2.003264 
1615.000000	1.993322 
1614.000000	1.983475 
1613.000000	1.973938 
1612.000000	1.964950 
1611.000000	1.956820 
1610.000000	1.949858 
1609.000000	1.944327 
1608.000000	1.940441 
1607.000000	1.938319 
1606.000000	1.937985 
1605.000000	1.939225 
1604.000000	1.941871 
1603.000000	1.945471 
1602.000000	1.949715 
1601.000000	1.954293 
1600.000000	1.958894 
1599.000000	1.963281 
1598.000000	1.967358 
1597.000000	1.971030 
1596.000000	1.974225 
1595.000000	1.976895 
1594.000000	1.979064 
1593.000000	1.980686 
1592.000000	1.981782 
1591.000000	1.982402 
1590.000000	1.982545 
1589.000000	1.982259 
1588.000000	1.981520 
1587.000000	1.980400 
1586.000000	1.978802 
1585.000000	1.976752 
1584.000000	1.974177 
1583.000000	1.971197 
1582.000000	1.967906 
1581.000000	1.964402 
1580.000000	1.960897 
1579.000000	1.957631 
1578.000000	1.954793 
1577.000000	1.952505 
1576.000000	1.950836 
1575.000000	1.949763 
1574.000000	1.949095 
1573.000000	1.948714 
1572.000000	1.948404 
1571.000000	1.947855 
1570.000000	1.946878 
1569.000000	1.945185 
1568.000000	1.942539 
1567.000000	1.938867 
1566.000000	1.934099 
1565.000000	1.928353 
1564.000000	1.921844 
1563.000000	1.915001 
1562.000000	1.908373 
1561.000000	1.902508 
1560.000000	1.898026 
1559.000000	1.895332 
1558.000000	1.894688 
1557.000000	1.896047 
1556.000000	1.899170 
1555.000000	1.903510 
1554.000000	1.908469 
1553.000000	1.913380 
1552.000000	1.917743 
1551.000000	1.921105 
1550.000000	1.923203 
1549.000000	1.924014 
1548.000000	1.923727 
1547.000000	1.922678 
1546.000000	1.921367 
1545.000000	1.920366 
1544.000000	1.920390 
1543.000000	1.922035 
1542.000000	1.925826 
1541.000000	1.932072 
1540.000000	1.940774 
1539.000000	1.951861 
1538.000000	1.964855 
1537.000000	1.979136 
1536.000000	1.993966 
1535.000000	2.008700 
1534.000000	2.022624 
1533.000000	2.035212 
1532.000000	2.046108 
1531.000000	2.055144 
1530.000000	2.062392 
1529.000000	2.067852 
1528.000000	2.071690 
1527.000000	2.074170 
1526.000000	2.075552 
1525.000000	2.076077 
1524.000000	2.075862 
1523.000000	2.075171 
1522.000000	2.074170 
1521.000000	2.073001 
1520.000000	2.071714 
1519.000000	2.070355 
1518.000000	2.068924 
1517.000000	2.067303 
1516.000000	2.065420 
1515.000000	2.063107 
1514.000000	2.060198 
1513.000000	2.056574 
1512.000000	2.052211 
1511.000000	2.046942 
1510.000000	2.040719 
1509.000000	2.033281 
1508.000000	2.024316 
1507.000000	2.013087 
1506.000000	1.998949 
1505.000000	1.980900 
1504.000000	1.958203 
1503.000000	1.930308 
1502.000000	1.897192 
1501.000000	1.859521 
1500.000000	1.818799 
1499.000000	1.777148 
1498.000000	1.737189 
1497.000000	1.701641 
1496.000000	1.673197 
1495.000000	1.653814 
1494.000000	1.644587 
1493.000000	1.645708 
1492.000000	1.656556 
1491.000000	1.675534 
1490.000000	1.700687 
1489.000000	1.729726 
1488.000000	1.760697 
1487.000000	1.791572 
1486.000000	1.820921 
1485.000000	1.847553 
1484.000000	1.870894 
1483.000000	1.890611 
1482.000000	1.906681 
1481.000000	1.919245 
1480.000000	1.928591 
1479.000000	1.935243 
1478.000000	1.939702 
1477.000000	1.942467 
1476.000000	1.943945 
1475.000000	1.944637 
1474.000000	1.944804 
1473.000000	1.944518 
1472.000000	1.943778 
1471.000000	1.942586 
1470.000000	1.940774 
1469.000000	1.938080 
1468.000000	1.934266 
1467.000000	1.929235 
1466.000000	1.922845 
1465.000000	1.914739 
1464.000000	1.904892 
1463.000000	1.893162 
1462.000000	1.879525 
1461.000000	1.864027 
1460.000000	1.846861 
1459.000000	1.828455 
1458.000000	1.809430 
1457.000000	1.790618 
1456.000000	1.772928 
1455.000000	1.757287 
1454.000000	1.744580 
1453.000000	1.735806 
1452.000000	1.731300 
1451.000000	1.731276 
1450.000000	1.735568 
1449.000000	1.743602 
1448.000000	1.754474 
1447.000000	1.767086 
1446.000000	1.780271 
1445.000000	1.793050 
1444.000000	1.804494 
1443.000000	1.814055 
1442.000000	1.821541 
1441.000000	1.826953 
1440.000000	1.830649 
1439.000000	1.833033 
1438.000000	1.834535 
1437.000000	1.835608 
1436.000000	1.836442 
1435.000000	1.837205 
1434.000000	1.837921 
1433.000000	1.838612 
1432.000000	1.839184 
1431.000000	1.839566 
1430.000000	1.839756 
1429.000000	1.839661 
1428.000000	1.839351 
1427.000000	1.838707 
1426.000000	1.837730 
1425.000000	1.836419 
1424.000000	1.834797 
1423.000000	1.832914 
1422.000000	1.830816 
1421.000000	1.828598 
1420.000000	1.826262 
1419.000000	1.823806 
1418.000000	1.821112 
1417.000000	1.818013 
1416.000000	1.814222 
1415.000000	1.809453 
1414.000000	1.803398 
1413.000000	1.795840 
1412.000000	1.786661 
1411.000000	1.775979 
1410.000000	1.764130 
1409.000000	1.751589 
1408.000000	1.738977 
1407.000000	1.727080 
1406.000000	1.716518 
1405.000000	1.708030 
1404.000000	1.702070 
1403.000000	1.698875 
1402.000000	1.698565 
1401.000000	1.700901 
1400.000000	1.705551 
1399.000000	1.712059 
1398.000000	1.719808 
1397.000000	1.728200 
1396.000000	1.736617 
1395.000000	1.744461 
1394.000000	1.751279 
1393.000000	1.756644 
1392.000000	1.760363 
1391.000000	1.762366 
1390.000000	1.762795 
1389.000000	1.762008 
1388.000000	1.760506 
1387.000000	1.758790 
1386.000000	1.757431 
1385.000000	1.756882 
1384.000000	1.757407 
1383.000000	1.759028 
1382.000000	1.761674 
1381.000000	1.764988 
1380.000000	1.768636 
1379.000000	1.772260 
1378.000000	1.775550 
1377.000000	1.778316 
1376.000000	1.780533 
1375.000000	1.782202 
1374.000000	1.783442 
1373.000000	1.784420 
1372.000000	1.785182 
1371.000000	1.785802 
1370.000000	1.786303 
1369.000000	1.786708 
1368.000000	1.787018 
1367.000000	1.787233 
1366.000000	1.787352 
1365.000000	1.787447 
1364.000000	1.787543 
1363.000000	1.787662 
1362.000000	1.787829 
1361.000000	1.788020 
1360.000000	1.788210 
1359.000000	1.788401 
1358.000000	1.788520 
1357.000000	1.788568 
1356.000000	1.788520 
1355.000000	1.788425 
1354.000000	1.788234 
1353.000000	1.788020 
1352.000000	1.787757 
1351.000000	1.787447 
1350.000000	1.787114 
1349.000000	1.786780 
1348.000000	1.786375 
1347.000000	1.785945 
1346.000000	1.785492 
1345.000000	1.785039 
1344.000000	1.784682 
1343.000000	1.784443 
1342.000000	1.784491 
1341.000000	1.784873 
1340.000000	1.785731 
1339.000000	1.787137 
1338.000000	1.789045 
1337.000000	1.791477 
1336.000000	1.794314 
1335.000000	1.797461 
1334.000000	1.800680 
1333.000000	1.803851 
1332.000000	1.806855 
1331.000000	1.809525 
1330.000000	1.811814 
1329.000000	1.813697 
1328.000000	1.815247 
1327.000000	1.816487 
1326.000000	1.817464 
1325.000000	1.818323 
1324.000000	1.819086 
1323.000000	1.819777 
1322.000000	1.820397 
1321.000000	1.820993 
1320.000000	1.821517 
1319.000000	1.821923 
1318.000000	1.822209 
1317.000000	1.822352 
1316.000000	1.822376 
1315.000000	1.822328 
1314.000000	1.822185 
1313.000000	1.822018 
1312.000000	1.821875 
1311.000000	1.821804 
1310.000000	1.821756 
1309.000000	1.821780 
1308.000000	1.821875 
1307.000000	1.822066 
1306.000000	1.822304 
1305.000000	1.822566 
1304.000000	1.822829 
1303.000000	1.823091 
1302.000000	1.823329 
1301.000000	1.823544 
1300.000000	1.823663 
1299.000000	1.823806 
1298.000000	1.823854 
1297.000000	1.823854 
1296.000000	1.823830 
1295.000000	1.823830 
1294.000000	1.823830 
1293.000000	1.823830 
1292.000000	1.823830 
1291.000000	1.823854 
1290.000000	1.823878 
1289.000000	1.823902 
1288.000000	1.823925 
1287.000000	1.823854 
1286.000000	1.823735 
1285.000000	1.823496 
1284.000000	1.823043 
1283.000000	1.822352 
1282.000000	1.821398 
1281.000000	1.820087 
1280.000000	1.818299 
1279.000000	1.815986 
1278.000000	1.813054 
1277.000000	1.809477 
1276.000000	1.805067 
1275.000000	1.799726 
1274.000000	1.793360 
1273.000000	1.785850 
1272.000000	1.777195 
1271.000000	1.767396 
1270.000000	1.756644 
1269.000000	1.745176 
1268.000000	1.733398 
1267.000000	1.721858 
1266.000000	1.711130 
1265.000000	1.701831 
1264.000000	1.694607 
1263.000000	1.689887 
1262.000000	1.688075 
1261.000000	1.689267 
1260.000000	1.693391 
1259.000000	1.700091 
1258.000000	1.708865 
1257.000000	1.719141 
1256.000000	1.730251 
1255.000000	1.741480 
1254.000000	1.752376 
1253.000000	1.762485 
1252.000000	1.771521 
1251.000000	1.779317 
1250.000000	1.785898 
1249.000000	1.791310 
1248.000000	1.795673 
1247.000000	1.799154 
1246.000000	1.801896 
1245.000000	1.804018 
1244.000000	1.805639 
1243.000000	1.806831 
1242.000000	1.807737 
1241.000000	1.808261 
1240.000000	1.808500 
1239.000000	1.808452 
1238.000000	1.808142 
1237.000000	1.807522 
1236.000000	1.806640 
1235.000000	1.805543 
1234.000000	1.804256 
1233.000000	1.802778 
1232.000000	1.801228 
1231.000000	1.799631 
1230.000000	1.798009 
1229.000000	1.796364 
1228.000000	1.794648 
1227.000000	1.792788 
1226.000000	1.790809 
1225.000000	1.788592 
1224.000000	1.786088 
1223.000000	1.783251 
1222.000000	1.780104 
1221.000000	1.776576 
1220.000000	1.772689 
1219.000000	1.768445 
1218.000000	1.763939 
1217.000000	1.759219 
1216.000000	1.754403 
1215.000000	1.749610 
1214.000000	1.745009 
1213.000000	1.740646 
1212.000000	1.736688 
1211.000000	1.733183 
1210.000000	1.730179 
1209.000000	1.727700 
1208.000000	1.725721 
1207.000000	1.724171 
1206.000000	1.723027 
1205.000000	1.722240 
1204.000000	1.721668 
1203.000000	1.721310 
1202.000000	1.721096 
1201.000000	1.720952 
1200.000000	1.720809 
1199.000000	1.720595 
1198.000000	1.720285 
1197.000000	1.719808 
1196.000000	1.719164 
1195.000000	1.718306 
1194.000000	1.717281 
1193.000000	1.716041 
1192.000000	1.714682 
1191.000000	1.713156 
1190.000000	1.711487 
1189.000000	1.709628 
1188.000000	1.707553 
1187.000000	1.705360 
1186.000000	1.702952 
1185.000000	1.700496 
1184.000000	1.697897 
1183.000000	1.695275 
1182.000000	1.692652 
1181.000000	1.689982 
1180.000000	1.687312 
1179.000000	1.684546 
1178.000000	1.681685 
1177.000000	1.678729 
1176.000000	1.675605 
1175.000000	1.672291 
1174.000000	1.668810 
1173.000000	1.665115 
1172.000000	1.661229 
1171.000000	1.657080 
1170.000000	1.652741 
1169.000000	1.648211 
1168.000000	1.643490 
1167.000000	1.638674 
1166.000000	1.633810 
1165.000000	1.628971 
1164.000000	1.624250 
1163.000000	1.619720 
1162.000000	1.615428 
1161.000000	1.611447 
1160.000000	1.607847 
1159.000000	1.604676 
1158.000000	1.601886 
1157.000000	1.599574 
1156.000000	1.597666 
1155.000000	1.596140 
1154.000000	1.594853 
1153.000000	1.593732 
1152.000000	1.592636 
1151.000000	1.591491 
1150.000000	1.590085 
1149.000000	1.588416 
1148.000000	1.586389 
1147.000000	1.584100 
1146.000000	1.581573 
1145.000000	1.578903 
1144.000000	1.576161 
1143.000000	1.573395 
1142.000000	1.570653 
1141.000000	1.567912 
1140.000000	1.565122 
1139.000000	1.562261 
1138.000000	1.559305 
1137.000000	1.556229 
1136.000000	1.552939 
1135.000000	1.549482 
1134.000000	1.545786 
1133.000000	1.541900 
1132.000000	1.537895 
1131.000000	1.533651 
1130.000000	1.529264 
1129.000000	1.524710 
1128.000000	1.519966 
1127.000000	1.515078 
1126.000000	1.510047 
1125.000000	1.504874 
1124.000000	1.499581 
1123.000000	1.494216 
1122.000000	1.488757 
1121.000000	1.483321 
1120.000000	1.477909 
1119.000000	1.472520 
1118.000000	1.467251 
1117.000000	1.462054 
1116.000000	1.456975 
1115.000000	1.452016 
1114.000000	1.447129 
1113.000000	1.442384 
1112.000000	1.437783 
1111.000000	1.433348 
1110.000000	1.429128 
1109.000000	1.425218 
1108.000000	1.421642 
1107.000000	1.418447 
1106.000000	1.415657 
1105.000000	1.413297 
1104.000000	1.411294 
1103.000000	1.409649 
1102.000000	1.408243 
1101.000000	1.407027 
1100.000000	1.405978 
1099.000000	1.405048 
1098.000000	1.404213 
1097.000000	1.403522 
1096.000000	1.402974 
1095.000000	1.402616 
1094.000000	1.402473 
1093.000000	1.402544 
1092.000000	1.402831 
1091.000000	1.403331 
1090.000000	1.404047 
1089.000000	1.404857 
1088.000000	1.405739 
1087.000000	1.406621 
1086.000000	1.407384 
1085.000000	1.407909 
1084.000000	1.408171 
1083.000000	1.408147 
1082.000000	1.407885 
1081.000000	1.407432 
1080.000000	1.406955 
1079.000000	1.406526 
1078.000000	1.406359 
1077.000000	1.406526 
1076.000000	1.407098 
1075.000000	1.408076 
1074.000000	1.409387 
1073.000000	1.410984 
1072.000000	1.412653 
1071.000000	1.414322 
1070.000000	1.415872 
1069.000000	1.417136 
1068.000000	1.418042 
1067.000000	1.418566 
1066.000000	1.418614 
1065.000000	1.418113 
1064.000000	1.416873 
1063.000000	1.414704 
1062.000000	1.411342 
1061.000000	1.406359 
1060.000000	1.399445 
1059.000000	1.390337 
1058.000000	1.378846 
1057.000000	1.365208 
1056.000000	1.349878 
1055.000000	1.333737 
1054.000000	1.317787 
1053.000000	1.303386 
1052.000000	1.291728 
1051.000000	1.283836 
1050.000000	1.280331 
1049.000000	1.281356 
1048.000000	1.286578 
1047.000000	1.295137 
1046.000000	1.305961 
1045.000000	1.317787 
1044.000000	1.329493 
1043.000000	1.340103 
1042.000000	1.349020 
1041.000000	1.355910 
1040.000000	1.360774 
1039.000000	1.363801 
1038.000000	1.365327 
1037.000000	1.365661 
1036.000000	1.365113 
1035.000000	1.363968 
1034.000000	1.362371 
1033.000000	1.360464 
1032.000000	1.358270 
1031.000000	1.355910 
1030.000000	1.353359 
1029.000000	1.350712 
1028.000000	1.348018 
1027.000000	1.345396 
1026.000000	1.342916 
1025.000000	1.340675 
1024.000000	1.338863 
1023.000000	1.337528 
1022.000000	1.336789 
1021.000000	1.336622 
1020.000000	1.337099 
1019.000000	1.338171 
1018.000000	1.339817 
1017.000000	1.341891 
1016.000000	1.344299 
1015.000000	1.346945 
1014.000000	1.349759 
1013.000000	1.352691 
1012.000000	1.355671 
1011.000000	1.358604 
1010.000000	1.361465 
1009.000000	1.364254 
1008.000000	1.366901 
1007.000000	1.369380 
1006.000000	1.371669 
1005.000000	1.373720 
1004.000000	1.375508 
1003.000000	1.377034 
1002.000000	1.378250 
1001.000000	1.379108 
1000.000000	1.379704 
999.000000	 1.379942 
998.000000	 1.379919 
997.000000	 1.379656 
996.000000	 1.379156 
995.000000	 1.378512 
994.000000	 1.377654 
993.000000	 1.376628 
992.000000	 1.375436 
991.000000	 1.374006 
990.000000	 1.372385 
989.000000	 1.370549 
988.000000	 1.368522 
987.000000	 1.366329 
986.000000	 1.364064 
985.000000	 1.361799 
984.000000	 1.359534 
983.000000	 1.357364 
982.000000	 1.355290 
981.000000	 1.353287 
980.000000	 1.351308 
979.000000	 1.349353 
978.000000	 1.347351 
977.000000	 1.345252 
976.000000	 1.343083 
975.000000	 1.340842 
974.000000	 1.338458 
973.000000	 1.335954 
972.000000	 1.333355 
971.000000	 1.330685 
970.000000	 1.327919 
969.000000	 1.325011 
968.000000	 1.322007 
967.000000	 1.318883 
966.000000	 1.315641 
965.000000	 1.312279 
964.000000	 1.308822 
963.000000	 1.305294 
962.000000	 1.301670 
961.000000	 1.298046 
960.000000	 1.294398 
959.000000	 1.290774 
958.000000	 1.287174 
957.000000	 1.283597 
956.000000	 1.280045 
955.000000	 1.276516 
954.000000	 1.273059 
953.000000	 1.269745 
952.000000	 1.266527 
951.000000	 1.263499 
950.000000	 1.260662 
949.000000	 1.258039 
948.000000	 1.255631 
947.000000	 1.253390 
946.000000	 1.251292 
945.000000	 1.249289 
944.000000	 1.247334 
943.000000	 1.245427 
942.000000	 1.243519 
941.000000	 1.241612 
940.000000	 1.239728 
939.000000	 1.237869 
938.000000	 1.236033 
937.000000	 1.234197 
936.000000	 1.232314 
935.000000	 1.230406 
934.000000	 1.228380 
933.000000	 1.226234 
932.000000	 1.223993 
931.000000	 1.221609 
930.000000	 1.219224 
929.000000	 1.216864 
928.000000	 1.214480 
927.000000	 1.212167 
926.000000	 1.209902 
925.000000	 1.207661 
924.000000	 1.205420 
923.000000	 1.203131 
922.000000	 1.200723 
921.000000	 1.198172 
920.000000	 1.195430 
919.000000	 1.192474 
918.000000	 1.189279 
917.000000	 1.185870 
916.000000	 1.182270 
915.000000	 1.178455 
914.000000	 1.174569 
913.000000	 1.170659 
912.000000	 1.166796 
911.000000	 1.163053 
910.000000	 1.159524 
909.000000	 1.156282 
908.000000	 1.153373 
907.000000	 1.150751 
906.000000	 1.148414 
905.000000	 1.146340 
904.000000	 1.144504 
903.000000	 1.142859 
902.000000	 1.141357 
901.000000	 1.139926 
900.000000	 1.138639 
899.000000	 1.137351 
898.000000	 1.136088 
897.000000	 1.134729 
896.000000	 1.133275 
895.000000	 1.131582 
894.000000	 1.129531 
893.000000	 1.127004 
892.000000	 1.123905 
891.000000	 1.120138 
890.000000	 1.115679 
889.000000	 1.110339 
888.000000	 1.104211 
887.000000	 1.097249 
886.000000	 1.089429 
885.000000	 1.080942 
884.000000	 1.071882 
883.000000	 1.062488 
882.000000	 1.053047 
881.000000	 1.043891 
880.000000	 1.035380 
879.000000	 1.027870 
878.000000	 1.021695 
877.000000	 1.017117 
876.000000	 1.014328 
875.000000	 1.013374 
874.000000	 1.014232 
873.000000	 1.016712 
872.000000	 1.020693 
871.000000	 1.025843 
870.000000	 1.031851 
869.000000	 1.038312 
868.000000	 1.044940 
867.000000	 1.051402 
866.000000	 1.057434 
865.000000	 1.062726 
864.000000	 1.067256 
863.000000	 1.070904 
862.000000	 1.073598 
861.000000	 1.075482 
860.000000	 1.076650 
859.000000	 1.077222 
858.000000	 1.077342 
857.000000	 1.077079 
856.000000	 1.076507 
855.000000	 1.075768 
854.000000	 1.074838 
853.000000	 1.073765 
852.000000	 1.072502 
851.000000	 1.071119 
850.000000	 1.069641 
849.000000	 1.068139 
848.000000	 1.066541 
847.000000	 1.064872 
846.000000	 1.063108 
845.000000	 1.061177 
844.000000	 1.059031 
843.000000	 1.056432 
842.000000	 1.053285 
841.000000	 1.049423 
840.000000	 1.044535 
839.000000	 1.038503 
838.000000	 1.030993 
837.000000	 1.021814 
836.000000	 1.010775 
835.000000	 0.997734 
834.000000	 0.982642 
833.000000	 0.965666 
832.000000	 0.947070 
831.000000	 0.927400 
830.000000	 0.907349 
829.000000	 0.887846 
828.000000	 0.869894 
827.000000	 0.854539 
826.000000	 0.842690 
825.000000	 0.834989 
824.000000	 0.831794 
823.000000	 0.833082 
822.000000	 0.838398 
821.000000	 0.847029 
820.000000	 0.857996 
819.000000	 0.870227 
818.000000	 0.882720 
817.000000	 0.894594 
816.000000	 0.905227 
815.000000	 0.914263 
814.000000	 0.921487 
813.000000	 0.926995 
812.000000	 0.930953 
811.000000	 0.933575 
810.000000	 0.935173 
809.000000	 0.935864 
808.000000	 0.935935 
807.000000	 0.935554 
806.000000	 0.934910 
805.000000	 0.934028 
804.000000	 0.933146 
803.000000	 0.932359 
802.000000	 0.931739 
801.000000	 0.931406 
800.000000	 0.931453 
799.000000	 0.931906 
798.000000	 0.932765 
797.000000	 0.934004 
796.000000	 0.935626 
795.000000	 0.937628 
794.000000	 0.939941 
793.000000	 0.942516 
792.000000	 0.945210 
791.000000	 0.948071 
790.000000	 0.950932 
789.000000	 0.953769 
788.000000	 0.956439 
787.000000	 0.958800 
786.000000	 0.960898 
785.000000	 0.962567 
784.000000	 0.963830 
783.000000	 0.964689 
782.000000	 0.965142 
781.000000	 0.965237 
780.000000	 0.965023 
779.000000	 0.964593 
778.000000	 0.963973 
777.000000	 0.963282 
776.000000	 0.962471 
775.000000	 0.961637 
774.000000	 0.960755 
773.000000	 0.959849 
772.000000	 0.958943 
771.000000	 0.958037 
770.000000	 0.957179 
769.000000	 0.956296 
768.000000	 0.955438 
767.000000	 0.954580 
766.000000	 0.953769 
765.000000	 0.952911 
764.000000	 0.952076 
763.000000	 0.951242 
762.000000	 0.950503 
761.000000	 0.949788 
760.000000	 0.949144 
759.000000	 0.948500 
758.000000	 0.947904 
757.000000	 0.947237 
756.000000	 0.946450 
755.000000	 0.945448 
754.000000	 0.944161 
753.000000	 0.942659 
752.000000	 0.940918 
751.000000	 0.939011 
750.000000	 0.936961 
749.000000	 0.934934 
748.000000	 0.932955 
747.000000	 0.931048 
746.000000	 0.929260 
745.000000	 0.927639 
744.000000	 0.926089 
743.000000	 0.924587 
742.000000	 0.923132 
741.000000	 0.921630 
740.000000	 0.919985 
739.000000	 0.918221 
738.000000	 0.916242 
737.000000	 0.914049 
736.000000	 0.911641 
735.000000	 0.909066 
734.000000	 0.906300 
733.000000	 0.903439 
732.000000	 0.900530 
731.000000	 0.897574 
730.000000	 0.894618 
729.000000	 0.891685 
728.000000	 0.888776 
727.000000	 0.885844 
726.000000	 0.882911 
725.000000	 0.880002 
724.000000	 0.877141 
723.000000	 0.874304 
722.000000	 0.871467 
721.000000	 0.868630 
720.000000	 0.865817 
719.000000	 0.863003 
718.000000	 0.860190 
717.000000	 0.857353 
716.000000	 0.854516 
715.000000	 0.851655 
714.000000	 0.848770 
713.000000	 0.845861 
712.000000	 0.842952 
711.000000	 0.840020 
710.000000	 0.837039 
709.000000	 0.833988 
708.000000	 0.830841 
707.000000	 0.827646 
706.000000	 0.824236 
705.000000	 0.820684 
704.000000	 0.816988 
703.000000	 0.813126 
702.000000	 0.809073 
701.000000	 0.804781 
700.000000	 0.800204 
699.000000	 0.795269 
698.000000	 0.789880 
697.000000	 0.783967 
696.000000	 0.777435 
695.000000	 0.770330 
694.000000	 0.762748 
693.000000	 0.754904 
692.000000	 0.747036 
691.000000	 0.739550 
690.000000	 0.732827 
689.000000	 0.727176 
688.000000	 0.722861 
687.000000	 0.719928 
686.000000	 0.718402 
685.000000	 0.718045 
684.000000	 0.718522 
683.000000	 0.719451 
682.000000	 0.720524 
681.000000	 0.721430 
680.000000	 0.721979 
679.000000	 0.721979 
678.000000	 0.721526 
677.000000	 0.720596 
676.000000	 0.719356 
675.000000	 0.717854 
674.000000	 0.716185 
673.000000	 0.714397 
672.000000	 0.712561 
671.000000	 0.710725 
670.000000	 0.708866 
669.000000	 0.706958 
668.000000	 0.704979 
667.000000	 0.702953 
666.000000	 0.700879 
665.000000	 0.698733 
664.000000	 0.696563 
663.000000	 0.694346 
662.000000	 0.692129 
661.000000	 0.689959 
660.000000	 0.687789 
659.000000	 0.685596 
658.000000	 0.683331 
657.000000	 0.680947 
656.000000	 0.678372 
655.000000	 0.675606 
654.000000	 0.672650 
653.000000	 0.669550 
652.000000	 0.666356 
651.000000	 0.663137 
650.000000	 0.659942 
649.000000	 0.656843 
648.000000	 0.653886 
647.000000	 0.651001 
646.000000	 0.648212 
645.000000	 0.645470 
644.000000	 0.642704 
643.000000	 0.639915 
642.000000	 0.637078 
641.000000	 0.634169 
640.000000	 0.631260 
639.000000	 0.628352 
638.000000	 0.625538 
637.000000	 0.622749 
636.000000	 0.620102 
635.000000	 0.617599 
634.000000	 0.615191 
633.000000	 0.612854 
632.000000	 0.610589 
631.000000	 0.608325 
630.000000	 0.606036 
629.000000	 0.603723 
628.000000	 0.601363 
627.000000	 0.598955 
626.000000	 0.596499 
625.000000	 0.594043 
624.000000	 0.591492 
623.000000	 0.588893 
622.000000	 0.586199 
621.000000	 0.583314 
620.000000	 0.580239 
619.000000	 0.577020 
618.000000	 0.573539 
617.000000	 0.569868 
616.000000	 0.565934 
615.000000	 0.561761 
614.000000	 0.557351 
613.000000	 0.552773 
612.000000	 0.548005 
611.000000	 0.543165 
610.000000	 0.538325 
609.000000	 0.533652 
608.000000	 0.529336 
607.000000	 0.525546 
606.000000	 0.522422 
605.000000	 0.519990 
604.000000	 0.518345 
603.000000	 0.517368 
602.000000	 0.516986 
601.000000	 0.516963 
600.000000	 0.517082 
599.000000	 0.517225 
598.000000	 0.517201 
597.000000	 0.516915 
596.000000	 0.516295 
595.000000	 0.515365 
594.000000	 0.514125 
593.000000	 0.512671 
592.000000	 0.511026 
591.000000	 0.509357 
590.000000	 0.507640 
589.000000	 0.506043 
588.000000	 0.504517 
587.000000	 0.503134 
586.000000	 0.501966 
585.000000	 0.500917 
584.000000	 0.500011 
583.000000	 0.499129 
582.000000	 0.498318 
581.000000	 0.497388 
580.000000	 0.496339 
579.000000	 0.495219 
578.000000	 0.493979 
577.000000	 0.492596 
576.000000	 0.491142 
575.000000	 0.489664 
574.000000	 0.488185 
573.000000	 0.486707 
572.000000	 0.485253 
571.000000	 0.483870 
570.000000	 0.482511 
569.000000	 0.481152 
568.000000	 0.479793 
567.000000	 0.478410 
566.000000	 0.477051 
565.000000	 0.475668 
564.000000	 0.474286 
563.000000	 0.473022 
562.000000	 0.471830 
561.000000	 0.470709 
560.000000	 0.469660 
559.000000	 0.468730 
558.000000	 0.467848 
557.000000	 0.467014 
556.000000	 0.466156 
555.000000	 0.465202 
554.000000	 0.464129 
553.000000	 0.462889 
552.000000	 0.461435 
551.000000	 0.459790 
550.000000	 0.457978 
549.000000	 0.455999 
548.000000	 0.453925 
547.000000	 0.451803 
546.000000	 0.449609 
545.000000	 0.447416 
544.000000	 0.445294 
543.000000	 0.443220 
542.000000	 0.441169 
541.000000	 0.439167 
540.000000	 0.437164 
539.000000	 0.435185 
538.000000	 0.433206 
537.000000	 0.431180 
536.000000	 0.429153 
535.000000	 0.427031 
534.000000	 0.424909 
533.000000	 0.422692 
532.000000	 0.420403 
531.000000	 0.418090 
530.000000	 0.415730 
529.000000	 0.413298 
528.000000	 0.410842 
527.000000	 0.408411 
526.000000	 0.406026 
525.000000	 0.403666 
524.000000	 0.401401 
523.000000	 0.399184 
522.000000	 0.397062 
521.000000	 0.395035 
520.000000	 0.393080 
519.000000	 0.391221 
518.000000	 0.389409 
517.000000	 0.387597 
516.000000	 0.385785 
515.000000	 0.383996 
514.000000	 0.382065 
513.000000	 0.380015 
512.000000	 0.377845 
511.000000	 0.375461 
510.000000	 0.372886 
509.000000	 0.370144 
508.000000	 0.367236 
507.000000	 0.364160 
506.000000	 0.360989 
505.000000	 0.357699 
504.000000	 0.354361 
503.000000	 0.350952 
502.000000	 0.347542 
501.000000	 0.344157 
500.000000	 0.340771 
499.000000	 0.337433 
498.000000	 0.334119 
497.000000	 0.330853 
496.000000	 0.327587 
495.000000	 0.324320 
494.000000	 0.321030 
493.000000	 0.317740 
492.000000	 0.314426 
491.000000	 0.311040 
490.000000	 0.307655 
489.000000	 0.304198 
488.000000	 0.300693 
487.000000	 0.297141 
486.000000	 0.293493 
485.000000	 0.289750 
484.000000	 0.286054 
483.000000	 0.282311 
482.000000	 0.278615 
481.000000	 0.274968 
480.000000	 0.271511 
479.000000	 0.268173 
478.000000	 0.264978 
477.000000	 0.261950 
476.000000	 0.259041 
475.000000	 0.256180 
474.000000	 0.253319 
473.000000	 0.250434 
472.000000	 0.247502 
471.000000	 0.244498 
470.000000	 0.241398 
469.000000	 0.238227 
468.000000	 0.235009 
467.000000	 0.231766 
466.000000	 0.228500 
465.000000	 0.225281 
464.000000	 0.222039 
463.000000	 0.218796 
462.000000	 0.215554 
461.000000	 0.212216 
460.000000	 0.208806 
459.000000	 0.205302 
458.000000	 0.201678 
457.000000	 0.198006 
456.000000	 0.194263 
455.000000	 0.190496 
454.000000	 0.186777 
453.000000	 0.183129 
452.000000	 0.179600 
451.000000	 0.176167 
450.000000	 0.172924 
449.000000	 0.169873 
448.000000	 0.166988 
447.000000	 0.164270 
446.000000	 0.161647 
445.000000	 0.159096 
444.000000	 0.156593 
443.000000	 0.154018 
442.000000	 0.151395 
441.000000	 0.148701 
440.000000	 0.145864 
439.000000	 0.142955 
438.000000	 0.139904 
437.000000	 0.136828 
436.000000	 0.133681 
435.000000	 0.130486 
434.000000	 0.127267 
433.000000	 0.124001 
432.000000	 0.120687 
431.000000	 0.117373 
430.000000	 0.114083 
429.000000	 0.110816 
428.000000	 0.107645 
427.000000	 0.104546 
426.000000	 0.101542 
425.000000	 0.098681 
424.000000	 0.095891 
423.000000	 0.093197 
422.000000	 0.090551 
421.000000	 0.087976 
420.000000	 0.085473 
419.000000	 0.082993 
418.000000	 0.080466 
417.000000	 0.077939 
416.000000	 0.075340 
415.000000	 0.072717 
414.000000	 0.070023 
413.000000	 0.067257 
412.000000	 0.064492 
411.000000	 0.061774 
410.000000	 0.059199 
409.000000	 0.056743 
408.000000	 0.054526 
407.000000	 0.052499 
406.000000	 0.050592 
405.000000	 0.048851 
404.000000	 0.047111 
403.000000	 0.045299 
402.000000	 0.043439 
401.000000	 0.041556 
400.000000	 0.039625 
399.000000	 0.037765 
398.000000	 0.036048 
397.000000	 0.034523 
396.000000	 0.033164 
395.000000	 0.031995 
394.000000	 0.030899 
393.000000	 0.029802 
392.000000	 0.028634 
391.000000	 0.027346 
390.000000	 0.025916 
389.000000	 0.024366 
388.000000	 0.022792 
387.000000	 0.021171 
386.000000	 0.019669 
385.000000	 0.018239 
384.000000	 0.016927 
383.000000	 0.015735 
382.000000	 0.014591 
381.000000	 0.013518 
380.000000	 0.012469 
379.000000	 0.011467 
378.000000	 0.010561 
377.000000	 0.009727 
376.000000	 0.008988 
375.000000	 0.008344 
374.000000	 0.007820 
373.000000	 0.007343 
372.000000	 0.006914 
371.000000	 0.006484 
370.000000	 0.006079 

