PE IR       SPECTRUM    SPECTRUM    ASCII       PEDS        1.60        
  -1
LP0ABB~1.ASC
17/05/16
23:26:29.00
17/05/16
23:26:29.00
tln
$LPE453_e0127$<ebV0>[-23.3,12.1,10.0,0.0,27,1,0]
370.000000
64









2002,4.07    
MIRTGS : RIGHTBACK : INTERNAL 2
MIR : ON : INTERNAL 2
OPTKBR

0.200000
8
8.000000
FILLER
SINGLE
SPECTRUM
UNLOCKED 256

DOUBLE

COMBINED
1
0
0


1.000000
BACKG


1
0
TRUE
51149
0
LEFT NOT FITTED RIGHT NOT FITTED 0
NONE
NONE
15600
12.000000
4.427000
51148
TRUE
1 0 8 72 0 0 0 0 

15798.010000






#HDR
-1
-1
#GR
CM-1
EGY
0.00002384185791015625
0.0
5000.000000
-1.000000
4631
8
2.419400
0.007247
#DATA
5000.000000	0.767540 
4999.000000	0.768160 
4998.000000	0.768828 
4997.000000	0.769543 
4996.000000	0.770258 
4995.000000	0.770902 
4994.000000	0.771379 
4993.000000	0.771641 
4992.000000	0.771665 
4991.000000	0.771427 
4990.000000	0.771045 
4989.000000	0.770616 
4988.000000	0.770282 
4987.000000	0.770187 
4986.000000	0.770425 
4985.000000	0.771021 
4984.000000	0.771903 
4983.000000	0.772976 
4982.000000	0.774145 
4981.000000	0.775265 
4980.000000	0.776171 
4979.000000	0.776886 
4978.000000	0.777316 
4977.000000	0.777578 
4976.000000	0.777721 
4975.000000	0.777864 
4974.000000	0.778031 
4973.000000	0.778412 
4972.000000	0.778985 
4971.000000	0.779700 
4970.000000	0.780606 
4969.000000	0.781607 
4968.000000	0.782585 
4967.000000	0.783491 
4966.000000	0.784254 
4965.000000	0.784826 
4964.000000	0.785231 
4963.000000	0.785493 
4962.000000	0.785732 
4961.000000	0.785970 
4960.000000	0.786280 
4959.000000	0.786709 
4958.000000	0.787281 
4957.000000	0.787949 
4956.000000	0.788712 
4955.000000	0.789427 
4954.000000	0.790143 
4953.000000	0.790715 
4952.000000	0.791168 
4951.000000	0.791478 
4950.000000	0.791645 
4949.000000	0.791740 
4948.000000	0.791788 
4947.000000	0.791788 
4946.000000	0.791764 
4945.000000	0.791835 
4944.000000	0.791931 
4943.000000	0.792098 
4942.000000	0.792384 
4941.000000	0.792694 
4940.000000	0.793075 
4939.000000	0.793504 
4938.000000	0.793886 
4937.000000	0.794243 
4936.000000	0.794553 
4935.000000	0.794792 
4934.000000	0.794982 
4933.000000	0.795102 
4932.000000	0.795197 
4931.000000	0.795292 
4930.000000	0.795388 
4929.000000	0.795531 
4928.000000	0.795674 
4927.000000	0.795841 
4926.000000	0.796031 
4925.000000	0.796318 
4924.000000	0.796627 
4923.000000	0.797104 
4922.000000	0.797653 
4921.000000	0.798368 
4920.000000	0.799250 
4919.000000	0.800275 
4918.000000	0.801324 
4917.000000	0.802421 
4916.000000	0.803446 
4915.000000	0.804424 
4914.000000	0.805211 
4913.000000	0.805854 
4912.000000	0.806307 
4911.000000	0.806593 
4910.000000	0.806808 
4909.000000	0.806903 
4908.000000	0.806903 
4907.000000	0.806927 
4906.000000	0.806927 
4905.000000	0.806999 
4904.000000	0.807118 
4903.000000	0.807309 
4902.000000	0.807595 
4901.000000	0.807952 
4900.000000	0.808429 
4899.000000	0.808906 
4898.000000	0.809383 
4897.000000	0.809860 
4896.000000	0.810313 
4895.000000	0.810766 
4894.000000	0.811147 
4893.000000	0.811481 
4892.000000	0.811791 
4891.000000	0.812005 
4890.000000	0.812244 
4889.000000	0.812435 
4888.000000	0.812602 
4887.000000	0.812864 
4886.000000	0.813174 
4885.000000	0.813555 
4884.000000	0.814032 
4883.000000	0.814676 
4882.000000	0.815463 
4881.000000	0.816392 
4880.000000	0.817394 
4879.000000	0.818467 
4878.000000	0.819516 
4877.000000	0.820517 
4876.000000	0.821375 
4875.000000	0.822043 
4874.000000	0.822544 
4873.000000	0.822877 
4872.000000	0.823116 
4871.000000	0.823307 
4870.000000	0.823497 
4869.000000	0.823831 
4868.000000	0.824260 
4867.000000	0.824856 
4866.000000	0.825619 
4865.000000	0.826454 
4864.000000	0.827312 
4863.000000	0.828099 
4862.000000	0.828814 
4861.000000	0.829386 
4860.000000	0.829815 
4859.000000	0.830197 
4858.000000	0.830531 
4857.000000	0.830912 
4856.000000	0.831437 
4855.000000	0.832056 
4854.000000	0.832843 
4853.000000	0.833702 
4852.000000	0.834536 
4851.000000	0.835323 
4850.000000	0.835943 
4849.000000	0.836372 
4848.000000	0.836563 
4847.000000	0.836515 
4846.000000	0.836348 
4845.000000	0.836133 
4844.000000	0.835967 
4843.000000	0.835990 
4842.000000	0.836229 
4841.000000	0.836801 
4840.000000	0.837588 
4839.000000	0.838637 
4838.000000	0.839757 
4837.000000	0.840902 
4836.000000	0.841951 
4835.000000	0.842857 
4834.000000	0.843572 
4833.000000	0.844192 
4832.000000	0.844693 
4831.000000	0.845193 
4830.000000	0.845766 
4829.000000	0.846457 
4828.000000	0.847339 
4827.000000	0.848340 
4826.000000	0.849437 
4825.000000	0.850558 
4824.000000	0.851655 
4823.000000	0.852680 
4822.000000	0.853586 
4821.000000	0.854372 
4820.000000	0.855016 
4819.000000	0.855541 
4818.000000	0.855994 
4817.000000	0.856375 
4816.000000	0.856685 
4815.000000	0.856947 
4814.000000	0.857234 
4813.000000	0.857496 
4812.000000	0.857782 
4811.000000	0.858139 
4810.000000	0.858592 
4809.000000	0.859117 
4808.000000	0.859737 
4807.000000	0.860452 
4806.000000	0.861191 
4805.000000	0.861954 
4804.000000	0.862741 
4803.000000	0.863480 
4802.000000	0.864219 
4801.000000	0.864958 
4800.000000	0.865674 
4799.000000	0.866436 
4798.000000	0.867247 
4797.000000	0.868129 
4796.000000	0.869083 
4795.000000	0.870084 
4794.000000	0.871109 
4793.000000	0.872135 
4792.000000	0.873112 
4791.000000	0.874066 
4790.000000	0.874900 
4789.000000	0.875687 
4788.000000	0.876331 
4787.000000	0.876855 
4786.000000	0.877356 
4785.000000	0.877737 
4784.000000	0.878095 
4783.000000	0.878405 
4782.000000	0.878763 
4781.000000	0.879096 
4780.000000	0.879454 
4779.000000	0.879812 
4778.000000	0.880169 
4777.000000	0.880527 
4776.000000	0.880885 
4775.000000	0.881266 
4774.000000	0.881648 
4773.000000	0.882077 
4772.000000	0.882506 
4771.000000	0.882935 
4770.000000	0.883364 
4769.000000	0.883793 
4768.000000	0.884151 
4767.000000	0.884461 
4766.000000	0.884747 
4765.000000	0.885009 
4764.000000	0.885272 
4763.000000	0.885558 
4762.000000	0.885963 
4761.000000	0.886487 
4760.000000	0.887155 
4759.000000	0.887966 
4758.000000	0.888872 
4757.000000	0.889873 
4756.000000	0.890874 
4755.000000	0.891876 
4754.000000	0.892710 
4753.000000	0.893425 
4752.000000	0.893878 
4751.000000	0.894045 
4750.000000	0.893998 
4749.000000	0.893688 
4748.000000	0.893259 
4747.000000	0.892758 
4746.000000	0.892376 
4745.000000	0.892138 
4744.000000	0.892114 
4743.000000	0.892376 
4742.000000	0.892877 
4741.000000	0.893592 
4740.000000	0.894427 
4739.000000	0.895261 
4738.000000	0.896048 
4737.000000	0.896692 
4736.000000	0.897192 
4735.000000	0.897669 
4734.000000	0.898098 
4733.000000	0.898599 
4732.000000	0.899219 
4731.000000	0.899982 
4730.000000	0.900816 
4729.000000	0.901746 
4728.000000	0.902676 
4727.000000	0.903487 
4726.000000	0.904107 
4725.000000	0.904512 
4724.000000	0.904726 
4723.000000	0.904798 
4722.000000	0.904846 
4721.000000	0.904941 
4720.000000	0.905179 
4719.000000	0.905513 
4718.000000	0.905919 
4717.000000	0.906372 
4716.000000	0.906801 
4715.000000	0.907135 
4714.000000	0.907373 
4713.000000	0.907540 
4712.000000	0.907611 
4711.000000	0.907611 
4710.000000	0.907516 
4709.000000	0.907278 
4708.000000	0.906801 
4707.000000	0.906062 
4706.000000	0.904941 
4705.000000	0.903534 
4704.000000	0.901889 
4703.000000	0.900197 
4702.000000	0.898599 
4701.000000	0.897336 
4700.000000	0.896477 
4699.000000	0.896120 
4698.000000	0.896120 
4697.000000	0.896453 
4696.000000	0.896883 
4695.000000	0.897336 
4694.000000	0.897741 
4693.000000	0.898051 
4692.000000	0.898361 
4691.000000	0.898694 
4690.000000	0.899171 
4689.000000	0.899696 
4688.000000	0.900316 
4687.000000	0.900888 
4686.000000	0.901293 
4685.000000	0.901436 
4684.000000	0.901293 
4683.000000	0.900864 
4682.000000	0.900292 
4681.000000	0.899744 
4680.000000	0.899410 
4679.000000	0.899434 
4678.000000	0.899887 
4677.000000	0.900816 
4676.000000	0.902175 
4675.000000	0.903892 
4674.000000	0.905823 
4673.000000	0.907897 
4672.000000	0.910043 
4671.000000	0.912165 
4670.000000	0.914144 
4669.000000	0.915956 
4668.000000	0.917506 
4667.000000	0.918769 
4666.000000	0.919628 
4665.000000	0.920104 
4664.000000	0.920176 
4663.000000	0.919938 
4662.000000	0.919413 
4661.000000	0.918602 
4660.000000	0.917625 
4659.000000	0.916433 
4658.000000	0.915026 
4657.000000	0.913405 
4656.000000	0.911474 
4655.000000	0.909304 
4654.000000	0.906944 
4653.000000	0.904440 
4652.000000	0.901937 
4651.000000	0.899648 
4650.000000	0.897765 
4649.000000	0.896382 
4648.000000	0.895643 
4647.000000	0.895667 
4646.000000	0.896382 
4645.000000	0.897789 
4644.000000	0.899791 
4643.000000	0.902223 
4642.000000	0.904965 
4641.000000	0.907826 
4640.000000	0.910687 
4639.000000	0.913429 
4638.000000	0.915932 
4637.000000	0.918173 
4636.000000	0.920081 
4635.000000	0.921607 
4634.000000	0.922751 
4633.000000	0.923466 
4632.000000	0.923657 
4631.000000	0.923299 
4630.000000	0.922441 
4629.000000	0.921082 
4628.000000	0.919365 
4627.000000	0.917458 
4626.000000	0.915598 
4625.000000	0.914072 
4624.000000	0.913047 
4623.000000	0.912666 
4622.000000	0.912952 
4621.000000	0.913763 
4620.000000	0.914883 
4619.000000	0.916075 
4618.000000	0.917029 
4617.000000	0.917530 
4616.000000	0.917458 
4615.000000	0.916934 
4614.000000	0.916051 
4613.000000	0.915145 
4612.000000	0.914430 
4611.000000	0.914120 
4610.000000	0.914382 
4609.000000	0.915241 
4608.000000	0.916647 
4607.000000	0.918483 
4606.000000	0.920557 
4605.000000	0.922822 
4604.000000	0.925064 
4603.000000	0.927281 
4602.000000	0.929331 
4601.000000	0.931215 
4600.000000	0.932908 
4599.000000	0.934338 
4598.000000	0.935459 
4597.000000	0.936245 
4596.000000	0.936746 
4595.000000	0.937008 
4594.000000	0.937080 
4593.000000	0.937056 
4592.000000	0.937032 
4591.000000	0.937104 
4590.000000	0.937318 
4589.000000	0.937819 
4588.000000	0.938606 
4587.000000	0.939679 
4586.000000	0.941085 
4585.000000	0.942707 
4584.000000	0.944423 
4583.000000	0.946140 
4582.000000	0.947666 
4581.000000	0.948953 
4580.000000	0.949931 
4579.000000	0.950622 
4578.000000	0.951075 
4577.000000	0.951385 
4576.000000	0.951671 
4575.000000	0.951933 
4574.000000	0.952243 
4573.000000	0.952577 
4572.000000	0.952863 
4571.000000	0.953006 
4570.000000	0.952935 
4569.000000	0.952744 
4568.000000	0.952434 
4567.000000	0.952029 
4566.000000	0.951671 
4565.000000	0.951433 
4564.000000	0.951361 
4563.000000	0.951409 
4562.000000	0.951623 
4561.000000	0.951933 
4560.000000	0.952315 
4559.000000	0.952768 
4558.000000	0.953340 
4557.000000	0.954031 
4556.000000	0.954961 
4555.000000	0.956177 
4554.000000	0.957608 
4553.000000	0.959205 
4552.000000	0.960850 
4551.000000	0.962400 
4550.000000	0.963735 
4549.000000	0.964736 
4548.000000	0.965428 
4547.000000	0.965809 
4546.000000	0.965952 
4545.000000	0.965952 
4544.000000	0.966000 
4543.000000	0.966095 
4542.000000	0.966405 
4541.000000	0.966858 
4540.000000	0.967407 
4539.000000	0.968050 
4538.000000	0.968670 
4537.000000	0.969171 
4536.000000	0.969505 
4535.000000	0.969600 
4534.000000	0.969529 
4533.000000	0.969338 
4532.000000	0.969052 
4531.000000	0.968670 
4530.000000	0.968217 
4529.000000	0.967836 
4528.000000	0.967550 
4527.000000	0.967383 
4526.000000	0.967264 
4525.000000	0.967192 
4524.000000	0.967168 
4523.000000	0.967240 
4522.000000	0.967478 
4521.000000	0.967931 
4520.000000	0.968480 
4519.000000	0.969123 
4518.000000	0.969839 
4517.000000	0.970578 
4516.000000	0.971364 
4515.000000	0.971984 
4514.000000	0.972247 
4513.000000	0.971770 
4512.000000	0.970244 
4511.000000	0.967192 
4510.000000	0.962686 
4509.000000	0.957417 
4508.000000	0.952696 
4507.000000	0.950312 
4506.000000	0.952100 
4505.000000	0.959515 
4504.000000	0.972795 
4503.000000	0.990843 
4502.000000	1.010894 
4501.000000	1.029109 
4500.000000	1.041507 
4499.000000	1.044869 
4498.000000	1.038050 
4497.000000	1.022601 
4496.000000	1.002669 
4495.000000	0.984168 
4494.000000	0.973296 
4493.000000	0.974917 
4492.000000	0.991249 
4491.000000	1.021075 
4490.000000	1.059985 
4489.000000	1.101398 
4488.000000	1.138186 
4487.000000	1.164102 
4486.000000	1.175451 
4485.000000	1.171374 
4484.000000	1.153922 
4483.000000	1.127314 
4482.000000	1.096558 
4481.000000	1.066446 
4480.000000	1.040625 
4479.000000	1.020884 
4478.000000	1.007509 
4477.000000	0.999522 
4476.000000	0.995492 
4475.000000	0.993895 
4474.000000	0.993585 
4473.000000	0.993776 
4472.000000	0.994038 
4471.000000	0.994277 
4470.000000	0.994539 
4469.000000	0.994873 
4468.000000	0.995206 
4467.000000	0.995564 
4466.000000	0.995898 
4465.000000	0.996208 
4464.000000	0.996470 
4463.000000	0.996708 
4462.000000	0.996899 
4461.000000	0.996994 
4460.000000	0.997042 
4459.000000	0.997114 
4458.000000	0.997304 
4457.000000	0.997662 
4456.000000	0.998234 
4455.000000	0.999140 
4454.000000	1.000380 
4453.000000	1.001906 
4452.000000	1.003456 
4451.000000	1.004672 
4450.000000	1.005387 
4449.000000	1.005506 
4448.000000	1.005053 
4447.000000	1.004076 
4446.000000	1.002764 
4445.000000	1.001358 
4444.000000	1.000022 
4443.000000	0.998973 
4442.000000	0.998234 
4441.000000	0.997900 
4440.000000	0.997924 
4439.000000	0.998210 
4438.000000	0.998759 
4437.000000	0.999426 
4436.000000	1.000142 
4435.000000	1.000857 
4434.000000	1.001572 
4433.000000	1.002264 
4432.000000	1.002979 
4431.000000	1.003646 
4430.000000	1.004314 
4429.000000	1.004934 
4428.000000	1.005434 
4427.000000	1.005864 
4426.000000	1.006221 
4425.000000	1.006484 
4424.000000	1.006698 
4423.000000	1.006889 
4422.000000	1.007127 
4421.000000	1.007413 
4420.000000	1.007795 
4419.000000	1.008200 
4418.000000	1.008605 
4417.000000	1.008987 
4416.000000	1.009249 
4415.000000	1.009416 
4414.000000	1.009440 
4413.000000	1.009345 
4412.000000	1.009202 
4411.000000	1.009035 
4410.000000	1.008892 
4409.000000	1.008820 
4408.000000	1.008915 
4407.000000	1.009202 
4406.000000	1.009607 
4405.000000	1.010131 
4404.000000	1.010751 
4403.000000	1.011395 
4402.000000	1.012039 
4401.000000	1.012587 
4400.000000	1.013064 
4399.000000	1.013541 
4398.000000	1.013946 
4397.000000	1.014447 
4396.000000	1.015019 
4395.000000	1.015710 
4394.000000	1.016569 
4393.000000	1.017618 
4392.000000	1.018810 
4391.000000	1.020050 
4390.000000	1.021337 
4389.000000	1.022529 
4388.000000	1.023674 
4387.000000	1.024699 
4386.000000	1.025629 
4385.000000	1.026463 
4384.000000	1.027178 
4383.000000	1.027822 
4382.000000	1.028347 
4381.000000	1.028823 
4380.000000	1.029229 
4379.000000	1.029586 
4378.000000	1.029944 
4377.000000	1.030373 
4376.000000	1.030898 
4375.000000	1.031565 
4374.000000	1.032400 
4373.000000	1.033282 
4372.000000	1.034188 
4371.000000	1.035022 
4370.000000	1.035714 
4369.000000	1.036238 
4368.000000	1.036620 
4367.000000	1.036882 
4366.000000	1.037144 
4365.000000	1.037478 
4364.000000	1.037955 
4363.000000	1.038575 
4362.000000	1.039409 
4361.000000	1.040339 
4360.000000	1.041293 
4359.000000	1.042222 
4358.000000	1.043105 
4357.000000	1.043915 
4356.000000	1.044654 
4355.000000	1.045370 
4354.000000	1.046061 
4353.000000	1.046752 
4352.000000	1.047444 
4351.000000	1.048111 
4350.000000	1.048731 
4349.000000	1.049208 
4348.000000	1.049518 
4347.000000	1.049685 
4346.000000	1.049733 
4345.000000	1.049709 
4344.000000	1.049733 
4343.000000	1.049900 
4342.000000	1.050353 
4341.000000	1.051068 
4340.000000	1.052141 
4339.000000	1.053500 
4338.000000	1.055121 
4337.000000	1.056957 
4336.000000	1.058864 
4335.000000	1.060819 
4334.000000	1.062726 
4333.000000	1.064586 
4332.000000	1.066374 
4331.000000	1.068019 
4330.000000	1.069617 
4329.000000	1.071166 
4328.000000	1.072669 
4327.000000	1.074171 
4326.000000	1.075673 
4325.000000	1.077198 
4324.000000	1.078724 
4323.000000	1.080322 
4322.000000	1.081871 
4321.000000	1.083374 
4320.000000	1.084852 
4319.000000	1.086282 
4318.000000	1.087713 
4317.000000	1.089096 
4316.000000	1.090502 
4315.000000	1.091885 
4314.000000	1.093244 
4313.000000	1.094579 
4312.000000	1.095795 
4311.000000	1.096892 
4310.000000	1.097893 
4309.000000	1.098704 
4308.000000	1.099395 
4307.000000	1.100039 
4306.000000	1.100707 
4305.000000	1.101398 
4304.000000	1.102232 
4303.000000	1.103162 
4302.000000	1.104211 
4301.000000	1.105380 
4300.000000	1.106715 
4299.000000	1.108098 
4298.000000	1.109528 
4297.000000	1.111006 
4296.000000	1.112604 
4295.000000	1.114153 
4294.000000	1.115727 
4293.000000	1.117253 
4292.000000	1.118731 
4291.000000	1.120114 
4290.000000	1.121330 
4289.000000	1.122426 
4288.000000	1.123404 
4287.000000	1.124286 
4286.000000	1.125168 
4285.000000	1.126027 
4284.000000	1.126933 
4283.000000	1.127958 
4282.000000	1.129031 
4281.000000	1.130199 
4280.000000	1.131367 
4279.000000	1.132535 
4278.000000	1.133680 
4277.000000	1.134777 
4276.000000	1.135826 
4275.000000	1.136851 
4274.000000	1.137876 
4273.000000	1.138901 
4272.000000	1.139950 
4271.000000	1.140975 
4270.000000	1.142001 
4269.000000	1.142978 
4268.000000	1.143956 
4267.000000	1.144862 
4266.000000	1.145744 
4265.000000	1.146602 
4264.000000	1.147484 
4263.000000	1.148390 
4262.000000	1.149296 
4261.000000	1.150250 
4260.000000	1.151227 
4259.000000	1.152205 
4258.000000	1.153135 
4257.000000	1.154041 
4256.000000	1.154947 
4255.000000	1.155781 
4254.000000	1.156616 
4253.000000	1.157402 
4252.000000	1.158165 
4251.000000	1.158881 
4250.000000	1.159596 
4249.000000	1.160311 
4248.000000	1.161098 
4247.000000	1.161956 
4246.000000	1.162934 
4245.000000	1.163959 
4244.000000	1.165032 
4243.000000	1.166057 
4242.000000	1.167011 
4241.000000	1.167798 
4240.000000	1.168417 
4239.000000	1.168894 
4238.000000	1.169323 
4237.000000	1.169681 
4236.000000	1.170134 
4235.000000	1.170730 
4234.000000	1.171517 
4233.000000	1.172447 
4232.000000	1.173472 
4231.000000	1.174473 
4230.000000	1.175427 
4229.000000	1.176285 
4228.000000	1.177024 
4227.000000	1.177692 
4226.000000	1.178288 
4225.000000	1.178884 
4224.000000	1.179575 
4223.000000	1.180338 
4222.000000	1.181244 
4221.000000	1.182174 
4220.000000	1.183128 
4219.000000	1.184034 
4218.000000	1.184892 
4217.000000	1.185607 
4216.000000	1.186203 
4215.000000	1.186656 
4214.000000	1.187038 
4213.000000	1.187324 
4212.000000	1.187562 
4211.000000	1.187729 
4210.000000	1.187849 
4209.000000	1.187968 
4208.000000	1.188063 
4207.000000	1.188230 
4206.000000	1.188468 
4205.000000	1.188802 
4204.000000	1.189279 
4203.000000	1.189899 
4202.000000	1.190614 
4201.000000	1.191377 
4200.000000	1.192164 
4199.000000	1.192927 
4198.000000	1.193618 
4197.000000	1.194167 
4196.000000	1.194596 
4195.000000	1.194977 
4194.000000	1.195311 
4193.000000	1.195669 
4192.000000	1.196122 
4191.000000	1.196694 
4190.000000	1.197409 
4189.000000	1.198244 
4188.000000	1.199221 
4187.000000	1.200318 
4186.000000	1.201415 
4185.000000	1.202511 
4184.000000	1.203513 
4183.000000	1.204371 
4182.000000	1.205039 
4181.000000	1.205539 
4180.000000	1.205801 
4179.000000	1.205897 
4178.000000	1.205873 
4177.000000	1.205754 
4176.000000	1.205706 
4175.000000	1.205730 
4174.000000	1.205921 
4173.000000	1.206278 
4172.000000	1.206851 
4171.000000	1.207613 
4170.000000	1.208519 
4169.000000	1.209521 
4168.000000	1.210498 
4167.000000	1.211476 
4166.000000	1.212334 
4165.000000	1.213097 
4164.000000	1.213741 
4163.000000	1.214337 
4162.000000	1.214885 
4161.000000	1.215410 
4160.000000	1.215958 
4159.000000	1.216483 
4158.000000	1.216959 
4157.000000	1.217436 
4156.000000	1.217818 
4155.000000	1.218152 
4154.000000	1.218366 
4153.000000	1.218557 
4152.000000	1.218724 
4151.000000	1.218914 
4150.000000	1.219129 
4149.000000	1.219391 
4148.000000	1.219725 
4147.000000	1.220107 
4146.000000	1.220488 
4145.000000	1.220917 
4144.000000	1.221370 
4143.000000	1.221799 
4142.000000	1.222252 
4141.000000	1.222753 
4140.000000	1.223254 
4139.000000	1.223874 
4138.000000	1.224541 
4137.000000	1.225185 
4136.000000	1.225852 
4135.000000	1.226520 
4134.000000	1.227188 
4133.000000	1.227855 
4132.000000	1.228570 
4131.000000	1.229381 
4130.000000	1.230335 
4129.000000	1.231360 
4128.000000	1.232528 
4127.000000	1.233720 
4126.000000	1.234912 
4125.000000	1.236057 
4124.000000	1.237130 
4123.000000	1.238107 
4122.000000	1.238965 
4121.000000	1.239752 
4120.000000	1.240515 
4119.000000	1.241302 
4118.000000	1.242136 
4117.000000	1.243019 
4116.000000	1.243948 
4115.000000	1.244950 
4114.000000	1.245903 
4113.000000	1.246786 
4112.000000	1.247525 
4111.000000	1.248192 
4110.000000	1.248645 
4109.000000	1.249027 
4108.000000	1.249408 
4107.000000	1.249814 
4106.000000	1.250386 
4105.000000	1.251125 
4104.000000	1.252102 
4103.000000	1.253342 
4102.000000	1.254773 
4101.000000	1.256346 
4100.000000	1.258015 
4099.000000	1.259636 
4098.000000	1.261186 
4097.000000	1.262593 
4096.000000	1.263856 
4095.000000	1.265025 
4094.000000	1.266098 
4093.000000	1.267147 
4092.000000	1.268172 
4091.000000	1.269316 
4090.000000	1.270508 
4089.000000	1.271796 
4088.000000	1.273107 
4087.000000	1.274394 
4086.000000	1.275587 
4085.000000	1.276683 
4084.000000	1.277613 
4083.000000	1.278448 
4082.000000	1.279187 
4081.000000	1.279926 
4080.000000	1.280736 
4079.000000	1.281666 
4078.000000	1.282811 
4077.000000	1.284146 
4076.000000	1.285696 
4075.000000	1.287341 
4074.000000	1.289105 
4073.000000	1.290822 
4072.000000	1.292514 
4071.000000	1.294112 
4070.000000	1.295614 
4069.000000	1.296997 
4068.000000	1.298332 
4067.000000	1.299667 
4066.000000	1.300978 
4065.000000	1.302361 
4064.000000	1.303744 
4063.000000	1.305246 
4062.000000	1.306796 
4061.000000	1.308369 
4060.000000	1.309990 
4059.000000	1.311588 
4058.000000	1.313138 
4057.000000	1.314640 
4056.000000	1.316022 
4055.000000	1.317334 
4054.000000	1.318550 
4053.000000	1.319718 
4052.000000	1.320886 
4051.000000	1.322078 
4050.000000	1.323366 
4049.000000	1.324725 
4048.000000	1.326251 
4047.000000	1.327872 
4046.000000	1.329541 
4045.000000	1.331210 
4044.000000	1.332807 
4043.000000	1.334309 
4042.000000	1.335668 
4041.000000	1.336908 
4040.000000	1.338005 
4039.000000	1.339030 
4038.000000	1.340007 
4037.000000	1.341009 
4036.000000	1.342058 
4035.000000	1.343202 
4034.000000	1.344394 
4033.000000	1.345658 
4032.000000	1.346921 
4031.000000	1.348185 
4030.000000	1.349401 
4029.000000	1.350593 
4028.000000	1.351737 
4027.000000	1.352810 
4026.000000	1.353931 
4025.000000	1.355099 
4024.000000	1.356339 
4023.000000	1.357603 
4022.000000	1.358962 
4021.000000	1.360368 
4020.000000	1.361775 
4019.000000	1.363110 
4018.000000	1.364374 
4017.000000	1.365542 
4016.000000	1.366567 
4015.000000	1.367473 
4014.000000	1.368260 
4013.000000	1.368927 
4012.000000	1.369524 
4011.000000	1.370072 
4010.000000	1.370644 
4009.000000	1.371240 
4008.000000	1.371884 
4007.000000	1.372599 
4006.000000	1.373338 
4005.000000	1.374053 
4004.000000	1.374769 
4003.000000	1.375389 
4002.000000	1.375913 
4001.000000	1.376342 
4000.000000	1.376724 
3999.000000	1.377058 
3998.000000	1.377463 
3997.000000	1.378011 
3996.000000	1.378703 
3995.000000	1.379609 
3994.000000	1.380658 
3993.000000	1.381850 
3992.000000	1.383066 
3991.000000	1.384258 
3990.000000	1.385378 
3989.000000	1.386404 
3988.000000	1.387357 
3987.000000	1.388239 
3986.000000	1.389074 
3985.000000	1.389884 
3984.000000	1.390695 
3983.000000	1.391506 
3982.000000	1.392292 
3981.000000	1.393079 
3980.000000	1.393842 
3979.000000	1.394557 
3978.000000	1.395177 
3977.000000	1.395797 
3976.000000	1.396369 
3975.000000	1.396894 
3974.000000	1.397347 
3973.000000	1.397728 
3972.000000	1.398038 
3971.000000	1.398348 
3970.000000	1.398611 
3969.000000	1.398897 
3968.000000	1.399183 
3967.000000	1.399517 
3966.000000	1.399922 
3965.000000	1.400399 
3964.000000	1.400971 
3963.000000	1.401615 
3962.000000	1.402282 
3961.000000	1.402950 
3960.000000	1.403641 
3959.000000	1.404285 
3958.000000	1.404881 
3957.000000	1.405382 
3956.000000	1.405811 
3955.000000	1.406192 
3954.000000	1.406621 
3953.000000	1.407051 
3952.000000	1.407527 
3951.000000	1.408052 
3950.000000	1.408624 
3949.000000	1.409196 
3948.000000	1.409769 
3947.000000	1.410245 
3946.000000	1.410651 
3945.000000	1.410961 
3944.000000	1.411199 
3943.000000	1.411366 
3942.000000	1.411509 
3941.000000	1.411676 
3940.000000	1.411819 
3939.000000	1.412010 
3938.000000	1.412248 
3937.000000	1.412510 
3936.000000	1.412820 
3935.000000	1.413178 
3934.000000	1.413559 
3933.000000	1.413989 
3932.000000	1.414442 
3931.000000	1.414895 
3930.000000	1.415348 
3929.000000	1.415777 
3928.000000	1.416182 
3927.000000	1.416540 
3926.000000	1.416873 
3925.000000	1.417136 
3924.000000	1.417374 
3923.000000	1.417636 
3922.000000	1.417851 
3921.000000	1.418089 
3920.000000	1.418352 
3919.000000	1.418638 
3918.000000	1.419019 
3917.000000	1.419448 
3916.000000	1.419973 
3915.000000	1.420497 
3914.000000	1.421070 
3913.000000	1.421666 
3912.000000	1.422166 
3911.000000	1.422500 
3910.000000	1.422643 
3909.000000	1.422572 
3908.000000	1.422286 
3907.000000	1.421809 
3906.000000	1.421236 
3905.000000	1.420640 
3904.000000	1.420116 
3903.000000	1.419830 
3902.000000	1.419878 
3901.000000	1.420307 
3900.000000	1.421070 
3899.000000	1.422166 
3898.000000	1.423454 
3897.000000	1.424789 
3896.000000	1.426076 
3895.000000	1.427149 
3894.000000	1.427888 
3893.000000	1.428365 
3892.000000	1.428508 
3891.000000	1.428461 
3890.000000	1.428365 
3889.000000	1.428270 
3888.000000	1.428341 
3887.000000	1.428651 
3886.000000	1.429176 
3885.000000	1.429915 
3884.000000	1.430892 
3883.000000	1.431965 
3882.000000	1.433038 
3881.000000	1.434111 
3880.000000	1.435065 
3879.000000	1.435875 
3878.000000	1.436471 
3877.000000	1.436924 
3876.000000	1.437258 
3875.000000	1.437473 
3874.000000	1.437687 
3873.000000	1.437878 
3872.000000	1.438117 
3871.000000	1.438426 
3870.000000	1.438832 
3869.000000	1.439428 
3868.000000	1.440215 
3867.000000	1.441073 
3866.000000	1.442074 
3865.000000	1.443099 
3864.000000	1.444029 
3863.000000	1.444721 
3862.000000	1.445007 
3861.000000	1.444768 
3860.000000	1.443982 
3859.000000	1.442718 
3858.000000	1.441192 
3857.000000	1.439642 
3856.000000	1.438450 
3855.000000	1.437878 
3854.000000	1.438236 
3853.000000	1.439547 
3852.000000	1.441788 
3851.000000	1.444697 
3850.000000	1.448011 
3849.000000	1.451325 
3848.000000	1.454257 
3847.000000	1.456570 
3846.000000	1.458144 
3845.000000	1.458954 
3844.000000	1.459145 
3843.000000	1.458954 
3842.000000	1.458597 
3841.000000	1.458334 
3840.000000	1.458382 
3839.000000	1.458835 
3838.000000	1.459836 
3837.000000	1.461315 
3836.000000	1.463246 
3835.000000	1.465487 
3834.000000	1.467919 
3833.000000	1.470398 
3832.000000	1.472806 
3831.000000	1.475000 
3830.000000	1.476907 
3829.000000	1.478505 
3828.000000	1.479768 
3827.000000	1.480674 
3826.000000	1.481199 
3825.000000	1.481437 
3824.000000	1.481461 
3823.000000	1.481318 
3822.000000	1.481175 
3821.000000	1.481127 
3820.000000	1.481318 
3819.000000	1.481890 
3818.000000	1.482915 
3817.000000	1.484417 
3816.000000	1.486372 
3815.000000	1.488637 
3814.000000	1.491069 
3813.000000	1.493430 
3812.000000	1.495575 
3811.000000	1.497292 
3810.000000	1.498603 
3809.000000	1.499414 
3808.000000	1.499819 
3807.000000	1.499986 
3806.000000	1.500034 
3805.000000	1.500153 
3804.000000	1.500487 
3803.000000	1.501178 
3802.000000	1.502251 
3801.000000	1.503753 
3800.000000	1.505637 
3799.000000	1.507735 
3798.000000	1.510000 
3797.000000	1.512312 
3796.000000	1.514554 
3795.000000	1.516652 
3794.000000	1.518535 
3793.000000	1.520204 
3792.000000	1.521635 
3791.000000	1.522874 
3790.000000	1.523947 
3789.000000	1.524925 
3788.000000	1.525831 
3787.000000	1.526713 
3786.000000	1.527571 
3785.000000	1.528453 
3784.000000	1.529288 
3783.000000	1.530122 
3782.000000	1.530957 
3781.000000	1.531744 
3780.000000	1.532459 
3779.000000	1.533102 
3778.000000	1.533651 
3777.000000	1.534080 
3776.000000	1.534438 
3775.000000	1.534724 
3774.000000	1.535058 
3773.000000	1.535439 
3772.000000	1.535964 
3771.000000	1.536631 
3770.000000	1.537513 
3769.000000	1.538538 
3768.000000	1.539635 
3767.000000	1.540780 
3766.000000	1.541900 
3765.000000	1.542854 
3764.000000	1.543641 
3763.000000	1.544213 
3762.000000	1.544547 
3761.000000	1.544737 
3760.000000	1.544690 
3759.000000	1.544404 
3758.000000	1.543855 
3757.000000	1.543021 
3756.000000	1.541924 
3755.000000	1.540613 
3754.000000	1.539111 
3753.000000	1.537513 
3752.000000	1.535964 
3751.000000	1.534557 
3750.000000	1.533484 
3749.000000	1.532816 
3748.000000	1.532649 
3747.000000	1.533055 
3746.000000	1.533985 
3745.000000	1.535439 
3744.000000	1.537251 
3743.000000	1.539230 
3742.000000	1.541256 
3741.000000	1.543068 
3740.000000	1.544570 
3739.000000	1.545715 
3738.000000	1.546502 
3737.000000	1.547026 
3736.000000	1.547479 
3735.000000	1.548051 
3734.000000	1.548814 
3733.000000	1.549839 
3732.000000	1.551103 
3731.000000	1.552581 
3730.000000	1.554083 
3729.000000	1.555466 
3728.000000	1.556682 
3727.000000	1.557660 
3726.000000	1.558423 
3725.000000	1.559019 
3724.000000	1.559591 
3723.000000	1.560163 
3722.000000	1.560759 
3721.000000	1.561403 
3720.000000	1.562023 
3719.000000	1.562523 
3718.000000	1.562857 
3717.000000	1.562929 
3716.000000	1.562786 
3715.000000	1.562452 
3714.000000	1.562047 
3713.000000	1.561713 
3712.000000	1.561594 
3711.000000	1.561689 
3710.000000	1.562070 
3709.000000	1.562690 
3708.000000	1.563453 
3707.000000	1.564240 
3706.000000	1.564955 
3705.000000	1.565623 
3704.000000	1.566147 
3703.000000	1.566553 
3702.000000	1.566839 
3701.000000	1.567101 
3700.000000	1.567292 
3699.000000	1.567387 
3698.000000	1.567316 
3697.000000	1.567077 
3696.000000	1.566529 
3695.000000	1.565694 
3694.000000	1.564621 
3693.000000	1.563382 
3692.000000	1.562118 
3691.000000	1.561021 
3690.000000	1.560211 
3689.000000	1.559805 
3688.000000	1.559829 
3687.000000	1.560258 
3686.000000	1.560950 
3685.000000	1.561737 
3684.000000	1.562380 
3683.000000	1.562786 
3682.000000	1.562762 
3681.000000	1.562261 
3680.000000	1.561307 
3679.000000	1.559948 
3678.000000	1.558351 
3677.000000	1.556754 
3676.000000	1.555228 
3675.000000	1.554059 
3674.000000	1.553320 
3673.000000	1.553153 
3672.000000	1.553559 
3671.000000	1.554536 
3670.000000	1.556015 
3669.000000	1.557850 
3668.000000	1.559925 
3667.000000	1.562047 
3666.000000	1.563978 
3665.000000	1.565599 
3664.000000	1.566791 
3663.000000	1.567506 
3662.000000	1.567792 
3661.000000	1.567625 
3660.000000	1.567173 
3659.000000	1.566481 
3658.000000	1.565647 
3657.000000	1.564717 
3656.000000	1.563739 
3655.000000	1.562690 
3654.000000	1.561665 
3653.000000	1.560640 
3652.000000	1.559758 
3651.000000	1.559090 
3650.000000	1.558756 
3649.000000	1.558876 
3648.000000	1.559495 
3647.000000	1.560521 
3646.000000	1.562023 
3645.000000	1.563811 
3644.000000	1.565718 
3643.000000	1.567602 
3642.000000	1.569318 
3641.000000	1.570701 
3640.000000	1.571702 
3639.000000	1.572251 
3638.000000	1.572275 
3637.000000	1.571822 
3636.000000	1.570892 
3635.000000	1.569604 
3634.000000	1.568078 
3633.000000	1.566576 
3632.000000	1.565194 
3631.000000	1.564145 
3630.000000	1.563620 
3629.000000	1.563668 
3628.000000	1.564264 
3627.000000	1.565337 
3626.000000	1.566672 
3625.000000	1.568102 
3624.000000	1.569342 
3623.000000	1.570367 
3622.000000	1.571083 
3621.000000	1.571440 
3620.000000	1.571559 
3619.000000	1.571512 
3618.000000	1.571369 
3617.000000	1.571249 
3616.000000	1.571154 
3615.000000	1.571154 
3614.000000	1.571273 
3613.000000	1.571536 
3612.000000	1.571917 
3611.000000	1.572418 
3610.000000	1.573133 
3609.000000	1.573967 
3608.000000	1.574945 
3607.000000	1.576018 
3606.000000	1.577115 
3605.000000	1.578164 
3604.000000	1.579046 
3603.000000	1.579809 
3602.000000	1.580405 
3601.000000	1.580834 
3600.000000	1.581120 
3599.000000	1.581335 
3598.000000	1.581525 
3597.000000	1.581621 
3596.000000	1.581692 
3595.000000	1.581716 
3594.000000	1.581668 
3593.000000	1.581525 
3592.000000	1.581358 
3591.000000	1.581215 
3590.000000	1.581120 
3589.000000	1.581215 
3588.000000	1.581525 
3587.000000	1.582050 
3586.000000	1.582789 
3585.000000	1.583719 
3584.000000	1.584815 
3583.000000	1.585984 
3582.000000	1.587176 
3581.000000	1.588320 
3580.000000	1.589488 
3579.000000	1.590585 
3578.000000	1.591658 
3577.000000	1.592612 
3576.000000	1.593422 
3575.000000	1.594066 
3574.000000	1.594519 
3573.000000	1.594758 
3572.000000	1.594781 
3571.000000	1.594734 
3570.000000	1.594638 
3569.000000	1.594614 
3568.000000	1.594734 
3567.000000	1.595020 
3566.000000	1.595568 
3565.000000	1.596307 
3564.000000	1.597166 
3563.000000	1.598119 
3562.000000	1.599073 
3561.000000	1.600003 
3560.000000	1.600861 
3559.000000	1.601648 
3558.000000	1.602339 
3557.000000	1.602959 
3556.000000	1.603531 
3555.000000	1.604056 
3554.000000	1.604485 
3553.000000	1.604866 
3552.000000	1.605248 
3551.000000	1.605582 
3550.000000	1.605916 
3549.000000	1.606225 
3548.000000	1.606583 
3547.000000	1.606965 
3546.000000	1.607370 
3545.000000	1.607751 
3544.000000	1.608133 
3543.000000	1.608419 
3542.000000	1.608610 
3541.000000	1.608705 
3540.000000	1.608657 
3539.000000	1.608538 
3538.000000	1.608347 
3537.000000	1.608157 
3536.000000	1.607966 
3535.000000	1.607823 
3534.000000	1.607728 
3533.000000	1.607728 
3532.000000	1.607799 
3531.000000	1.607942 
3530.000000	1.608180 
3529.000000	1.608514 
3528.000000	1.608943 
3527.000000	1.609492 
3526.000000	1.610159 
3525.000000	1.610875 
3524.000000	1.611614 
3523.000000	1.612329 
3522.000000	1.612973 
3521.000000	1.613473 
3520.000000	1.613831 
3519.000000	1.613998 
3518.000000	1.613974 
3517.000000	1.613783 
3516.000000	1.613521 
3515.000000	1.613187 
3514.000000	1.612806 
3513.000000	1.612448 
3512.000000	1.612067 
3511.000000	1.611757 
3510.000000	1.611423 
3509.000000	1.611113 
3508.000000	1.610684 
3507.000000	1.610255 
3506.000000	1.609754 
3505.000000	1.609253 
3504.000000	1.608777 
3503.000000	1.608347 
3502.000000	1.608061 
3501.000000	1.607894 
3500.000000	1.607871 
3499.000000	1.607871 
3498.000000	1.607918 
3497.000000	1.607918 
3496.000000	1.607823 
3495.000000	1.607608 
3494.000000	1.607251 
3493.000000	1.606774 
3492.000000	1.606202 
3491.000000	1.605582 
3490.000000	1.604962 
3489.000000	1.604390 
3488.000000	1.603841 
3487.000000	1.603341 
3486.000000	1.602888 
3485.000000	1.602411 
3484.000000	1.601958 
3483.000000	1.601433 
3482.000000	1.600861 
3481.000000	1.600241 
3480.000000	1.599550 
3479.000000	1.598811 
3478.000000	1.598095 
3477.000000	1.597428 
3476.000000	1.596832 
3475.000000	1.596355 
3474.000000	1.596021 
3473.000000	1.595807 
3472.000000	1.595687 
3471.000000	1.595640 
3470.000000	1.595616 
3469.000000	1.595568 
3468.000000	1.595449 
3467.000000	1.595282 
3466.000000	1.595067 
3465.000000	1.594781 
3464.000000	1.594448 
3463.000000	1.594090 
3462.000000	1.593708 
3461.000000	1.593255 
3460.000000	1.592707 
3459.000000	1.592016 
3458.000000	1.591229 
3457.000000	1.590251 
3456.000000	1.589083 
3455.000000	1.587796 
3454.000000	1.586365 
3453.000000	1.584911 
3452.000000	1.583504 
3451.000000	1.582169 
3450.000000	1.580953 
3449.000000	1.579904 
3448.000000	1.579022 
3447.000000	1.578330 
3446.000000	1.577782 
3445.000000	1.577401 
3444.000000	1.577091 
3443.000000	1.576852 
3442.000000	1.576590 
3441.000000	1.576280 
3440.000000	1.575946 
3439.000000	1.575565 
3438.000000	1.575160 
3437.000000	1.574707 
3436.000000	1.574301 
3435.000000	1.573920 
3434.000000	1.573562 
3433.000000	1.573181 
3432.000000	1.572847 
3431.000000	1.572465 
3430.000000	1.572084 
3429.000000	1.571655 
3428.000000	1.571202 
3427.000000	1.570749 
3426.000000	1.570320 
3425.000000	1.570010 
3424.000000	1.569819 
3423.000000	1.569795 
3422.000000	1.569986 
3421.000000	1.570415 
3420.000000	1.571059 
3419.000000	1.571893 
3418.000000	1.572895 
3417.000000	1.573967 
3416.000000	1.575064 
3415.000000	1.576137 
3414.000000	1.577091 
3413.000000	1.577925 
3412.000000	1.578640 
3411.000000	1.579165 
3410.000000	1.579594 
3409.000000	1.579928 
3408.000000	1.580238 
3407.000000	1.580524 
3406.000000	1.580810 
3405.000000	1.581120 
3404.000000	1.581478 
3403.000000	1.581859 
3402.000000	1.582312 
3401.000000	1.582789 
3400.000000	1.583266 
3399.000000	1.583719 
3398.000000	1.584196 
3397.000000	1.584625 
3396.000000	1.585102 
3395.000000	1.585578 
3394.000000	1.586127 
3393.000000	1.586699 
3392.000000	1.587319 
3391.000000	1.588010 
3390.000000	1.588821 
3389.000000	1.589632 
3388.000000	1.590442 
3387.000000	1.591253 
3386.000000	1.592016 
3385.000000	1.592636 
3384.000000	1.593160 
3383.000000	1.593565 
3382.000000	1.593899 
3381.000000	1.594138 
3380.000000	1.594400 
3379.000000	1.594686 
3378.000000	1.595091 
3377.000000	1.595640 
3376.000000	1.596355 
3375.000000	1.597261 
3374.000000	1.598358 
3373.000000	1.599645 
3372.000000	1.601028 
3371.000000	1.602506 
3370.000000	1.604032 
3369.000000	1.605582 
3368.000000	1.607131 
3367.000000	1.608657 
3366.000000	1.610159 
3365.000000	1.611661 
3364.000000	1.613163 
3363.000000	1.614594 
3362.000000	1.616048 
3361.000000	1.617455 
3360.000000	1.618838 
3359.000000	1.620197 
3358.000000	1.621508 
3357.000000	1.622748 
3356.000000	1.623988 
3355.000000	1.625180 
3354.000000	1.626348 
3353.000000	1.627540 
3352.000000	1.628732 
3351.000000	1.629948 
3350.000000	1.631212 
3349.000000	1.632523 
3348.000000	1.633906 
3347.000000	1.635336 
3346.000000	1.636815 
3345.000000	1.638317 
3344.000000	1.639842 
3343.000000	1.641368 
3342.000000	1.642894 
3341.000000	1.644372 
3340.000000	1.645851 
3339.000000	1.647329 
3338.000000	1.648831 
3337.000000	1.650404 
3336.000000	1.652026 
3335.000000	1.653695 
3334.000000	1.655387 
3333.000000	1.657104 
3332.000000	1.658844 
3331.000000	1.660537 
3330.000000	1.662182 
3329.000000	1.663780 
3328.000000	1.665329 
3327.000000	1.666879 
3326.000000	1.668381 
3325.000000	1.669859 
3324.000000	1.671361 
3323.000000	1.672792 
3322.000000	1.674199 
3321.000000	1.675486 
3320.000000	1.676750 
3319.000000	1.677966 
3318.000000	1.679158 
3317.000000	1.680350 
3316.000000	1.681542 
3315.000000	1.682758 
3314.000000	1.684045 
3313.000000	1.685380 
3312.000000	1.686811 
3311.000000	1.688313 
3310.000000	1.689887 
3309.000000	1.691508 
3308.000000	1.693224 
3307.000000	1.694941 
3306.000000	1.696681 
3305.000000	1.698374 
3304.000000	1.700019 
3303.000000	1.701545 
3302.000000	1.702952 
3301.000000	1.704239 
3300.000000	1.705479 
3299.000000	1.706576 
3298.000000	1.707673 
3297.000000	1.708698 
3296.000000	1.709675 
3295.000000	1.710653 
3294.000000	1.711654 
3293.000000	1.712679 
3292.000000	1.713776 
3291.000000	1.714944 
3290.000000	1.716160 
3289.000000	1.717495 
3288.000000	1.718854 
3287.000000	1.720261 
3286.000000	1.721668 
3285.000000	1.723051 
3284.000000	1.724386 
3283.000000	1.725625 
3282.000000	1.726770 
3281.000000	1.727867 
3280.000000	1.728868 
3279.000000	1.729846 
3278.000000	1.730823 
3277.000000	1.731729 
3276.000000	1.732635 
3275.000000	1.733517 
3274.000000	1.734352 
3273.000000	1.735186 
3272.000000	1.735997 
3271.000000	1.736855 
3270.000000	1.737737 
3269.000000	1.738643 
3268.000000	1.739597 
3267.000000	1.740550 
3266.000000	1.741528 
3265.000000	1.742482 
3264.000000	1.743435 
3263.000000	1.744413 
3262.000000	1.745343 
3261.000000	1.746249 
3260.000000	1.747179 
3259.000000	1.748108 
3258.000000	1.749062 
3257.000000	1.749992 
3256.000000	1.750993 
3255.000000	1.751995 
3254.000000	1.752972 
3253.000000	1.753973 
3252.000000	1.754927 
3251.000000	1.755809 
3250.000000	1.756668 
3249.000000	1.757454 
3248.000000	1.758146 
3247.000000	1.758790 
3246.000000	1.759409 
3245.000000	1.759982 
3244.000000	1.760554 
3243.000000	1.761126 
3242.000000	1.761722 
3241.000000	1.762318 
3240.000000	1.762962 
3239.000000	1.763629 
3238.000000	1.764345 
3237.000000	1.765036 
3236.000000	1.765727 
3235.000000	1.766443 
3234.000000	1.767086 
3233.000000	1.767754 
3232.000000	1.768326 
3231.000000	1.768851 
3230.000000	1.769280 
3229.000000	1.769614 
3228.000000	1.769852 
3227.000000	1.770019 
3226.000000	1.770138 
3225.000000	1.770186 
3224.000000	1.770234 
3223.000000	1.770281 
3222.000000	1.770353 
3221.000000	1.770496 
3220.000000	1.770663 
3219.000000	1.770806 
3218.000000	1.770901 
3217.000000	1.770997 
3216.000000	1.770949 
3215.000000	1.770806 
3214.000000	1.770567 
3213.000000	1.770257 
3212.000000	1.770043 
3211.000000	1.769924 
3210.000000	1.769971 
3209.000000	1.770234 
3208.000000	1.770734 
3207.000000	1.771402 
3206.000000	1.772165 
3205.000000	1.772952 
3204.000000	1.773619 
3203.000000	1.774120 
3202.000000	1.774406 
3201.000000	1.774477 
3200.000000	1.774382 
3199.000000	1.774191 
3198.000000	1.774024 
3197.000000	1.773858 
3196.000000	1.773738 
3195.000000	1.773691 
3194.000000	1.773643 
3193.000000	1.773619 
3192.000000	1.773595 
3191.000000	1.773571 
3190.000000	1.773548 
3189.000000	1.773571 
3188.000000	1.773667 
3187.000000	1.773858 
3186.000000	1.774144 
3185.000000	1.774501 
3184.000000	1.774954 
3183.000000	1.775455 
3182.000000	1.775979 
3181.000000	1.776528 
3180.000000	1.777005 
3179.000000	1.777482 
3178.000000	1.777887 
3177.000000	1.778221 
3176.000000	1.778578 
3175.000000	1.778888 
3174.000000	1.779270 
3173.000000	1.779699 
3172.000000	1.780176 
3171.000000	1.780772 
3170.000000	1.781392 
3169.000000	1.782035 
3168.000000	1.782679 
3167.000000	1.783251 
3166.000000	1.783704 
3165.000000	1.784062 
3164.000000	1.784324 
3163.000000	1.784491 
3162.000000	1.784706 
3161.000000	1.784968 
3160.000000	1.785326 
3159.000000	1.785826 
3158.000000	1.786518 
3157.000000	1.787281 
3156.000000	1.788187 
3155.000000	1.789188 
3154.000000	1.790189 
3153.000000	1.791119 
3152.000000	1.792025 
3151.000000	1.792836 
3150.000000	1.793622 
3149.000000	1.794433 
3148.000000	1.795268 
3147.000000	1.796174 
3146.000000	1.797175 
3145.000000	1.798272 
3144.000000	1.799416 
3143.000000	1.800560 
3142.000000	1.801705 
3141.000000	1.802825 
3140.000000	1.803803 
3139.000000	1.804661 
3138.000000	1.805400 
3137.000000	1.806044 
3136.000000	1.806616 
3135.000000	1.807141 
3134.000000	1.807737 
3133.000000	1.808452 
3132.000000	1.809310 
3131.000000	1.810359 
3130.000000	1.811623 
3129.000000	1.813054 
3128.000000	1.814603 
3127.000000	1.816177 
3126.000000	1.817822 
3125.000000	1.819348 
3124.000000	1.820826 
3123.000000	1.822161 
3122.000000	1.823449 
3121.000000	1.824665 
3120.000000	1.825833 
3119.000000	1.827025 
3118.000000	1.828193 
3117.000000	1.829361 
3116.000000	1.830530 
3115.000000	1.831674 
3114.000000	1.832818 
3113.000000	1.833939 
3112.000000	1.835060 
3111.000000	1.836204 
3110.000000	1.837420 
3109.000000	1.838827 
3108.000000	1.840305 
3107.000000	1.841974 
3106.000000	1.843714 
3105.000000	1.845574 
3104.000000	1.847457 
3103.000000	1.849365 
3102.000000	1.851201 
3101.000000	1.852941 
3100.000000	1.854658 
3099.000000	1.856374 
3098.000000	1.858091 
3097.000000	1.859855 
3096.000000	1.861739 
3095.000000	1.863741 
3094.000000	1.865839 
3093.000000	1.868033 
3092.000000	1.870274 
3091.000000	1.872515 
3090.000000	1.874732 
3089.000000	1.876902 
3088.000000	1.879024 
3087.000000	1.881122 
3086.000000	1.883196 
3085.000000	1.885271 
3084.000000	1.887392 
3083.000000	1.889514 
3082.000000	1.891708 
3081.000000	1.893949 
3080.000000	1.896166 
3079.000000	1.898312 
3078.000000	1.900386 
3077.000000	1.902270 
3076.000000	1.903939 
3075.000000	1.905322 
3074.000000	1.906466 
3073.000000	1.907348 
3072.000000	1.908063 
3071.000000	1.908659 
3070.000000	1.909232 
3069.000000	1.909852 
3068.000000	1.910543 
3067.000000	1.911425 
3066.000000	1.912522 
3065.000000	1.913785 
3064.000000	1.915192 
3063.000000	1.916718 
3062.000000	1.918387 
3061.000000	1.920080 
3060.000000	1.921796 
3059.000000	1.923632 
3058.000000	1.925516 
3057.000000	1.927447 
3056.000000	1.929402 
3055.000000	1.931428 
3054.000000	1.933455 
3053.000000	1.935410 
3052.000000	1.937270 
3051.000000	1.938939 
3050.000000	1.940417 
3049.000000	1.941704 
3048.000000	1.942777 
3047.000000	1.943659 
3046.000000	1.944422 
3045.000000	1.945137 
3044.000000	1.945900 
3043.000000	1.946830 
3042.000000	1.947879 
3041.000000	1.949119 
3040.000000	1.950526 
3039.000000	1.952004 
3038.000000	1.953458 
3037.000000	1.954793 
3036.000000	1.955866 
3035.000000	1.956629 
3034.000000	1.957058 
3033.000000	1.957058 
3032.000000	1.956653 
3031.000000	1.955866 
3030.000000	1.954722 
3029.000000	1.953244 
3028.000000	1.951456 
3027.000000	1.949453 
3026.000000	1.947212 
3025.000000	1.944875 
3024.000000	1.942539 
3023.000000	1.940345 
3022.000000	1.938438 
3021.000000	1.936960 
3020.000000	1.936101 
3019.000000	1.935982 
3018.000000	1.936674 
3017.000000	1.938247 
3016.000000	1.940679 
3015.000000	1.943969 
3014.000000	1.947975 
3013.000000	1.952552 
3012.000000	1.957535 
3011.000000	1.962780 
3010.000000	1.968050 
3009.000000	1.973223 
3008.000000	1.978087 
3007.000000	1.982617 
3006.000000	1.986718 
3005.000000	1.990318 
3004.000000	1.993489 
3003.000000	1.996207 
3002.000000	1.998567 
3001.000000	2.000570 
3000.000000	2.002310 
2999.000000	2.003765 
2998.000000	2.004981 
2997.000000	2.005982 
2996.000000	2.006816 
2995.000000	2.007460 
2994.000000	2.007889 
2993.000000	2.008152 
2992.000000	2.008247 
2991.000000	2.008152 
2990.000000	2.007889 
2989.000000	2.007508 
2988.000000	2.006959 
2987.000000	2.006244 
2986.000000	2.005410 
2985.000000	2.004384 
2984.000000	2.003145 
2983.000000	2.001619 
2982.000000	1.999807 
2981.000000	1.997661 
2980.000000	1.995158 
2979.000000	1.992249 
2978.000000	1.988983 
2977.000000	1.985406 
2976.000000	1.981449 
2975.000000	1.977109 
2974.000000	1.972436 
2973.000000	1.967382 
2972.000000	1.961946 
2971.000000	1.956152 
2970.000000	1.950025 
2969.000000	1.943802 
2968.000000	1.937580 
2967.000000	1.931524 
2966.000000	1.925897 
2965.000000	1.920866 
2964.000000	1.916551 
2963.000000	1.912999 
2962.000000	1.910233 
2961.000000	1.908254 
2960.000000	1.906919 
2959.000000	1.906085 
2958.000000	1.905608 
2957.000000	1.905322 
2956.000000	1.905083 
2955.000000	1.904749 
2954.000000	1.904153 
2953.000000	1.903247 
2952.000000	1.901936 
2951.000000	1.900076 
2950.000000	1.897597 
2949.000000	1.894426 
2948.000000	1.890563 
2947.000000	1.885938 
2946.000000	1.880407 
2945.000000	1.874065 
2944.000000	1.866984 
2943.000000	1.859211 
2942.000000	1.850843 
2941.000000	1.842045 
2940.000000	1.833057 
2939.000000	1.824045 
2938.000000	1.815104 
2937.000000	1.806402 
2936.000000	1.798057 
2935.000000	1.790094 
2934.000000	1.782536 
2933.000000	1.775407 
2932.000000	1.768708 
2931.000000	1.762557 
2930.000000	1.757097 
2929.000000	1.752471 
2928.000000	1.749014 
2927.000000	1.747012 
2926.000000	1.746702 
2925.000000	1.748323 
2924.000000	1.751947 
2923.000000	1.757621 
2922.000000	1.765227 
2921.000000	1.774549 
2920.000000	1.785254 
2919.000000	1.796960 
2918.000000	1.809239 
2917.000000	1.821732 
2916.000000	1.834058 
2915.000000	1.845955 
2914.000000	1.857161 
2913.000000	1.867580 
2912.000000	1.877117 
2911.000000	1.885747 
2910.000000	1.893544 
2909.000000	1.900601 
2908.000000	1.907038 
2907.000000	1.912879 
2906.000000	1.918244 
2905.000000	1.923203 
2904.000000	1.927804 
2903.000000	1.932024 
2902.000000	1.935887 
2901.000000	1.939392 
2900.000000	1.942610 
2899.000000	1.945567 
2898.000000	1.948356 
2897.000000	1.951003 
2896.000000	1.953601 
2895.000000	1.956248 
2894.000000	1.958942 
2893.000000	1.961731 
2892.000000	1.964640 
2891.000000	1.967620 
2890.000000	1.970601 
2889.000000	1.973628 
2888.000000	1.976561 
2887.000000	1.979303 
2886.000000	1.981806 
2885.000000	1.983976 
2884.000000	1.985764 
2883.000000	1.987099 
2882.000000	1.987934 
2881.000000	1.988315 
2880.000000	1.988148 
2879.000000	1.987433 
2878.000000	1.986193 
2877.000000	1.984381 
2876.000000	1.981878 
2875.000000	1.978707 
2874.000000	1.974749 
2873.000000	1.969885 
2872.000000	1.964068 
2871.000000	1.957249 
2870.000000	1.949501 
2869.000000	1.940870 
2868.000000	1.931667 
2867.000000	1.922178 
2866.000000	1.912784 
2865.000000	1.903986 
2864.000000	1.896286 
2863.000000	1.890158 
2862.000000	1.885914 
2861.000000	1.883792 
2860.000000	1.883935 
2859.000000	1.886272 
2858.000000	1.890611 
2857.000000	1.896739 
2856.000000	1.904320 
2855.000000	1.913094 
2854.000000	1.922702 
2853.000000	1.932907 
2852.000000	1.943445 
2851.000000	1.954150 
2850.000000	1.964831 
2849.000000	1.975393 
2848.000000	1.985716 
2847.000000	1.995658 
2846.000000	2.005100 
2845.000000	2.013945 
2844.000000	2.022171 
2843.000000	2.029705 
2842.000000	2.036547 
2841.000000	2.042746 
2840.000000	2.048373 
2839.000000	2.053523 
2838.000000	2.058219 
2837.000000	2.062606 
2836.000000	2.066731 
2835.000000	2.070689 
2834.000000	2.074432 
2833.000000	2.078008 
2832.000000	2.081489 
2831.000000	2.084851 
2830.000000	2.088141 
2829.000000	2.091360 
2828.000000	2.094483 
2827.000000	2.097582 
2826.000000	2.100634 
2825.000000	2.103614 
2824.000000	2.106499 
2823.000000	2.109313 
2822.000000	2.112007 
2821.000000	2.114605 
2820.000000	2.117109 
2819.000000	2.119565 
2818.000000	2.121973 
2817.000000	2.124309 
2816.000000	2.126622 
2815.000000	2.128911 
2814.000000	2.131104 
2813.000000	2.133226 
2812.000000	2.135252 
2811.000000	2.137112 
2810.000000	2.138924 
2809.000000	2.140617 
2808.000000	2.142238 
2807.000000	2.143859 
2806.000000	2.145481 
2805.000000	2.147173 
2804.000000	2.148962 
2803.000000	2.150869 
2802.000000	2.152800 
2801.000000	2.154803 
2800.000000	2.156782 
2799.000000	2.158737 
2798.000000	2.160596 
2797.000000	2.162384 
2796.000000	2.164077 
2795.000000	2.165651 
2794.000000	2.167153 
2793.000000	2.168583 
2792.000000	2.170014 
2791.000000	2.171468 
2790.000000	2.172994 
2789.000000	2.174639 
2788.000000	2.176451 
2787.000000	2.178359 
2786.000000	2.180457 
2785.000000	2.182650 
2784.000000	2.184939 
2783.000000	2.187252 
2782.000000	2.189564 
2781.000000	2.191805 
2780.000000	2.193999 
2779.000000	2.196049 
2778.000000	2.197980 
2777.000000	2.199792 
2776.000000	2.201533 
2775.000000	2.203106 
2774.000000	2.204608 
2773.000000	2.206015 
2772.000000	2.207374 
2771.000000	2.208685 
2770.000000	2.209949 
2769.000000	2.211213 
2768.000000	2.212452 
2767.000000	2.213692 
2766.000000	2.214932 
2765.000000	2.216124 
2764.000000	2.217364 
2763.000000	2.218604 
2762.000000	2.219843 
2761.000000	2.221059 
2760.000000	2.222275 
2759.000000	2.223420 
2758.000000	2.224469 
2757.000000	2.225422 
2756.000000	2.226233 
2755.000000	2.226901 
2754.000000	2.227497 
2753.000000	2.227950 
2752.000000	2.228355 
2751.000000	2.228713 
2750.000000	2.229022 
2749.000000	2.229332 
2748.000000	2.229642 
2747.000000	2.229952 
2746.000000	2.230310 
2745.000000	2.230691 
2744.000000	2.231144 
2743.000000	2.231597 
2742.000000	2.232098 
2741.000000	2.232646 
2740.000000	2.233171 
2739.000000	2.233672 
2738.000000	2.234148 
2737.000000	2.234530 
2736.000000	2.234864 
2735.000000	2.235150 
2734.000000	2.235364 
2733.000000	2.235579 
2732.000000	2.235746 
2731.000000	2.235865 
2730.000000	2.235984 
2729.000000	2.236080 
2728.000000	2.236104 
2727.000000	2.236151 
2726.000000	2.236175 
2725.000000	2.236127 
2724.000000	2.236032 
2723.000000	2.235817 
2722.000000	2.235555 
2721.000000	2.235150 
2720.000000	2.234649 
2719.000000	2.234053 
2718.000000	2.233386 
2717.000000	2.232575 
2716.000000	2.231812 
2715.000000	2.231121 
2714.000000	2.230429 
2713.000000	2.229809 
2712.000000	2.229309 
2711.000000	2.228856 
2710.000000	2.228426 
2709.000000	2.227950 
2708.000000	2.227520 
2707.000000	2.227044 
2706.000000	2.226567 
2705.000000	2.226138 
2704.000000	2.225708 
2703.000000	2.225375 
2702.000000	2.225136 
2701.000000	2.224969 
2700.000000	2.224898 
2699.000000	2.224826 
2698.000000	2.224779 
2697.000000	2.224659 
2696.000000	2.224469 
2695.000000	2.224206 
2694.000000	2.223801 
2693.000000	2.223300 
2692.000000	2.222728 
2691.000000	2.222084 
2690.000000	2.221441 
2689.000000	2.220773 
2688.000000	2.220177 
2687.000000	2.219629 
2686.000000	2.219176 
2685.000000	2.218818 
2684.000000	2.218580 
2683.000000	2.218389 
2682.000000	2.218174 
2681.000000	2.217984 
2680.000000	2.217721 
2679.000000	2.217340 
2678.000000	2.216839 
2677.000000	2.216196 
2676.000000	2.215409 
2675.000000	2.214503 
2674.000000	2.213525 
2673.000000	2.212500 
2672.000000	2.211475 
2671.000000	2.210450 
2670.000000	2.209472 
2669.000000	2.208590 
2668.000000	2.207803 
2667.000000	2.207136 
2666.000000	2.206611 
2665.000000	2.206158 
2664.000000	2.205777 
2663.000000	2.205443 
2662.000000	2.205085 
2661.000000	2.204608 
2660.000000	2.204012 
2659.000000	2.203297 
2658.000000	2.202439 
2657.000000	2.201533 
2656.000000	2.200651 
2655.000000	2.199792 
2654.000000	2.199077 
2653.000000	2.198529 
2652.000000	2.198219 
2651.000000	2.198123 
2650.000000	2.198123 
2649.000000	2.198243 
2648.000000	2.198338 
2647.000000	2.198433 
2646.000000	2.198505 
2645.000000	2.198505 
2644.000000	2.198457 
2643.000000	2.198410 
2642.000000	2.198338 
2641.000000	2.198314 
2640.000000	2.198314 
2639.000000	2.198386 
2638.000000	2.198410 
2637.000000	2.198433 
2636.000000	2.198410 
2635.000000	2.198314 
2634.000000	2.198171 
2633.000000	2.197980 
2632.000000	2.197790 
2631.000000	2.197623 
2630.000000	2.197504 
2629.000000	2.197456 
2628.000000	2.197504 
2627.000000	2.197599 
2626.000000	2.197718 
2625.000000	2.197861 
2624.000000	2.198052 
2623.000000	2.198243 
2622.000000	2.198481 
2621.000000	2.198767 
2620.000000	2.199077 
2619.000000	2.199459 
2618.000000	2.199840 
2617.000000	2.200222 
2616.000000	2.200579 
2615.000000	2.200937 
2614.000000	2.201247 
2613.000000	2.201533 
2612.000000	2.201795 
2611.000000	2.202105 
2610.000000	2.202415 
2609.000000	2.202701 
2608.000000	2.203011 
2607.000000	2.203297 
2606.000000	2.203583 
2605.000000	2.203822 
2604.000000	2.204036 
2603.000000	2.204203 
2602.000000	2.204346 
2601.000000	2.204489 
2600.000000	2.204680 
2599.000000	2.204871 
2598.000000	2.205085 
2597.000000	2.205348 
2596.000000	2.205586 
2595.000000	2.205848 
2594.000000	2.206158 
2593.000000	2.206492 
2592.000000	2.206945 
2591.000000	2.207493 
2590.000000	2.208232 
2589.000000	2.209115 
2588.000000	2.210187 
2587.000000	2.211380 
2586.000000	2.212691 
2585.000000	2.214050 
2584.000000	2.215456 
2583.000000	2.216839 
2582.000000	2.218222 
2581.000000	2.219533 
2580.000000	2.220821 
2579.000000	2.222180 
2578.000000	2.223539 
2577.000000	2.225017 
2576.000000	2.226591 
2575.000000	2.228260 
2574.000000	2.230048 
2573.000000	2.231931 
2572.000000	2.233815 
2571.000000	2.235698 
2570.000000	2.237486 
2569.000000	2.239108 
2568.000000	2.240538 
2567.000000	2.241778 
2566.000000	2.242803 
2565.000000	2.243638 
2564.000000	2.244377 
2563.000000	2.245044 
2562.000000	2.245783 
2561.000000	2.246665 
2560.000000	2.247738 
2559.000000	2.248978 
2558.000000	2.250432 
2557.000000	2.252006 
2556.000000	2.253675 
2555.000000	2.255392 
2554.000000	2.257037 
2553.000000	2.258610 
2552.000000	2.260065 
2551.000000	2.261424 
2550.000000	2.262639 
2549.000000	2.263808 
2548.000000	2.264857 
2547.000000	2.265858 
2546.000000	2.266836 
2545.000000	2.267813 
2544.000000	2.268815 
2543.000000	2.269816 
2542.000000	2.270865 
2541.000000	2.271962 
2540.000000	2.273035 
2539.000000	2.274107 
2538.000000	2.275204 
2537.000000	2.276253 
2536.000000	2.277278 
2535.000000	2.278256 
2534.000000	2.279162 
2533.000000	2.280068 
2532.000000	2.280998 
2531.000000	2.281951 
2530.000000	2.282953 
2529.000000	2.284049 
2528.000000	2.285146 
2527.000000	2.286291 
2526.000000	2.287435 
2525.000000	2.288508 
2524.000000	2.289462 
2523.000000	2.290272 
2522.000000	2.290940 
2521.000000	2.291440 
2520.000000	2.291846 
2519.000000	2.292108 
2518.000000	2.292370 
2517.000000	2.292609 
2516.000000	2.292895 
2515.000000	2.293276 
2514.000000	2.293753 
2513.000000	2.294278 
2512.000000	2.294826 
2511.000000	2.295374 
2510.000000	2.295899 
2509.000000	2.296328 
2508.000000	2.296733 
2507.000000	2.297115 
2506.000000	2.297520 
2505.000000	2.297925 
2504.000000	2.298378 
2503.000000	2.298903 
2502.000000	2.299475 
2501.000000	2.300071 
2500.000000	2.300715 
2499.000000	2.301335 
2498.000000	2.301883 
2497.000000	2.302336 
2496.000000	2.302598 
2495.000000	2.302694 
2494.000000	2.302622 
2493.000000	2.302360 
2492.000000	2.301979 
2491.000000	2.301573 
2490.000000	2.301144 
2489.000000	2.300810 
2488.000000	2.300596 
2487.000000	2.300500 
2486.000000	2.300596 
2485.000000	2.300763 
2484.000000	2.300906 
2483.000000	2.301073 
2482.000000	2.301120 
2481.000000	2.301025 
2480.000000	2.300715 
2479.000000	2.300262 
2478.000000	2.299642 
2477.000000	2.298903 
2476.000000	2.298045 
2475.000000	2.297163 
2474.000000	2.296280 
2473.000000	2.295351 
2472.000000	2.294445 
2471.000000	2.293539 
2470.000000	2.292656 
2469.000000	2.291822 
2468.000000	2.291011 
2467.000000	2.290225 
2466.000000	2.289509 
2465.000000	2.288818 
2464.000000	2.288150 
2463.000000	2.287483 
2462.000000	2.286767 
2461.000000	2.286028 
2460.000000	2.285218 
2459.000000	2.284383 
2458.000000	2.283477 
2457.000000	2.282524 
2456.000000	2.281570 
2455.000000	2.280592 
2454.000000	2.279639 
2453.000000	2.278661 
2452.000000	2.277684 
2451.000000	2.276706 
2450.000000	2.275681 
2449.000000	2.274632 
2448.000000	2.273559 
2447.000000	2.272486 
2446.000000	2.271461 
2445.000000	2.270507 
2444.000000	2.269625 
2443.000000	2.268838 
2442.000000	2.268052 
2441.000000	2.267313 
2440.000000	2.266550 
2439.000000	2.265691 
2438.000000	2.264690 
2437.000000	2.263593 
2436.000000	2.262306 
2435.000000	2.260899 
2434.000000	2.259469 
2433.000000	2.258014 
2432.000000	2.256655 
2431.000000	2.255415 
2430.000000	2.254343 
2429.000000	2.253532 
2428.000000	2.252864 
2427.000000	2.252435 
2426.000000	2.252125 
2425.000000	2.251911 
2424.000000	2.251625 
2423.000000	2.251267 
2422.000000	2.250671 
2421.000000	2.249860 
2420.000000	2.248787 
2419.000000	2.247476 
2418.000000	2.245974 
2417.000000	2.244377 
2416.000000	2.242732 
2415.000000	2.241182 
2414.000000	2.239775 
2413.000000	2.238559 
2412.000000	2.237558 
2411.000000	2.236795 
2410.000000	2.236199 
2409.000000	2.235770 
2408.000000	2.235436 
2407.000000	2.235174 
2406.000000	2.234864 
2405.000000	2.234506 
2404.000000	2.234053 
2403.000000	2.233457 
2402.000000	2.232718 
2401.000000	2.231860 
2400.000000	2.230930 
2399.000000	2.229976 
2398.000000	2.229046 
2397.000000	2.228260 
2396.000000	2.227616 
2395.000000	2.227139 
2394.000000	2.226805 
2393.000000	2.226638 
2392.000000	2.226519 
2391.000000	2.226448 
2390.000000	2.226352 
2389.000000	2.226233 
2388.000000	2.226042 
2387.000000	2.225756 
2386.000000	2.225446 
2385.000000	2.225065 
2384.000000	2.224612 
2383.000000	2.224087 
2382.000000	2.223467 
2381.000000	2.222776 
2380.000000	2.222037 
2379.000000	2.221202 
2378.000000	2.220344 
2377.000000	2.219438 
2376.000000	2.218508 
2375.000000	2.217555 
2374.000000	2.216601 
2373.000000	2.215623 
2372.000000	2.214646 
2371.000000	2.213692 
2370.000000	2.212786 
2369.000000	2.211976 
2368.000000	2.211260 
2367.000000	2.210760 
2366.000000	2.210402 
2365.000000	2.210330 
2364.000000	2.210497 
2363.000000	2.210927 
2362.000000	2.211642 
2361.000000	2.212595 
2360.000000	2.213811 
2359.000000	2.215313 
2358.000000	2.217125 
2357.000000	2.219128 
2356.000000	2.221345 
2355.000000	2.223730 
2354.000000	2.226138 
2353.000000	2.228569 
2352.000000	2.230882 
2351.000000	2.233052 
2350.000000	2.234911 
2349.000000	2.236437 
2348.000000	2.237629 
2347.000000	2.238488 
2346.000000	2.239108 
2345.000000	2.239513 
2344.000000	2.239775 
2343.000000	2.240061 
2342.000000	2.240419 
2341.000000	2.240896 
2340.000000	2.241587 
2339.000000	2.242469 
2338.000000	2.243566 
2337.000000	2.244853 
2336.000000	2.246284 
2335.000000	2.247858 
2334.000000	2.249526 
2333.000000	2.251195 
2332.000000	2.252840 
2331.000000	2.254486 
2330.000000	2.256083 
2329.000000	2.257633 
2328.000000	2.259182 
2327.000000	2.260732 
2326.000000	2.262282 
2325.000000	2.263879 
2324.000000	2.265572 
2323.000000	2.267289 
2322.000000	2.269124 
2321.000000	2.271032 
2320.000000	2.273035 
2319.000000	2.275133 
2318.000000	2.277255 
2317.000000	2.279448 
2316.000000	2.281689 
2315.000000	2.283954 
2314.000000	2.286267 
2313.000000	2.288556 
2312.000000	2.290797 
2311.000000	2.292966 
2310.000000	2.295041 
2309.000000	2.296948 
2308.000000	2.298736 
2307.000000	2.300357 
2306.000000	2.301836 
2305.000000	2.303218 
2304.000000	2.304553 
2303.000000	2.305841 
2302.000000	2.307128 
2301.000000	2.308416 
2300.000000	2.309751 
2299.000000	2.311134 
2298.000000	2.312541 
2297.000000	2.313971 
2296.000000	2.315402 
2295.000000	2.316808 
2294.000000	2.318167 
2293.000000	2.319455 
2292.000000	2.320671 
2291.000000	2.321839 
2290.000000	2.322936 
2289.000000	2.324008 
2288.000000	2.325105 
2287.000000	2.326202 
2286.000000	2.327346 
2285.000000	2.328515 
2284.000000	2.329683 
2283.000000	2.330827 
2282.000000	2.331900 
2281.000000	2.332878 
2280.000000	2.333807 
2279.000000	2.334666 
2278.000000	2.335453 
2277.000000	2.336239 
2276.000000	2.336978 
2275.000000	2.337718 
2274.000000	2.338504 
2273.000000	2.339315 
2272.000000	2.340149 
2271.000000	2.341008 
2270.000000	2.341938 
2269.000000	2.342867 
2268.000000	2.343773 
2267.000000	2.344727 
2266.000000	2.345609 
2265.000000	2.346444 
2264.000000	2.347183 
2263.000000	2.347803 
2262.000000	2.348256 
2261.000000	2.348589 
2260.000000	2.348804 
2259.000000	2.348947 
2258.000000	2.349066 
2257.000000	2.349185 
2256.000000	2.349328 
2255.000000	2.349567 
2254.000000	2.349853 
2253.000000	2.350187 
2252.000000	2.350544 
2251.000000	2.350854 
2250.000000	2.351093 
2249.000000	2.351236 
2248.000000	2.351331 
2247.000000	2.351355 
2246.000000	2.351331 
2245.000000	2.351284 
2244.000000	2.351260 
2243.000000	2.351236 
2242.000000	2.351236 
2241.000000	2.351212 
2240.000000	2.351164 
2239.000000	2.351021 
2238.000000	2.350854 
2237.000000	2.350592 
2236.000000	2.350282 
2235.000000	2.349996 
2234.000000	2.349710 
2233.000000	2.349472 
2232.000000	2.349281 
2231.000000	2.349090 
2230.000000	2.348899 
2229.000000	2.348685 
2228.000000	2.348375 
2227.000000	2.347993 
2226.000000	2.347517 
2225.000000	2.346968 
2224.000000	2.346396 
2223.000000	2.345776 
2222.000000	2.345132 
2221.000000	2.344441 
2220.000000	2.343726 
2219.000000	2.342963 
2218.000000	2.342128 
2217.000000	2.341270 
2216.000000	2.340364 
2215.000000	2.339506 
2214.000000	2.338695 
2213.000000	2.337956 
2212.000000	2.337265 
2211.000000	2.336621 
2210.000000	2.336001 
2209.000000	2.335405 
2208.000000	2.334785 
2207.000000	2.334070 
2206.000000	2.333331 
2205.000000	2.332520 
2204.000000	2.331686 
2203.000000	2.330827 
2202.000000	2.329993 
2201.000000	2.329182 
2200.000000	2.328372 
2199.000000	2.327656 
2198.000000	2.326989 
2197.000000	2.326345 
2196.000000	2.325701 
2195.000000	2.325201 
2194.000000	2.324700 
2193.000000	2.324247 
2192.000000	2.323722 
2191.000000	2.323150 
2190.000000	2.322459 
2189.000000	2.321624 
2188.000000	2.320671 
2187.000000	2.319574 
2186.000000	2.318406 
2185.000000	2.317237 
2184.000000	2.316045 
2183.000000	2.314949 
2182.000000	2.313899 
2181.000000	2.312994 
2180.000000	2.312159 
2179.000000	2.311372 
2178.000000	2.310657 
2177.000000	2.310013 
2176.000000	2.309417 
2175.000000	2.308845 
2174.000000	2.308344 
2173.000000	2.307915 
2172.000000	2.307558 
2171.000000	2.307271 
2170.000000	2.307081 
2169.000000	2.306938 
2168.000000	2.306818 
2167.000000	2.306699 
2166.000000	2.306604 
2165.000000	2.306485 
2164.000000	2.306294 
2163.000000	2.306056 
2162.000000	2.305722 
2161.000000	2.305340 
2160.000000	2.304911 
2159.000000	2.304482 
2158.000000	2.304053 
2157.000000	2.303671 
2156.000000	2.303385 
2155.000000	2.303218 
2154.000000	2.303123 
2153.000000	2.303099 
2152.000000	2.303123 
2151.000000	2.303171 
2150.000000	2.303242 
2149.000000	2.303290 
2148.000000	2.303361 
2147.000000	2.303457 
2146.000000	2.303504 
2145.000000	2.303552 
2144.000000	2.303528 
2143.000000	2.303409 
2142.000000	2.303171 
2141.000000	2.302837 
2140.000000	2.302360 
2139.000000	2.301836 
2138.000000	2.301263 
2137.000000	2.300763 
2136.000000	2.300310 
2135.000000	2.299976 
2134.000000	2.299737 
2133.000000	2.299642 
2132.000000	2.299642 
2131.000000	2.299785 
2130.000000	2.299952 
2129.000000	2.300190 
2128.000000	2.300429 
2127.000000	2.300667 
2126.000000	2.300882 
2125.000000	2.301096 
2124.000000	2.301383 
2123.000000	2.301645 
2122.000000	2.301955 
2121.000000	2.302336 
2120.000000	2.302765 
2119.000000	2.303290 
2118.000000	2.303838 
2117.000000	2.304410 
2116.000000	2.304983 
2115.000000	2.305555 
2114.000000	2.306103 
2113.000000	2.306580 
2112.000000	2.306938 
2111.000000	2.307176 
2110.000000	2.307295 
2109.000000	2.307271 
2108.000000	2.307176 
2107.000000	2.307057 
2106.000000	2.306890 
2105.000000	2.306723 
2104.000000	2.306604 
2103.000000	2.306532 
2102.000000	2.306437 
2101.000000	2.306413 
2100.000000	2.306389 
2099.000000	2.306342 
2098.000000	2.306294 
2097.000000	2.306222 
2096.000000	2.306127 
2095.000000	2.306032 
2094.000000	2.305912 
2093.000000	2.305841 
2092.000000	2.305793 
2091.000000	2.305817 
2090.000000	2.305936 
2089.000000	2.306103 
2088.000000	2.306294 
2087.000000	2.306532 
2086.000000	2.306795 
2085.000000	2.307081 
2084.000000	2.307367 
2083.000000	2.307701 
2082.000000	2.308106 
2081.000000	2.308678 
2080.000000	2.309417 
2079.000000	2.310419 
2078.000000	2.311587 
2077.000000	2.313041 
2076.000000	2.314686 
2075.000000	2.316427 
2074.000000	2.318310 
2073.000000	2.320241 
2072.000000	2.322196 
2071.000000	2.324104 
2070.000000	2.326035 
2069.000000	2.327966 
2068.000000	2.329921 
2067.000000	2.331876 
2066.000000	2.333903 
2065.000000	2.335977 
2064.000000	2.338075 
2063.000000	2.340197 
2062.000000	2.342271 
2061.000000	2.344322 
2060.000000	2.346324 
2059.000000	2.348279 
2058.000000	2.350258 
2057.000000	2.352261 
2056.000000	2.354311 
2055.000000	2.356433 
2054.000000	2.358675 
2053.000000	2.361035 
2052.000000	2.363443 
2051.000000	2.365922 
2050.000000	2.368426 
2049.000000	2.370858 
2048.000000	2.373218 
2047.000000	2.375483 
2046.000000	2.377605 
2045.000000	2.379631 
2044.000000	2.381515 
2043.000000	2.383303 
2042.000000	2.385020 
2041.000000	2.386641 
2040.000000	2.388167 
2039.000000	2.389597 
2038.000000	2.390980 
2037.000000	2.392292 
2036.000000	2.393531 
2035.000000	2.394747 
2034.000000	2.395915 
2033.000000	2.397084 
2032.000000	2.398228 
2031.000000	2.399396 
2030.000000	2.400565 
2029.000000	2.401709 
2028.000000	2.402830 
2027.000000	2.403903 
2026.000000	2.404952 
2025.000000	2.405905 
2024.000000	2.406787 
2023.000000	2.407598 
2022.000000	2.408361 
2021.000000	2.409076 
2020.000000	2.409768 
2019.000000	2.410459 
2018.000000	2.411198 
2017.000000	2.411961 
2016.000000	2.412772 
2015.000000	2.413606 
2014.000000	2.414488 
2013.000000	2.415370 
2012.000000	2.416181 
2011.000000	2.416872 
2010.000000	2.417469 
2009.000000	2.417898 
2008.000000	2.418184 
2007.000000	2.418327 
2006.000000	2.418303 
2005.000000	2.418255 
2004.000000	2.418208 
2003.000000	2.418208 
2002.000000	2.418231 
2001.000000	2.418351 
2000.000000	2.418565 
1999.000000	2.418780 
1998.000000	2.418994 
1997.000000	2.419185 
1996.000000	2.419328 
1995.000000	2.419400 
1994.000000	2.419376 
1993.000000	2.419281 
1992.000000	2.419185 
1991.000000	2.419042 
1990.000000	2.418851 
1989.000000	2.418661 
1988.000000	2.418470 
1987.000000	2.418208 
1986.000000	2.417898 
1985.000000	2.417516 
1984.000000	2.417087 
1983.000000	2.416586 
1982.000000	2.416038 
1981.000000	2.415394 
1980.000000	2.414703 
1979.000000	2.413940 
1978.000000	2.413105 
1977.000000	2.412176 
1976.000000	2.411174 
1975.000000	2.410101 
1974.000000	2.408981 
1973.000000	2.407860 
1972.000000	2.406740 
1971.000000	2.405691 
1970.000000	2.404689 
1969.000000	2.403807 
1968.000000	2.402997 
1967.000000	2.402186 
1966.000000	2.401423 
1965.000000	2.400612 
1964.000000	2.399778 
1963.000000	2.398896 
1962.000000	2.398037 
1961.000000	2.397155 
1960.000000	2.396345 
1959.000000	2.395606 
1958.000000	2.394962 
1957.000000	2.394390 
1956.000000	2.393913 
1955.000000	2.393484 
1954.000000	2.393031 
1953.000000	2.392530 
1952.000000	2.391982 
1951.000000	2.391290 
1950.000000	2.390432 
1949.000000	2.389383 
1948.000000	2.388238 
1947.000000	2.386951 
1946.000000	2.385616 
1945.000000	2.384257 
1944.000000	2.382946 
1943.000000	2.381706 
1942.000000	2.380561 
1941.000000	2.379536 
1940.000000	2.378582 
1939.000000	2.377772 
1938.000000	2.377009 
1937.000000	2.376294 
1936.000000	2.375602 
1935.000000	2.374935 
1934.000000	2.374243 
1933.000000	2.373480 
1932.000000	2.372670 
1931.000000	2.371740 
1930.000000	2.370667 
1929.000000	2.369451 
1928.000000	2.368068 
1927.000000	2.366566 
1926.000000	2.364993 
1925.000000	2.363371 
1924.000000	2.361774 
1923.000000	2.360272 
1922.000000	2.358913 
1921.000000	2.357769 
1920.000000	2.356791 
1919.000000	2.355957 
1918.000000	2.355289 
1917.000000	2.354669 
1916.000000	2.354073 
1915.000000	2.353477 
1914.000000	2.352786 
1913.000000	2.352023 
1912.000000	2.351117 
1911.000000	2.350068 
1910.000000	2.348971 
1909.000000	2.347779 
1908.000000	2.346587 
1907.000000	2.345442 
1906.000000	2.344322 
1905.000000	2.343297 
1904.000000	2.342343 
1903.000000	2.341461 
1902.000000	2.340650 
1901.000000	2.339887 
1900.000000	2.339148 
1899.000000	2.338385 
1898.000000	2.337622 
1897.000000	2.336812 
1896.000000	2.335953 
1895.000000	2.335095 
1894.000000	2.334284 
1893.000000	2.333521 
1892.000000	2.332949 
1891.000000	2.332568 
1890.000000	2.332448 
1889.000000	2.332615 
1888.000000	2.332997 
1887.000000	2.333617 
1886.000000	2.334380 
1885.000000	2.335166 
1884.000000	2.335882 
1883.000000	2.336525 
1882.000000	2.337050 
1881.000000	2.337455 
1880.000000	2.337718 
1879.000000	2.337932 
1878.000000	2.338075 
1877.000000	2.338194 
1876.000000	2.338290 
1875.000000	2.338385 
1874.000000	2.338457 
1873.000000	2.338528 
1872.000000	2.338576 
1871.000000	2.338719 
1870.000000	2.338957 
1869.000000	2.339339 
1868.000000	2.339887 
1867.000000	2.340626 
1866.000000	2.341556 
1865.000000	2.342605 
1864.000000	2.343821 
1863.000000	2.345108 
1862.000000	2.346396 
1861.000000	2.347683 
1860.000000	2.348923 
1859.000000	2.350068 
1858.000000	2.351069 
1857.000000	2.351975 
1856.000000	2.352738 
1855.000000	2.353334 
1854.000000	2.353787 
1853.000000	2.354097 
1852.000000	2.354311 
1851.000000	2.354431 
1850.000000	2.354502 
1849.000000	2.354598 
1848.000000	2.354788 
1847.000000	2.355194 
1846.000000	2.355837 
1845.000000	2.356743 
1844.000000	2.357935 
1843.000000	2.359390 
1842.000000	2.361011 
1841.000000	2.362704 
1840.000000	2.364325 
1839.000000	2.365779 
1838.000000	2.367019 
1837.000000	2.367949 
1836.000000	2.368569 
1835.000000	2.368903 
1834.000000	2.368998 
1833.000000	2.368974 
1832.000000	2.368950 
1831.000000	2.368998 
1830.000000	2.369189 
1829.000000	2.369594 
1828.000000	2.370262 
1827.000000	2.371215 
1826.000000	2.372384 
1825.000000	2.373719 
1824.000000	2.375197 
1823.000000	2.376723 
1822.000000	2.378177 
1821.000000	2.379536 
1820.000000	2.380728 
1819.000000	2.381730 
1818.000000	2.382540 
1817.000000	2.383208 
1816.000000	2.383756 
1815.000000	2.384257 
1814.000000	2.384805 
1813.000000	2.385425 
1812.000000	2.386164 
1811.000000	2.386999 
1810.000000	2.387928 
1809.000000	2.388882 
1808.000000	2.389788 
1807.000000	2.390599 
1806.000000	2.391219 
1805.000000	2.391624 
1804.000000	2.391839 
1803.000000	2.391839 
1802.000000	2.391743 
1801.000000	2.391481 
1800.000000	2.391099 
1799.000000	2.390623 
1798.000000	2.390050 
1797.000000	2.389478 
1796.000000	2.388906 
1795.000000	2.388429 
1794.000000	2.388072 
1793.000000	2.387952 
1792.000000	2.388048 
1791.000000	2.388358 
1790.000000	2.388787 
1789.000000	2.389311 
1788.000000	2.389836 
1787.000000	2.390265 
1786.000000	2.390599 
1785.000000	2.390766 
1784.000000	2.390861 
1783.000000	2.390789 
1782.000000	2.390575 
1781.000000	2.390122 
1780.000000	2.389359 
1779.000000	2.388262 
1778.000000	2.386713 
1777.000000	2.384781 
1776.000000	2.382612 
1775.000000	2.380323 
1774.000000	2.378177 
1773.000000	2.376317 
1772.000000	2.374935 
1771.000000	2.374124 
1770.000000	2.373838 
1769.000000	2.374005 
1768.000000	2.374434 
1767.000000	2.374911 
1766.000000	2.375340 
1765.000000	2.375507 
1764.000000	2.375388 
1763.000000	2.374935 
1762.000000	2.374124 
1761.000000	2.373003 
1760.000000	2.371549 
1759.000000	2.369785 
1758.000000	2.367591 
1757.000000	2.365112 
1756.000000	2.362227 
1755.000000	2.359056 
1754.000000	2.355670 
1753.000000	2.352166 
1752.000000	2.348685 
1751.000000	2.345371 
1750.000000	2.342200 
1749.000000	2.339267 
1748.000000	2.336478 
1747.000000	2.333784 
1746.000000	2.331089 
1745.000000	2.328276 
1744.000000	2.325224 
1743.000000	2.321863 
1742.000000	2.318072 
1741.000000	2.313876 
1740.000000	2.309322 
1739.000000	2.304625 
1738.000000	2.299904 
1737.000000	2.295517 
1736.000000	2.291727 
1735.000000	2.288794 
1734.000000	2.286815 
1733.000000	2.285861 
1732.000000	2.285885 
1731.000000	2.286601 
1730.000000	2.287769 
1729.000000	2.288961 
1728.000000	2.289867 
1727.000000	2.290129 
1726.000000	2.289533 
1725.000000	2.287960 
1724.000000	2.285504 
1723.000000	2.282261 
1722.000000	2.278447 
1721.000000	2.274489 
1720.000000	2.270722 
1719.000000	2.267456 
1718.000000	2.264904 
1717.000000	2.263283 
1716.000000	2.262568 
1715.000000	2.262568 
1714.000000	2.263045 
1713.000000	2.263665 
1712.000000	2.264022 
1711.000000	2.263855 
1710.000000	2.262902 
1709.000000	2.261042 
1708.000000	2.258157 
1707.000000	2.254366 
1706.000000	2.249765 
1705.000000	2.244544 
1704.000000	2.238988 
1703.000000	2.233362 
1702.000000	2.228069 
1701.000000	2.223348 
1700.000000	2.219605 
1699.000000	2.217030 
1698.000000	2.215743 
1697.000000	2.215695 
1696.000000	2.216672 
1695.000000	2.218246 
1694.000000	2.219963 
1693.000000	2.221298 
1692.000000	2.221846 
1691.000000	2.221250 
1690.000000	2.219533 
1689.000000	2.216887 
1688.000000	2.213597 
1687.000000	2.210187 
1686.000000	2.207112 
1685.000000	2.204799 
1684.000000	2.203416 
1683.000000	2.202939 
1682.000000	2.203249 
1681.000000	2.203965 
1680.000000	2.204680 
1679.000000	2.205038 
1678.000000	2.204728 
1677.000000	2.203774 
1676.000000	2.202153 
1675.000000	2.200102 
1674.000000	2.197813 
1673.000000	2.195501 
1672.000000	2.193379 
1671.000000	2.191495 
1670.000000	2.189874 
1669.000000	2.188515 
1668.000000	2.187323 
1667.000000	2.186250 
1666.000000	2.185153 
1665.000000	2.183961 
1664.000000	2.182531 
1663.000000	2.180671 
1662.000000	2.178168 
1661.000000	2.174830 
1660.000000	2.170538 
1659.000000	2.165293 
1658.000000	2.159261 
1657.000000	2.152776 
1656.000000	2.146267 
1655.000000	2.140140 
1654.000000	2.134943 
1653.000000	2.130842 
1652.000000	2.127981 
1651.000000	2.126359 
1650.000000	2.125740 
1649.000000	2.125859 
1648.000000	2.126312 
1647.000000	2.126884 
1646.000000	2.127313 
1645.000000	2.127385 
1644.000000	2.126979 
1643.000000	2.125930 
1642.000000	2.124261 
1641.000000	2.121973 
1640.000000	2.119159 
1639.000000	2.115941 
1638.000000	2.112555 
1637.000000	2.109265 
1636.000000	2.106308 
1635.000000	2.103781 
1634.000000	2.101707 
1633.000000	2.099990 
1632.000000	2.098464 
1631.000000	2.096819 
1630.000000	2.094864 
1629.000000	2.092409 
1628.000000	2.089405 
1627.000000	2.085709 
1626.000000	2.081394 
1625.000000	2.076530 
1624.000000	2.071070 
1623.000000	2.065038 
1622.000000	2.058458 
1621.000000	2.051281 
1620.000000	2.043509 
1619.000000	2.035093 
1618.000000	2.026081 
1617.000000	2.016568 
1616.000000	2.006626 
1615.000000	1.996445 
1614.000000	1.986289 
1613.000000	1.976346 
1612.000000	1.966953 
1611.000000	1.958441 
1610.000000	1.951169 
1609.000000	1.945400 
1608.000000	1.941394 
1607.000000	1.939225 
1606.000000	1.938891 
1605.000000	1.940178 
1604.000000	1.942825 
1603.000000	1.946496 
1602.000000	1.950836 
1601.000000	1.955533 
1600.000000	1.960206 
1599.000000	1.964688 
1598.000000	1.968789 
1597.000000	1.972341 
1596.000000	1.975297 
1595.000000	1.977634 
1594.000000	1.979279 
1593.000000	1.980304 
1592.000000	1.980710 
1591.000000	1.980662 
1590.000000	1.980161 
1589.000000	1.979327 
1588.000000	1.978182 
1587.000000	1.976799 
1586.000000	1.975202 
1585.000000	1.973319 
1584.000000	1.971149 
1583.000000	1.968693 
1582.000000	1.966071 
1581.000000	1.963257 
1580.000000	1.960420 
1579.000000	1.957678 
1578.000000	1.955270 
1577.000000	1.953268 
1576.000000	1.951694 
1575.000000	1.950526 
1574.000000	1.949787 
1573.000000	1.949238 
1572.000000	1.948738 
1571.000000	1.948046 
1570.000000	1.946949 
1569.000000	1.945114 
1568.000000	1.942443 
1567.000000	1.938748 
1566.000000	1.933908 
1565.000000	1.928067 
1564.000000	1.921463 
1563.000000	1.914572 
1562.000000	1.907896 
1561.000000	1.902055 
1560.000000	1.897644 
1559.000000	1.895141 
1558.000000	1.894736 
1557.000000	1.896381 
1556.000000	1.899838 
1555.000000	1.904606 
1554.000000	1.910018 
1553.000000	1.915383 
1552.000000	1.920151 
1551.000000	1.923894 
1550.000000	1.926374 
1549.000000	1.927518 
1548.000000	1.927471 
1547.000000	1.926636 
1546.000000	1.925516 
1545.000000	1.924729 
1544.000000	1.924967 
1543.000000	1.926851 
1542.000000	1.930856 
1541.000000	1.937270 
1540.000000	1.946115 
1539.000000	1.957154 
1538.000000	1.969909 
1537.000000	1.983737 
1536.000000	1.997923 
1535.000000	2.011847 
1534.000000	2.024888 
1533.000000	2.036595 
1532.000000	2.046704 
1531.000000	2.055168 
1530.000000	2.062010 
1529.000000	2.067351 
1528.000000	2.071261 
1527.000000	2.074027 
1526.000000	2.075815 
1525.000000	2.076768 
1524.000000	2.077054 
1523.000000	2.076840 
1522.000000	2.076268 
1521.000000	2.075362 
1520.000000	2.074265 
1519.000000	2.072954 
1518.000000	2.071475 
1517.000000	2.069807 
1516.000000	2.067899 
1515.000000	2.065563 
1514.000000	2.062773 
1513.000000	2.059412 
1512.000000	2.055335 
1511.000000	2.050375 
1510.000000	2.044486 
1509.000000	2.037262 
1508.000000	2.028393 
1507.000000	2.017092 
1506.000000	2.002716 
1505.000000	1.984357 
1504.000000	1.961278 
1503.000000	1.933002 
1502.000000	1.899600 
1501.000000	1.861739 
1500.000000	1.820898 
1499.000000	1.779198 
1498.000000	1.739239 
1497.000000	1.703739 
1496.000000	1.675295 
1495.000000	1.655840 
1494.000000	1.646590 
1493.000000	1.647686 
1492.000000	1.658535 
1491.000000	1.677608 
1490.000000	1.702904 
1489.000000	1.732134 
1488.000000	1.763319 
1487.000000	1.794409 
1486.000000	1.823854 
1485.000000	1.850461 
1484.000000	1.873707 
1483.000000	1.893186 
1482.000000	1.908922 
1481.000000	1.921081 
1480.000000	1.929974 
1479.000000	1.936149 
1478.000000	1.940107 
1477.000000	1.942348 
1476.000000	1.943302 
1475.000000	1.943469 
1474.000000	1.943182 
1473.000000	1.942515 
1472.000000	1.941561 
1471.000000	1.940274 
1470.000000	1.938557 
1469.000000	1.936173 
1468.000000	1.932835 
1467.000000	1.928424 
1466.000000	1.922750 
1465.000000	1.915478 
1464.000000	1.906466 
1463.000000	1.895570 
1462.000000	1.882791 
1461.000000	1.868057 
1460.000000	1.851582 
1459.000000	1.833748 
1458.000000	1.815080 
1457.000000	1.796483 
1456.000000	1.778697 
1455.000000	1.762771 
1454.000000	1.749706 
1453.000000	1.740407 
1452.000000	1.735353 
1451.000000	1.734781 
1450.000000	1.738500 
1449.000000	1.746058 
1448.000000	1.756477 
1447.000000	1.768732 
1446.000000	1.781678 
1445.000000	1.794219 
1444.000000	1.805448 
1443.000000	1.814842 
1442.000000	1.822209 
1441.000000	1.827573 
1440.000000	1.831221 
1439.000000	1.833629 
1438.000000	1.835203 
1437.000000	1.836395 
1436.000000	1.837372 
1435.000000	1.838350 
1434.000000	1.839327 
1433.000000	1.840209 
1432.000000	1.840996 
1431.000000	1.841545 
1430.000000	1.841807 
1429.000000	1.841735 
1428.000000	1.841330 
1427.000000	1.840543 
1426.000000	1.839327 
1425.000000	1.837754 
1424.000000	1.835870 
1423.000000	1.833701 
1422.000000	1.831269 
1421.000000	1.828718 
1420.000000	1.826095 
1419.000000	1.823425 
1418.000000	1.820635 
1417.000000	1.817560 
1416.000000	1.813936 
1415.000000	1.809453 
1414.000000	1.803803 
1413.000000	1.796650 
1412.000000	1.787877 
1411.000000	1.777553 
1410.000000	1.765894 
1409.000000	1.753354 
1408.000000	1.740598 
1407.000000	1.728391 
1406.000000	1.717495 
1405.000000	1.708650 
1404.000000	1.702380 
1403.000000	1.698994 
1402.000000	1.698541 
1401.000000	1.700830 
1400.000000	1.705479 
1399.000000	1.711940 
1398.000000	1.719594 
1397.000000	1.727819 
1396.000000	1.736068 
1395.000000	1.743769 
1394.000000	1.750493 
1393.000000	1.755905 
1392.000000	1.759791 
1391.000000	1.762056 
1390.000000	1.762866 
1389.000000	1.762437 
1388.000000	1.761245 
1387.000000	1.759719 
1386.000000	1.758360 
1385.000000	1.757669 
1384.000000	1.757907 
1383.000000	1.759171 
1382.000000	1.761388 
1381.000000	1.764321 
1380.000000	1.767635 
1379.000000	1.770997 
1378.000000	1.774168 
1377.000000	1.776957 
1376.000000	1.779270 
1375.000000	1.781129 
1374.000000	1.782584 
1373.000000	1.783752 
1372.000000	1.784658 
1371.000000	1.785397 
1370.000000	1.785922 
1369.000000	1.786303 
1368.000000	1.786518 
1367.000000	1.786565 
1366.000000	1.786541 
1365.000000	1.786470 
1364.000000	1.786422 
1363.000000	1.786470 
1362.000000	1.786589 
1361.000000	1.786756 
1360.000000	1.786947 
1359.000000	1.787114 
1358.000000	1.787233 
1357.000000	1.787185 
1356.000000	1.787042 
1355.000000	1.786804 
1354.000000	1.786470 
1353.000000	1.786065 
1352.000000	1.785612 
1351.000000	1.785206 
1350.000000	1.784825 
1349.000000	1.784515 
1348.000000	1.784300 
1347.000000	1.784229 
1346.000000	1.784253 
1345.000000	1.784420 
1344.000000	1.784729 
1343.000000	1.785254 
1342.000000	1.785993 
1341.000000	1.786971 
1340.000000	1.788258 
1339.000000	1.789879 
1338.000000	1.791787 
1337.000000	1.794004 
1336.000000	1.796483 
1335.000000	1.799178 
1334.000000	1.801967 
1333.000000	1.804780 
1332.000000	1.807475 
1331.000000	1.810002 
1330.000000	1.812219 
1329.000000	1.814126 
1328.000000	1.815700 
1327.000000	1.816987 
1326.000000	1.817989 
1325.000000	1.818847 
1324.000000	1.819634 
1323.000000	1.820325 
1322.000000	1.821017 
1321.000000	1.821708 
1320.000000	1.822400 
1319.000000	1.823067 
1318.000000	1.823687 
1317.000000	1.824283 
1316.000000	1.824760 
1315.000000	1.825141 
1314.000000	1.825380 
1313.000000	1.825499 
1312.000000	1.825523 
1311.000000	1.825428 
1310.000000	1.825261 
1309.000000	1.825094 
1308.000000	1.824951 
1307.000000	1.824831 
1306.000000	1.824784 
1305.000000	1.824855 
1304.000000	1.824927 
1303.000000	1.825022 
1302.000000	1.825165 
1301.000000	1.825261 
1300.000000	1.825332 
1299.000000	1.825404 
1298.000000	1.825428 
1297.000000	1.825428 
1296.000000	1.825404 
1295.000000	1.825428 
1294.000000	1.825428 
1293.000000	1.825451 
1292.000000	1.825404 
1291.000000	1.825380 
1290.000000	1.825284 
1289.000000	1.825189 
1288.000000	1.825022 
1287.000000	1.824808 
1286.000000	1.824522 
1285.000000	1.824092 
1284.000000	1.823496 
1283.000000	1.822662 
1282.000000	1.821541 
1281.000000	1.819992 
1280.000000	1.817965 
1279.000000	1.815390 
1278.000000	1.812195 
1277.000000	1.808333 
1276.000000	1.803660 
1275.000000	1.798105 
1274.000000	1.791596 
1273.000000	1.784110 
1272.000000	1.775503 
1271.000000	1.765918 
1270.000000	1.755475 
1269.000000	1.744318 
1268.000000	1.732921 
1267.000000	1.721692 
1266.000000	1.711225 
1265.000000	1.702094 
1264.000000	1.694941 
1263.000000	1.690268 
1262.000000	1.688408 
1261.000000	1.689457 
1260.000000	1.693463 
1259.000000	1.699948 
1258.000000	1.708555 
1257.000000	1.718640 
1256.000000	1.729536 
1255.000000	1.740598 
1254.000000	1.751303 
1253.000000	1.761245 
1252.000000	1.770210 
1251.000000	1.777982 
1250.000000	1.784610 
1249.000000	1.790094 
1248.000000	1.794552 
1247.000000	1.798057 
1246.000000	1.800847 
1245.000000	1.802945 
1244.000000	1.804494 
1243.000000	1.805615 
1242.000000	1.806402 
1241.000000	1.806879 
1240.000000	1.807141 
1239.000000	1.807188 
1238.000000	1.807022 
1237.000000	1.806664 
1236.000000	1.806044 
1235.000000	1.805257 
1234.000000	1.804256 
1233.000000	1.803064 
1232.000000	1.801729 
1231.000000	1.800274 
1230.000000	1.798725 
1229.000000	1.797056 
1228.000000	1.795244 
1227.000000	1.793193 
1226.000000	1.790904 
1225.000000	1.788330 
1224.000000	1.785445 
1223.000000	1.782226 
1222.000000	1.778721 
1221.000000	1.774930 
1220.000000	1.770853 
1219.000000	1.766514 
1218.000000	1.761937 
1217.000000	1.757216 
1216.000000	1.752400 
1215.000000	1.747560 
1214.000000	1.742815 
1213.000000	1.738333 
1212.000000	1.734209 
1211.000000	1.730489 
1210.000000	1.727342 
1209.000000	1.724767 
1208.000000	1.722788 
1207.000000	1.721358 
1206.000000	1.720452 
1205.000000	1.719975 
1204.000000	1.719808 
1203.000000	1.719880 
1202.000000	1.720118 
1201.000000	1.720380 
1200.000000	1.720643 
1199.000000	1.720786 
1198.000000	1.720786 
1197.000000	1.720547 
1196.000000	1.719975 
1195.000000	1.719093 
1194.000000	1.717925 
1193.000000	1.716470 
1192.000000	1.714801 
1191.000000	1.712894 
1190.000000	1.710844 
1189.000000	1.708674 
1188.000000	1.706409 
1187.000000	1.704025 
1186.000000	1.701569 
1185.000000	1.699042 
1184.000000	1.696515 
1183.000000	1.693892 
1182.000000	1.691317 
1181.000000	1.688694 
1180.000000	1.686072 
1179.000000	1.683425 
1178.000000	1.680707 
1177.000000	1.677942 
1176.000000	1.675081 
1175.000000	1.672077 
1174.000000	1.668858 
1173.000000	1.665425 
1172.000000	1.661729 
1171.000000	1.657772 
1170.000000	1.653552 
1169.000000	1.649045 
1168.000000	1.644349 
1167.000000	1.639509 
1166.000000	1.634550 
1165.000000	1.629638 
1164.000000	1.624798 
1163.000000	1.620078 
1162.000000	1.615571 
1161.000000	1.611304 
1160.000000	1.607346 
1159.000000	1.603722 
1158.000000	1.600432 
1157.000000	1.597499 
1156.000000	1.594924 
1155.000000	1.592683 
1154.000000	1.590752 
1153.000000	1.589083 
1152.000000	1.587629 
1151.000000	1.586270 
1150.000000	1.584959 
1149.000000	1.583576 
1148.000000	1.582098 
1147.000000	1.580524 
1146.000000	1.578736 
1145.000000	1.576733 
1144.000000	1.574492 
1143.000000	1.571989 
1142.000000	1.569294 
1141.000000	1.566362 
1140.000000	1.563239 
1139.000000	1.559901 
1138.000000	1.556491 
1137.000000	1.552987 
1136.000000	1.549458 
1135.000000	1.545882 
1134.000000	1.542234 
1133.000000	1.538515 
1132.000000	1.534628 
1131.000000	1.530599 
1130.000000	1.526379 
1129.000000	1.521873 
1128.000000	1.517128 
1127.000000	1.512169 
1126.000000	1.507019 
1125.000000	1.501750 
1124.000000	1.496386 
1123.000000	1.491045 
1122.000000	1.485776 
1121.000000	1.480579 
1120.000000	1.475501 
1119.000000	1.470518 
1118.000000	1.465654 
1117.000000	1.460862 
1116.000000	1.456093 
1115.000000	1.451396 
1114.000000	1.446700 
1113.000000	1.442050 
1112.000000	1.437497 
1111.000000	1.433038 
1110.000000	1.428842 
1109.000000	1.424980 
1108.000000	1.421451 
1107.000000	1.418375 
1106.000000	1.415729 
1105.000000	1.413512 
1104.000000	1.411700 
1103.000000	1.410198 
1102.000000	1.408934 
1101.000000	1.407837 
1100.000000	1.406931 
1099.000000	1.406073 
1098.000000	1.405334 
1097.000000	1.404666 
1096.000000	1.404142 
1095.000000	1.403760 
1094.000000	1.403474 
1093.000000	1.403427 
1092.000000	1.403498 
1091.000000	1.403737 
1090.000000	1.404118 
1089.000000	1.404643 
1088.000000	1.405286 
1087.000000	1.405930 
1086.000000	1.406550 
1085.000000	1.407074 
1084.000000	1.407432 
1083.000000	1.407647 
1082.000000	1.407766 
1081.000000	1.407790 
1080.000000	1.407814 
1079.000000	1.407909 
1078.000000	1.408219 
1077.000000	1.408743 
1076.000000	1.409506 
1075.000000	1.410436 
1074.000000	1.411509 
1073.000000	1.412606 
1072.000000	1.413726 
1071.000000	1.414728 
1070.000000	1.415610 
1069.000000	1.416349 
1068.000000	1.416897 
1067.000000	1.417231 
1066.000000	1.417374 
1065.000000	1.417112 
1064.000000	1.416230 
1063.000000	1.414465 
1062.000000	1.411437 
1061.000000	1.406717 
1060.000000	1.399898 
1059.000000	1.390695 
1058.000000	1.379013 
1057.000000	1.365065 
1056.000000	1.349449 
1055.000000	1.333093 
1054.000000	1.317095 
1053.000000	1.302838 
1052.000000	1.291489 
1051.000000	1.284003 
1050.000000	1.280951 
1049.000000	1.282405 
1048.000000	1.287961 
1047.000000	1.296687 
1046.000000	1.307511 
1045.000000	1.319217 
1044.000000	1.330685 
1043.000000	1.340985 
1042.000000	1.349568 
1041.000000	1.356148 
1040.000000	1.360750 
1039.000000	1.363563 
1038.000000	1.364898 
1037.000000	1.365017 
1036.000000	1.364350 
1035.000000	1.363062 
1034.000000	1.361393 
1033.000000	1.359438 
1032.000000	1.357316 
1031.000000	1.355075 
1030.000000	1.352763 
1029.000000	1.350426 
1028.000000	1.348114 
1027.000000	1.345896 
1026.000000	1.343798 
1025.000000	1.341891 
1024.000000	1.340317 
1023.000000	1.339149 
1022.000000	1.338458 
1021.000000	1.338267 
1020.000000	1.338601 
1019.000000	1.339483 
1018.000000	1.340818 
1017.000000	1.342606 
1016.000000	1.344752 
1015.000000	1.347160 
1014.000000	1.349782 
1013.000000	1.352572 
1012.000000	1.355481 
1011.000000	1.358437 
1010.000000	1.361393 
1009.000000	1.364326 
1008.000000	1.367139 
1007.000000	1.369786 
1006.000000	1.372194 
1005.000000	1.374268 
1004.000000	1.376008 
1003.000000	1.377344 
1002.000000	1.378297 
1001.000000	1.378893 
1000.000000	1.379179 
999.000000	 1.379227 
998.000000	 1.379084 
997.000000	 1.378774 
996.000000	 1.378345 
995.000000	 1.377797 
994.000000	 1.377153 
993.000000	 1.376318 
992.000000	 1.375317 
991.000000	 1.374197 
990.000000	 1.372861 
989.000000	 1.371335 
988.000000	 1.369619 
987.000000	 1.367831 
986.000000	 1.365947 
985.000000	 1.363968 
984.000000	 1.361966 
983.000000	 1.359939 
982.000000	 1.357889 
981.000000	 1.355838 
980.000000	 1.353764 
979.000000	 1.351690 
978.000000	 1.349568 
977.000000	 1.347398 
976.000000	 1.345205 
975.000000	 1.342916 
974.000000	 1.340556 
973.000000	 1.338005 
972.000000	 1.335310 
971.000000	 1.332449 
970.000000	 1.329421 
969.000000	 1.326203 
968.000000	 1.322841 
967.000000	 1.319432 
966.000000	 1.315927 
965.000000	 1.312422 
964.000000	 1.308941 
963.000000	 1.305460 
962.000000	 1.302027 
961.000000	 1.298642 
960.000000	 1.295256 
959.000000	 1.291918 
958.000000	 1.288604 
957.000000	 1.285314 
956.000000	 1.282048 
955.000000	 1.278758 
954.000000	 1.275467 
953.000000	 1.272225 
952.000000	 1.269006 
951.000000	 1.265859 
950.000000	 1.262784 
949.000000	 1.259875 
948.000000	 1.257181 
947.000000	 1.254701 
946.000000	 1.252365 
945.000000	 1.250219 
944.000000	 1.248192 
943.000000	 1.246261 
942.000000	 1.244354 
941.000000	 1.242375 
940.000000	 1.240301 
939.000000	 1.238155 
938.000000	 1.235914 
937.000000	 1.233649 
936.000000	 1.231336 
935.000000	 1.229047 
934.000000	 1.226806 
933.000000	 1.224637 
932.000000	 1.222562 
931.000000	 1.220583 
930.000000	 1.218652 
929.000000	 1.216745 
928.000000	 1.214838 
927.000000	 1.212882 
926.000000	 1.210880 
925.000000	 1.208806 
924.000000	 1.206612 
923.000000	 1.204371 
922.000000	 1.201963 
921.000000	 1.199460 
920.000000	 1.196789 
919.000000	 1.193928 
918.000000	 1.190900 
917.000000	 1.187634 
916.000000	 1.184129 
915.000000	 1.180458 
914.000000	 1.176595 
913.000000	 1.172685 
912.000000	 1.168775 
911.000000	 1.164913 
910.000000	 1.161193 
909.000000	 1.157712 
908.000000	 1.154446 
907.000000	 1.151490 
906.000000	 1.148867 
905.000000	 1.146531 
904.000000	 1.144504 
903.000000	 1.142692 
902.000000	 1.141119 
901.000000	 1.139664 
900.000000	 1.138377 
899.000000	 1.137089 
898.000000	 1.135754 
897.000000	 1.134371 
896.000000	 1.132869 
895.000000	 1.131105 
894.000000	 1.129007 
893.000000	 1.126480 
892.000000	 1.123452 
891.000000	 1.119780 
890.000000	 1.115345 
889.000000	 1.110053 
888.000000	 1.103901 
887.000000	 1.096844 
886.000000	 1.088905 
885.000000	 1.080250 
884.000000	 1.071023 
883.000000	 1.061534 
882.000000	 1.052021 
881.000000	 1.042866 
880.000000	 1.034402 
879.000000	 1.026988 
878.000000	 1.020884 
877.000000	 1.016426 
876.000000	 1.013708 
875.000000	 1.012849 
874.000000	 1.013851 
873.000000	 1.016569 
872.000000	 1.020765 
871.000000	 1.026105 
870.000000	 1.032304 
869.000000	 1.038908 
868.000000	 1.045584 
867.000000	 1.051998 
866.000000	 1.057863 
865.000000	 1.062989 
864.000000	 1.067352 
863.000000	 1.070904 
862.000000	 1.073646 
861.000000	 1.075649 
860.000000	 1.076960 
859.000000	 1.077771 
858.000000	 1.078104 
857.000000	 1.078033 
856.000000	 1.077604 
855.000000	 1.076865 
854.000000	 1.075863 
853.000000	 1.074671 
852.000000	 1.073312 
851.000000	 1.071763 
850.000000	 1.070117 
849.000000	 1.068401 
848.000000	 1.066637 
847.000000	 1.064729 
846.000000	 1.062750 
845.000000	 1.060581 
844.000000	 1.058149 
843.000000	 1.055407 
842.000000	 1.052165 
841.000000	 1.048302 
840.000000	 1.043605 
839.000000	 1.037812 
838.000000	 1.030755 
837.000000	 1.022124 
836.000000	 1.011633 
835.000000	 0.999188 
834.000000	 0.984644 
833.000000	 0.968074 
832.000000	 0.949811 
831.000000	 0.930333 
830.000000	 0.910401 
829.000000	 0.890970 
828.000000	 0.873017 
827.000000	 0.857615 
826.000000	 0.845646 
825.000000	 0.837779 
824.000000	 0.834369 
823.000000	 0.835371 
822.000000	 0.840353 
821.000000	 0.848650 
820.000000	 0.859284 
819.000000	 0.871205 
818.000000	 0.883460 
817.000000	 0.895166 
816.000000	 0.905656 
815.000000	 0.914573 
814.000000	 0.921654 
813.000000	 0.926923 
812.000000	 0.930571 
811.000000	 0.932836 
810.000000	 0.934028 
809.000000	 0.934386 
808.000000	 0.934219 
807.000000	 0.933718 
806.000000	 0.933003 
805.000000	 0.932264 
804.000000	 0.931668 
803.000000	 0.931215 
802.000000	 0.931000 
801.000000	 0.931048 
800.000000	 0.931477 
799.000000	 0.932240 
798.000000	 0.933337 
797.000000	 0.934696 
796.000000	 0.936388 
795.000000	 0.938320 
794.000000	 0.940418 
793.000000	 0.942707 
792.000000	 0.945115 
791.000000	 0.947594 
790.000000	 0.950121 
789.000000	 0.952625 
788.000000	 0.955033 
787.000000	 0.957226 
786.000000	 0.959277 
785.000000	 0.960969 
784.000000	 0.962328 
783.000000	 0.963354 
782.000000	 0.964021 
781.000000	 0.964426 
780.000000	 0.964546 
779.000000	 0.964498 
778.000000	 0.964307 
777.000000	 0.963950 
776.000000	 0.963521 
775.000000	 0.962996 
774.000000	 0.962376 
773.000000	 0.961637 
772.000000	 0.960779 
771.000000	 0.959873 
770.000000	 0.958895 
769.000000	 0.957894 
768.000000	 0.956916 
767.000000	 0.955986 
766.000000	 0.955128 
765.000000	 0.954365 
764.000000	 0.953698 
763.000000	 0.953078 
762.000000	 0.952434 
761.000000	 0.951743 
760.000000	 0.950932 
759.000000	 0.949978 
758.000000	 0.948905 
757.000000	 0.947666 
756.000000	 0.946354 
755.000000	 0.945019 
754.000000	 0.943684 
753.000000	 0.942397 
752.000000	 0.941133 
751.000000	 0.939917 
750.000000	 0.938725 
749.000000	 0.937533 
748.000000	 0.936245 
747.000000	 0.934863 
746.000000	 0.933313 
745.000000	 0.931620 
744.000000	 0.929737 
743.000000	 0.927686 
742.000000	 0.925493 
741.000000	 0.923132 
740.000000	 0.920677 
739.000000	 0.918173 
738.000000	 0.915646 
737.000000	 0.913119 
736.000000	 0.910615 
735.000000	 0.908088 
734.000000	 0.905561 
733.000000	 0.903034 
732.000000	 0.900435 
731.000000	 0.897789 
730.000000	 0.895047 
729.000000	 0.892186 
728.000000	 0.889253 
727.000000	 0.886297 
726.000000	 0.883316 
725.000000	 0.880384 
724.000000	 0.877499 
723.000000	 0.874662 
722.000000	 0.871849 
721.000000	 0.869059 
720.000000	 0.866270 
719.000000	 0.863432 
718.000000	 0.860595 
717.000000	 0.857734 
716.000000	 0.854921 
715.000000	 0.852155 
714.000000	 0.849413 
713.000000	 0.846695 
712.000000	 0.844025 
711.000000	 0.841355 
710.000000	 0.838565 
709.000000	 0.835657 
708.000000	 0.832581 
707.000000	 0.829362 
706.000000	 0.825905 
705.000000	 0.822305 
704.000000	 0.818514 
703.000000	 0.814533 
702.000000	 0.810384 
701.000000	 0.806021 
700.000000	 0.801372 
699.000000	 0.796413 
698.000000	 0.791025 
697.000000	 0.785160 
696.000000	 0.778770 
695.000000	 0.771856 
694.000000	 0.764560 
693.000000	 0.757002 
692.000000	 0.749421 
691.000000	 0.742197 
690.000000	 0.735640 
689.000000	 0.730037 
688.000000	 0.725650 
687.000000	 0.722551 
686.000000	 0.720763 
685.000000	 0.720095 
684.000000	 0.720310 
683.000000	 0.721144 
682.000000	 0.722193 
681.000000	 0.723218 
680.000000	 0.723934 
679.000000	 0.724267 
678.000000	 0.724148 
677.000000	 0.723528 
676.000000	 0.722432 
675.000000	 0.721001 
674.000000	 0.719261 
673.000000	 0.717306 
672.000000	 0.715160 
671.000000	 0.712895 
670.000000	 0.710582 
669.000000	 0.708246 
668.000000	 0.705885 
667.000000	 0.703573 
666.000000	 0.701332 
665.000000	 0.699114 
664.000000	 0.696897 
663.000000	 0.694680 
662.000000	 0.692439 
661.000000	 0.690126 
660.000000	 0.687789 
659.000000	 0.685310 
658.000000	 0.682783 
657.000000	 0.680184 
656.000000	 0.677537 
655.000000	 0.674843 
654.000000	 0.672125 
653.000000	 0.669431 
652.000000	 0.666713 
651.000000	 0.664043 
650.000000	 0.661396 
649.000000	 0.658774 
648.000000	 0.656247 
647.000000	 0.653767 
646.000000	 0.651335 
645.000000	 0.648903 
644.000000	 0.646519 
643.000000	 0.644135 
642.000000	 0.641679 
641.000000	 0.639152 
640.000000	 0.636577 
639.000000	 0.633978 
638.000000	 0.631308 
637.000000	 0.628638 
636.000000	 0.626039 
635.000000	 0.623512 
634.000000	 0.621104 
633.000000	 0.618767 
632.000000	 0.616431 
631.000000	 0.614118 
630.000000	 0.611758 
629.000000	 0.609326 
628.000000	 0.606727 
627.000000	 0.604009 
626.000000	 0.601220 
625.000000	 0.598239 
624.000000	 0.595188 
623.000000	 0.592088 
622.000000	 0.588917 
621.000000	 0.585699 
620.000000	 0.582337 
619.000000	 0.578856 
618.000000	 0.575184 
617.000000	 0.571298 
616.000000	 0.567150 
615.000000	 0.562763 
614.000000	 0.558114 
613.000000	 0.553202 
612.000000	 0.548148 
611.000000	 0.542998 
610.000000	 0.537919 
609.000000	 0.533103 
608.000000	 0.528645 
607.000000	 0.524806 
606.000000	 0.521659 
605.000000	 0.519251 
604.000000	 0.517606 
603.000000	 0.516629 
602.000000	 0.516176 
601.000000	 0.516080 
600.000000	 0.516152 
599.000000	 0.516223 
598.000000	 0.516152 
597.000000	 0.515866 
596.000000	 0.515365 
595.000000	 0.514626 
594.000000	 0.513648 
593.000000	 0.512480 
592.000000	 0.511217 
591.000000	 0.509858 
590.000000	 0.508451 
589.000000	 0.507044 
588.000000	 0.505661 
587.000000	 0.504398 
586.000000	 0.503206 
585.000000	 0.502133 
584.000000	 0.501155 
583.000000	 0.500273 
582.000000	 0.499463 
581.000000	 0.498723 
580.000000	 0.497961 
579.000000	 0.497150 
578.000000	 0.496268 
577.000000	 0.495314 
576.000000	 0.494289 
575.000000	 0.493192 
574.000000	 0.492000 
573.000000	 0.490784 
572.000000	 0.489521 
571.000000	 0.488185 
570.000000	 0.486922 
569.000000	 0.485658 
568.000000	 0.484418 
567.000000	 0.483226 
566.000000	 0.482034 
565.000000	 0.480818 
564.000000	 0.479602 
563.000000	 0.478339 
562.000000	 0.477004 
561.000000	 0.475645 
560.000000	 0.474214 
559.000000	 0.472688 
558.000000	 0.471115 
557.000000	 0.469517 
556.000000	 0.467848 
555.000000	 0.466108 
554.000000	 0.464344 
553.000000	 0.462460 
552.000000	 0.460529 
551.000000	 0.458550 
550.000000	 0.456500 
549.000000	 0.454425 
548.000000	 0.452351 
547.000000	 0.450325 
546.000000	 0.448346 
545.000000	 0.446438 
544.000000	 0.444555 
543.000000	 0.442719 
542.000000	 0.440955 
541.000000	 0.439167 
540.000000	 0.437355 
539.000000	 0.435543 
538.000000	 0.433683 
537.000000	 0.431799 
536.000000	 0.429797 
535.000000	 0.427770 
534.000000	 0.425720 
533.000000	 0.423598 
532.000000	 0.421404 
531.000000	 0.419163 
530.000000	 0.416874 
529.000000	 0.414514 
528.000000	 0.412106 
527.000000	 0.409650 
526.000000	 0.407218 
525.000000	 0.404763 
524.000000	 0.402331 
523.000000	 0.399994 
522.000000	 0.397729 
521.000000	 0.395560 
520.000000	 0.393462 
519.000000	 0.391459 
518.000000	 0.389480 
517.000000	 0.387454 
516.000000	 0.385403 
515.000000	 0.383281 
514.000000	 0.381016 
513.000000	 0.378656 
512.000000	 0.376152 
511.000000	 0.373554 
510.000000	 0.370883 
509.000000	 0.368213 
508.000000	 0.365495 
507.000000	 0.362801 
506.000000	 0.360059 
505.000000	 0.357270 
504.000000	 0.354385 
503.000000	 0.351381 
502.000000	 0.348234 
501.000000	 0.344967 
500.000000	 0.341558 
499.000000	 0.338101 
498.000000	 0.334620 
497.000000	 0.331163 
496.000000	 0.327801 
495.000000	 0.324535 
494.000000	 0.321364 
493.000000	 0.318264 
492.000000	 0.315189 
491.000000	 0.312066 
490.000000	 0.308871 
489.000000	 0.305581 
488.000000	 0.302147 
487.000000	 0.298595 
486.000000	 0.294995 
485.000000	 0.291299 
484.000000	 0.287556 
483.000000	 0.283813 
482.000000	 0.280094 
481.000000	 0.276398 
480.000000	 0.272822 
479.000000	 0.269317 
478.000000	 0.265908 
477.000000	 0.262641 
476.000000	 0.259542 
475.000000	 0.256609 
474.000000	 0.253820 
473.000000	 0.251126 
472.000000	 0.248527 
471.000000	 0.245904 
470.000000	 0.243258 
469.000000	 0.240540 
468.000000	 0.237679 
467.000000	 0.234675 
466.000000	 0.231504 
465.000000	 0.228166 
464.000000	 0.224733 
463.000000	 0.221109 
462.000000	 0.217390 
461.000000	 0.213599 
460.000000	 0.209760 
459.000000	 0.205898 
458.000000	 0.201988 
457.000000	 0.198125 
456.000000	 0.194263 
455.000000	 0.190448 
454.000000	 0.186705 
453.000000	 0.183129 
452.000000	 0.179672 
451.000000	 0.176405 
450.000000	 0.173330 
449.000000	 0.170493 
448.000000	 0.167870 
447.000000	 0.165414 
446.000000	 0.163102 
445.000000	 0.160837 
444.000000	 0.158619 
443.000000	 0.156378 
442.000000	 0.154018 
441.000000	 0.151562 
440.000000	 0.148963 
439.000000	 0.146269 
438.000000	 0.143432 
437.000000	 0.140500 
436.000000	 0.137472 
435.000000	 0.134372 
434.000000	 0.131249 
433.000000	 0.128173 
432.000000	 0.125074 
431.000000	 0.122070 
430.000000	 0.119066 
429.000000	 0.116157 
428.000000	 0.113272 
427.000000	 0.110363 
426.000000	 0.107455 
425.000000	 0.104451 
424.000000	 0.101375 
423.000000	 0.098204 
422.000000	 0.094985 
421.000000	 0.091671 
420.000000	 0.088357 
419.000000	 0.085115 
418.000000	 0.081920 
417.000000	 0.078797 
416.000000	 0.075721 
415.000000	 0.072669 
414.000000	 0.069761 
413.000000	 0.066852 
412.000000	 0.064039 
411.000000	 0.061345 
410.000000	 0.058770 
409.000000	 0.056242 
408.000000	 0.053906 
407.000000	 0.051665 
406.000000	 0.049591 
405.000000	 0.047636 
404.000000	 0.045895 
403.000000	 0.044274 
402.000000	 0.042772 
401.000000	 0.041460 
400.000000	 0.040245 
399.000000	 0.039124 
398.000000	 0.038027 
397.000000	 0.036907 
396.000000	 0.035715 
395.000000	 0.034427 
394.000000	 0.032997 
393.000000	 0.031399 
392.000000	 0.029659 
391.000000	 0.027823 
390.000000	 0.025963 
389.000000	 0.024127 
388.000000	 0.022339 
387.000000	 0.020670 
386.000000	 0.019145 
385.000000	 0.017762 
384.000000	 0.016546 
383.000000	 0.015425 
382.000000	 0.014376 
381.000000	 0.013351 
380.000000	 0.012373 
379.000000	 0.011396 
378.000000	 0.010466 
377.000000	 0.009584 
376.000000	 0.008797 
375.000000	 0.008153 
374.000000	 0.007677 
373.000000	 0.007367 
372.000000	 0.007247 
371.000000	 0.007271 
370.000000	 0.007390 

