PE IR       SPECTRUM    SPECTRUM    ASCII       PEDS        1.60        
  -1
LP08BB~1.ASC
17/05/16
19:49:28.00
17/05/16
19:49:28.00
tln
$LPE453_e0125$<ebV0>[-23.3,12.1,10.0,0.0,27,1,0]
370.000000
64









2002,4.07    
MIRTGS : RIGHTBACK : INTERNAL 2
MIR : ON : INTERNAL 2
OPTKBR

0.200000
8
8.000000
FILLER
SINGLE
SPECTRUM
UNLOCKED 256

DOUBLE

COMBINED
1
0
0


1.000000
BACKG


1
0
TRUE
51149
0
LEFT NOT FITTED RIGHT NOT FITTED 0
NONE
NONE
15600
12.000000
4.427000
51148
TRUE
1 0 8 72 0 0 0 0 

15798.010000






#HDR
-1
-1
#GR
CM-1
EGY
0.00002384185791015625
0.0
5000.000000
-1.000000
4631
8
2.421069
0.007271
#DATA
5000.000000	0.766324 
4999.000000	0.767374 
4998.000000	0.768446 
4997.000000	0.769495 
4996.000000	0.770473 
4995.000000	0.771355 
4994.000000	0.772118 
4993.000000	0.772762 
4992.000000	0.773358 
4991.000000	0.773906 
4990.000000	0.774478 
4989.000000	0.775122 
4988.000000	0.775837 
4987.000000	0.776576 
4986.000000	0.777339 
4985.000000	0.778007 
4984.000000	0.778579 
4983.000000	0.778937 
4982.000000	0.779128 
4981.000000	0.779151 
4980.000000	0.779056 
4979.000000	0.778937 
4978.000000	0.778818 
4977.000000	0.778841 
4976.000000	0.779008 
4975.000000	0.779366 
4974.000000	0.779843 
4973.000000	0.780439 
4972.000000	0.781011 
4971.000000	0.781512 
4970.000000	0.781989 
4969.000000	0.782346 
4968.000000	0.782632 
4967.000000	0.782895 
4966.000000	0.783205 
4965.000000	0.783610 
4964.000000	0.784111 
4963.000000	0.784683 
4962.000000	0.785326 
4961.000000	0.785946 
4960.000000	0.786495 
4959.000000	0.786924 
4958.000000	0.787210 
4957.000000	0.787377 
4956.000000	0.787496 
4955.000000	0.787591 
4954.000000	0.787711 
4953.000000	0.787854 
4952.000000	0.788092 
4951.000000	0.788354 
4950.000000	0.788617 
4949.000000	0.788807 
4948.000000	0.788927 
4947.000000	0.788974 
4946.000000	0.788950 
4945.000000	0.788879 
4944.000000	0.788879 
4943.000000	0.788903 
4942.000000	0.789022 
4941.000000	0.789284 
4940.000000	0.789642 
4939.000000	0.790023 
4938.000000	0.790500 
4937.000000	0.790929 
4936.000000	0.791406 
4935.000000	0.791907 
4934.000000	0.792360 
4933.000000	0.792789 
4932.000000	0.793170 
4931.000000	0.793504 
4930.000000	0.793743 
4929.000000	0.793933 
4928.000000	0.794100 
4927.000000	0.794267 
4926.000000	0.794434 
4925.000000	0.794696 
4924.000000	0.795078 
4923.000000	0.795555 
4922.000000	0.796175 
4921.000000	0.796794 
4920.000000	0.797486 
4919.000000	0.798130 
4918.000000	0.798749 
4917.000000	0.799298 
4916.000000	0.799727 
4915.000000	0.800132 
4914.000000	0.800466 
4913.000000	0.800848 
4912.000000	0.801229 
4911.000000	0.801658 
4910.000000	0.802135 
4909.000000	0.802683 
4908.000000	0.803256 
4907.000000	0.803828 
4906.000000	0.804424 
4905.000000	0.804924 
4904.000000	0.805377 
4903.000000	0.805711 
4902.000000	0.805926 
4901.000000	0.806069 
4900.000000	0.806164 
4899.000000	0.806236 
4898.000000	0.806403 
4897.000000	0.806713 
4896.000000	0.807213 
4895.000000	0.807881 
4894.000000	0.808763 
4893.000000	0.809764 
4892.000000	0.810837 
4891.000000	0.811815 
4890.000000	0.812745 
4889.000000	0.813484 
4888.000000	0.814080 
4887.000000	0.814485 
4886.000000	0.814723 
4885.000000	0.814819 
4884.000000	0.814867 
4883.000000	0.814867 
4882.000000	0.814819 
4881.000000	0.814819 
4880.000000	0.814914 
4879.000000	0.815129 
4878.000000	0.815510 
4877.000000	0.816035 
4876.000000	0.816726 
4875.000000	0.817513 
4874.000000	0.818347 
4873.000000	0.819158 
4872.000000	0.819921 
4871.000000	0.820565 
4870.000000	0.821065 
4869.000000	0.821399 
4868.000000	0.821709 
4867.000000	0.821924 
4866.000000	0.822162 
4865.000000	0.822353 
4864.000000	0.822496 
4863.000000	0.822591 
4862.000000	0.822663 
4861.000000	0.822710 
4860.000000	0.822758 
4859.000000	0.822925 
4858.000000	0.823283 
4857.000000	0.823926 
4856.000000	0.824880 
4855.000000	0.826120 
4854.000000	0.827622 
4853.000000	0.829267 
4852.000000	0.830936 
4851.000000	0.832486 
4850.000000	0.833821 
4849.000000	0.834846 
4848.000000	0.835585 
4847.000000	0.836086 
4846.000000	0.836348 
4845.000000	0.836515 
4844.000000	0.836706 
4843.000000	0.836896 
4842.000000	0.837182 
4841.000000	0.837612 
4840.000000	0.838208 
4839.000000	0.838851 
4838.000000	0.839614 
4837.000000	0.840353 
4836.000000	0.841093 
4835.000000	0.841784 
4834.000000	0.842380 
4833.000000	0.842833 
4832.000000	0.843191 
4831.000000	0.843477 
4830.000000	0.843691 
4829.000000	0.843954 
4828.000000	0.844264 
4827.000000	0.844669 
4826.000000	0.845217 
4825.000000	0.845909 
4824.000000	0.846672 
4823.000000	0.847506 
4822.000000	0.848340 
4821.000000	0.849127 
4820.000000	0.849866 
4819.000000	0.850534 
4818.000000	0.851058 
4817.000000	0.851535 
4816.000000	0.852012 
4815.000000	0.852441 
4814.000000	0.853013 
4813.000000	0.853633 
4812.000000	0.854349 
4811.000000	0.855159 
4810.000000	0.856113 
4809.000000	0.857162 
4808.000000	0.858187 
4807.000000	0.859212 
4806.000000	0.860095 
4805.000000	0.860810 
4804.000000	0.861310 
4803.000000	0.861620 
4802.000000	0.861716 
4801.000000	0.861716 
4800.000000	0.861716 
4799.000000	0.861787 
4798.000000	0.862026 
4797.000000	0.862431 
4796.000000	0.863027 
4795.000000	0.863790 
4794.000000	0.864601 
4793.000000	0.865435 
4792.000000	0.866246 
4791.000000	0.866889 
4790.000000	0.867462 
4789.000000	0.867986 
4788.000000	0.868511 
4787.000000	0.869059 
4786.000000	0.869703 
4785.000000	0.870513 
4784.000000	0.871419 
4783.000000	0.872445 
4782.000000	0.873565 
4781.000000	0.874686 
4780.000000	0.875854 
4779.000000	0.876927 
4778.000000	0.877976 
4777.000000	0.878858 
4776.000000	0.879645 
4775.000000	0.880241 
4774.000000	0.880622 
4773.000000	0.880789 
4772.000000	0.880742 
4771.000000	0.880455 
4770.000000	0.880050 
4769.000000	0.879573 
4768.000000	0.879096 
4767.000000	0.878787 
4766.000000	0.878691 
4765.000000	0.878882 
4764.000000	0.879430 
4763.000000	0.880336 
4762.000000	0.881576 
4761.000000	0.883054 
4760.000000	0.884699 
4759.000000	0.886440 
4758.000000	0.888109 
4757.000000	0.889658 
4756.000000	0.891017 
4755.000000	0.892186 
4754.000000	0.893092 
4753.000000	0.893759 
4752.000000	0.894117 
4751.000000	0.894212 
4750.000000	0.894021 
4749.000000	0.893497 
4748.000000	0.892734 
4747.000000	0.891733 
4746.000000	0.890612 
4745.000000	0.889539 
4744.000000	0.888681 
4743.000000	0.888037 
4742.000000	0.887727 
4741.000000	0.887703 
4740.000000	0.887894 
4739.000000	0.888085 
4738.000000	0.888252 
4737.000000	0.888228 
4736.000000	0.888037 
4735.000000	0.887775 
4734.000000	0.887632 
4733.000000	0.887751 
4732.000000	0.888276 
4731.000000	0.889277 
4730.000000	0.890707 
4729.000000	0.892424 
4728.000000	0.894284 
4727.000000	0.896072 
4726.000000	0.897693 
4725.000000	0.898957 
4724.000000	0.899958 
4723.000000	0.900697 
4722.000000	0.901269 
4721.000000	0.901746 
4720.000000	0.902152 
4719.000000	0.902485 
4718.000000	0.902724 
4717.000000	0.902891 
4716.000000	0.903034 
4715.000000	0.903272 
4714.000000	0.903677 
4713.000000	0.904440 
4712.000000	0.905704 
4711.000000	0.907540 
4710.000000	0.909924 
4709.000000	0.912761 
4708.000000	0.915765 
4707.000000	0.918769 
4706.000000	0.921368 
4705.000000	0.923323 
4704.000000	0.924444 
4703.000000	0.924587 
4702.000000	0.923705 
4701.000000	0.921869 
4700.000000	0.919342 
4699.000000	0.916314 
4698.000000	0.913095 
4697.000000	0.909972 
4696.000000	0.907182 
4695.000000	0.904870 
4694.000000	0.903248 
4693.000000	0.902271 
4692.000000	0.901794 
4691.000000	0.901722 
4690.000000	0.901794 
4689.000000	0.901842 
4688.000000	0.901699 
4687.000000	0.901198 
4686.000000	0.900363 
4685.000000	0.899243 
4684.000000	0.897979 
4683.000000	0.896763 
4682.000000	0.895714 
4681.000000	0.895023 
4680.000000	0.894713 
4679.000000	0.894737 
4678.000000	0.894999 
4677.000000	0.895428 
4676.000000	0.895786 
4675.000000	0.895977 
4674.000000	0.895929 
4673.000000	0.895643 
4672.000000	0.895166 
4671.000000	0.894594 
4670.000000	0.894045 
4669.000000	0.893640 
4668.000000	0.893473 
4667.000000	0.893640 
4666.000000	0.894141 
4665.000000	0.894975 
4664.000000	0.896191 
4663.000000	0.897741 
4662.000000	0.899624 
4661.000000	0.901865 
4660.000000	0.904464 
4659.000000	0.907421 
4658.000000	0.910639 
4657.000000	0.914001 
4656.000000	0.917410 
4655.000000	0.920653 
4654.000000	0.923418 
4653.000000	0.925612 
4652.000000	0.927019 
4651.000000	0.927639 
4650.000000	0.927567 
4649.000000	0.926971 
4648.000000	0.926065 
4647.000000	0.925183 
4646.000000	0.924611 
4645.000000	0.924420 
4644.000000	0.924611 
4643.000000	0.925087 
4642.000000	0.925660 
4641.000000	0.926041 
4640.000000	0.925993 
4639.000000	0.925397 
4638.000000	0.924301 
4637.000000	0.922822 
4636.000000	0.921225 
4635.000000	0.919818 
4634.000000	0.918817 
4633.000000	0.918436 
4632.000000	0.918698 
4631.000000	0.919556 
4630.000000	0.920820 
4629.000000	0.922179 
4628.000000	0.923466 
4627.000000	0.924468 
4626.000000	0.925064 
4625.000000	0.925230 
4624.000000	0.924968 
4623.000000	0.924420 
4622.000000	0.923657 
4621.000000	0.922822 
4620.000000	0.922012 
4619.000000	0.921273 
4618.000000	0.920724 
4617.000000	0.920462 
4616.000000	0.920486 
4615.000000	0.920939 
4614.000000	0.921726 
4613.000000	0.922894 
4612.000000	0.924348 
4611.000000	0.925946 
4610.000000	0.927591 
4609.000000	0.929164 
4608.000000	0.930619 
4607.000000	0.931835 
4606.000000	0.932812 
4605.000000	0.933575 
4604.000000	0.934147 
4603.000000	0.934600 
4602.000000	0.934982 
4601.000000	0.935316 
4600.000000	0.935626 
4599.000000	0.935983 
4598.000000	0.936388 
4597.000000	0.936913 
4596.000000	0.937509 
4595.000000	0.938248 
4594.000000	0.939106 
4593.000000	0.940084 
4592.000000	0.941085 
4591.000000	0.942134 
4590.000000	0.943160 
4589.000000	0.944137 
4588.000000	0.945115 
4587.000000	0.946044 
4586.000000	0.946950 
4585.000000	0.947856 
4584.000000	0.948667 
4583.000000	0.949382 
4582.000000	0.949954 
4581.000000	0.950384 
4580.000000	0.950646 
4579.000000	0.950741 
4578.000000	0.950765 
4577.000000	0.950741 
4576.000000	0.950694 
4575.000000	0.950789 
4574.000000	0.950980 
4573.000000	0.951290 
4572.000000	0.951766 
4571.000000	0.952410 
4570.000000	0.953245 
4569.000000	0.954198 
4568.000000	0.955247 
4567.000000	0.956392 
4566.000000	0.957536 
4565.000000	0.958633 
4564.000000	0.959658 
4563.000000	0.960493 
4562.000000	0.961184 
4561.000000	0.961709 
4560.000000	0.962042 
4559.000000	0.962328 
4558.000000	0.962567 
4557.000000	0.962853 
4556.000000	0.963211 
4555.000000	0.963783 
4554.000000	0.964593 
4553.000000	0.965666 
4552.000000	0.967001 
4551.000000	0.968480 
4550.000000	0.970029 
4549.000000	0.971436 
4548.000000	0.972604 
4547.000000	0.973439 
4546.000000	0.973916 
4545.000000	0.974130 
4544.000000	0.974106 
4543.000000	0.974059 
4542.000000	0.974082 
4541.000000	0.974273 
4540.000000	0.974726 
4539.000000	0.975441 
4538.000000	0.976467 
4537.000000	0.977802 
4536.000000	0.979351 
4535.000000	0.981044 
4534.000000	0.982689 
4533.000000	0.984144 
4532.000000	0.985360 
4531.000000	0.986242 
4530.000000	0.986766 
4529.000000	0.987100 
4528.000000	0.987339 
4527.000000	0.987672 
4526.000000	0.988268 
4525.000000	0.989198 
4524.000000	0.990605 
4523.000000	0.992441 
4522.000000	0.994563 
4521.000000	0.996828 
4520.000000	0.999069 
4519.000000	1.001048 
4518.000000	1.002621 
4517.000000	1.003623 
4516.000000	1.004004 
4515.000000	1.003789 
4514.000000	1.003217 
4513.000000	1.002430 
4512.000000	1.001667 
4511.000000	1.001191 
4510.000000	1.001191 
4509.000000	1.001644 
4508.000000	1.002335 
4507.000000	1.003098 
4506.000000	1.003742 
4505.000000	1.004076 
4504.000000	1.004147 
4503.000000	1.004052 
4502.000000	1.003789 
4501.000000	1.003265 
4500.000000	1.001906 
4499.000000	0.998997 
4498.000000	0.993514 
4497.000000	0.984692 
4496.000000	0.972032 
4495.000000	0.955677 
4494.000000	0.936388 
4493.000000	0.915646 
4492.000000	0.895214 
4491.000000	0.877189 
4490.000000	0.863170 
4489.000000	0.854539 
4488.000000	0.852012 
4487.000000	0.855660 
4486.000000	0.865149 
4485.000000	0.879955 
4484.000000	0.899195 
4483.000000	0.921964 
4482.000000	0.947093 
4481.000000	0.973248 
4480.000000	0.998806 
4479.000000	1.022076 
4478.000000	1.041460 
4477.000000	1.055717 
4476.000000	1.064205 
4475.000000	1.066923 
4474.000000	1.064538 
4473.000000	1.058173 
4472.000000	1.049351 
4471.000000	1.039457 
4470.000000	1.029801 
4469.000000	1.021337 
4468.000000	1.014685 
4467.000000	1.009988 
4466.000000	1.007151 
4465.000000	1.005911 
4464.000000	1.005887 
4463.000000	1.006698 
4462.000000	1.007938 
4461.000000	1.009368 
4460.000000	1.010751 
4459.000000	1.011824 
4458.000000	1.012587 
4457.000000	1.013016 
4456.000000	1.013183 
4455.000000	1.013231 
4454.000000	1.013326 
4453.000000	1.013445 
4452.000000	1.013660 
4451.000000	1.013898 
4450.000000	1.014208 
4449.000000	1.014447 
4448.000000	1.014590 
4447.000000	1.014661 
4446.000000	1.014661 
4445.000000	1.014637 
4444.000000	1.014590 
4443.000000	1.014542 
4442.000000	1.014566 
4441.000000	1.014661 
4440.000000	1.014852 
4439.000000	1.015043 
4438.000000	1.015281 
4437.000000	1.015615 
4436.000000	1.016020 
4435.000000	1.016592 
4434.000000	1.017236 
4433.000000	1.017999 
4432.000000	1.018762 
4431.000000	1.019525 
4430.000000	1.020193 
4429.000000	1.020669 
4428.000000	1.020956 
4427.000000	1.020979 
4426.000000	1.020812 
4425.000000	1.020455 
4424.000000	1.020097 
4423.000000	1.019763 
4422.000000	1.019549 
4421.000000	1.019549 
4420.000000	1.019740 
4419.000000	1.020121 
4418.000000	1.020622 
4417.000000	1.021194 
4416.000000	1.021647 
4415.000000	1.021981 
4414.000000	1.022124 
4413.000000	1.022124 
4412.000000	1.021957 
4411.000000	1.021766 
4410.000000	1.021575 
4409.000000	1.021480 
4408.000000	1.021528 
4407.000000	1.021695 
4406.000000	1.021957 
4405.000000	1.022267 
4404.000000	1.022601 
4403.000000	1.022911 
4402.000000	1.023197 
4401.000000	1.023483 
4400.000000	1.023769 
4399.000000	1.024127 
4398.000000	1.024508 
4397.000000	1.024842 
4396.000000	1.025176 
4395.000000	1.025462 
4394.000000	1.025676 
4393.000000	1.025795 
4392.000000	1.025867 
4391.000000	1.025962 
4390.000000	1.026105 
4389.000000	1.026368 
4388.000000	1.026773 
4387.000000	1.027321 
4386.000000	1.028037 
4385.000000	1.028871 
4384.000000	1.029825 
4383.000000	1.030778 
4382.000000	1.031732 
4381.000000	1.032614 
4380.000000	1.033496 
4379.000000	1.034283 
4378.000000	1.034998 
4377.000000	1.035666 
4376.000000	1.036286 
4375.000000	1.036930 
4374.000000	1.037621 
4373.000000	1.038360 
4372.000000	1.039195 
4371.000000	1.040053 
4370.000000	1.040887 
4369.000000	1.041722 
4368.000000	1.042485 
4367.000000	1.043128 
4366.000000	1.043701 
4365.000000	1.044201 
4364.000000	1.044702 
4363.000000	1.045250 
4362.000000	1.045823 
4361.000000	1.046490 
4360.000000	1.047229 
4359.000000	1.048016 
4358.000000	1.048827 
4357.000000	1.049613 
4356.000000	1.050400 
4355.000000	1.051235 
4354.000000	1.052069 
4353.000000	1.052927 
4352.000000	1.053810 
4351.000000	1.054644 
4350.000000	1.055455 
4349.000000	1.056122 
4348.000000	1.056647 
4347.000000	1.057076 
4346.000000	1.057457 
4345.000000	1.057863 
4344.000000	1.058340 
4343.000000	1.059079 
4342.000000	1.060080 
4341.000000	1.061344 
4340.000000	1.062822 
4339.000000	1.064395 
4338.000000	1.066017 
4337.000000	1.067590 
4336.000000	1.069021 
4335.000000	1.070284 
4334.000000	1.071453 
4333.000000	1.072573 
4332.000000	1.073741 
4331.000000	1.075029 
4330.000000	1.076412 
4329.000000	1.077914 
4328.000000	1.079559 
4327.000000	1.081180 
4326.000000	1.082754 
4325.000000	1.084184 
4324.000000	1.085472 
4323.000000	1.086616 
4322.000000	1.087617 
4321.000000	1.088547 
4320.000000	1.089453 
4319.000000	1.090312 
4318.000000	1.091122 
4317.000000	1.091909 
4316.000000	1.092648 
4315.000000	1.093339 
4314.000000	1.094079 
4313.000000	1.094770 
4312.000000	1.095533 
4311.000000	1.096391 
4310.000000	1.097345 
4309.000000	1.098394 
4308.000000	1.099514 
4307.000000	1.100707 
4306.000000	1.101946 
4305.000000	1.103162 
4304.000000	1.104402 
4303.000000	1.105642 
4302.000000	1.106905 
4301.000000	1.108193 
4300.000000	1.109433 
4299.000000	1.110625 
4298.000000	1.111698 
4297.000000	1.112651 
4296.000000	1.113510 
4295.000000	1.114296 
4294.000000	1.115083 
4293.000000	1.115918 
4292.000000	1.116919 
4291.000000	1.118063 
4290.000000	1.119399 
4289.000000	1.120853 
4288.000000	1.122355 
4287.000000	1.123833 
4286.000000	1.125240 
4285.000000	1.126527 
4284.000000	1.127672 
4283.000000	1.128721 
4282.000000	1.129698 
4281.000000	1.130604 
4280.000000	1.131510 
4279.000000	1.132392 
4278.000000	1.133298 
4277.000000	1.134181 
4276.000000	1.135110 
4275.000000	1.136112 
4274.000000	1.137161 
4273.000000	1.138353 
4272.000000	1.139688 
4271.000000	1.141095 
4270.000000	1.142549 
4269.000000	1.143932 
4268.000000	1.145148 
4267.000000	1.146125 
4266.000000	1.146817 
4265.000000	1.147246 
4264.000000	1.147508 
4263.000000	1.147675 
4262.000000	1.147937 
4261.000000	1.148343 
4260.000000	1.148986 
4259.000000	1.149916 
4258.000000	1.151061 
4257.000000	1.152324 
4256.000000	1.153635 
4255.000000	1.154828 
4254.000000	1.155853 
4253.000000	1.156663 
4252.000000	1.157259 
4251.000000	1.157712 
4250.000000	1.158118 
4249.000000	1.158547 
4248.000000	1.159071 
4247.000000	1.159763 
4246.000000	1.160621 
4245.000000	1.161575 
4244.000000	1.162576 
4243.000000	1.163601 
4242.000000	1.164555 
4241.000000	1.165390 
4240.000000	1.166105 
4239.000000	1.166749 
4238.000000	1.167345 
4237.000000	1.167869 
4236.000000	1.168465 
4235.000000	1.169085 
4234.000000	1.169729 
4233.000000	1.170396 
4232.000000	1.170969 
4231.000000	1.171469 
4230.000000	1.171779 
4229.000000	1.171922 
4228.000000	1.171898 
4227.000000	1.171731 
4226.000000	1.171565 
4225.000000	1.171445 
4224.000000	1.171541 
4223.000000	1.171898 
4222.000000	1.172590 
4221.000000	1.173567 
4220.000000	1.174855 
4219.000000	1.176333 
4218.000000	1.177811 
4217.000000	1.179242 
4216.000000	1.180553 
4215.000000	1.181626 
4214.000000	1.182508 
4213.000000	1.183176 
4212.000000	1.183652 
4211.000000	1.184105 
4210.000000	1.184487 
4209.000000	1.184940 
4208.000000	1.185488 
4207.000000	1.186108 
4206.000000	1.186776 
4205.000000	1.187491 
4204.000000	1.188182 
4203.000000	1.188778 
4202.000000	1.189303 
4201.000000	1.189708 
4200.000000	1.189994 
4199.000000	1.190209 
4198.000000	1.190352 
4197.000000	1.190447 
4196.000000	1.190495 
4195.000000	1.190495 
4194.000000	1.190471 
4193.000000	1.190376 
4192.000000	1.190233 
4191.000000	1.190018 
4190.000000	1.189827 
4189.000000	1.189613 
4188.000000	1.189470 
4187.000000	1.189470 
4186.000000	1.189684 
4185.000000	1.190209 
4184.000000	1.191020 
4183.000000	1.192212 
4182.000000	1.193618 
4181.000000	1.195359 
4180.000000	1.197195 
4179.000000	1.199054 
4178.000000	1.200842 
4177.000000	1.202416 
4176.000000	1.203775 
4175.000000	1.204776 
4174.000000	1.205468 
4173.000000	1.205873 
4172.000000	1.206016 
4171.000000	1.206040 
4170.000000	1.205945 
4169.000000	1.205849 
4168.000000	1.205754 
4167.000000	1.205778 
4166.000000	1.205873 
4165.000000	1.206016 
4164.000000	1.206302 
4163.000000	1.206636 
4162.000000	1.207089 
4161.000000	1.207613 
4160.000000	1.208257 
4159.000000	1.209020 
4158.000000	1.209926 
4157.000000	1.210904 
4156.000000	1.211929 
4155.000000	1.213002 
4154.000000	1.214027 
4153.000000	1.214957 
4152.000000	1.215791 
4151.000000	1.216459 
4150.000000	1.217007 
4149.000000	1.217460 
4148.000000	1.217818 
4147.000000	1.218175 
4146.000000	1.218581 
4145.000000	1.219010 
4144.000000	1.219487 
4143.000000	1.220059 
4142.000000	1.220679 
4141.000000	1.221275 
4140.000000	1.221895 
4139.000000	1.222515 
4138.000000	1.223087 
4137.000000	1.223707 
4136.000000	1.224350 
4135.000000	1.225042 
4134.000000	1.225781 
4133.000000	1.226639 
4132.000000	1.227545 
4131.000000	1.228547 
4130.000000	1.229572 
4129.000000	1.230597 
4128.000000	1.231646 
4127.000000	1.232695 
4126.000000	1.233768 
4125.000000	1.234865 
4124.000000	1.235985 
4123.000000	1.237177 
4122.000000	1.238369 
4121.000000	1.239538 
4120.000000	1.240658 
4119.000000	1.241731 
4118.000000	1.242661 
4117.000000	1.243472 
4116.000000	1.244211 
4115.000000	1.244902 
4114.000000	1.245522 
4113.000000	1.246118 
4112.000000	1.246786 
4111.000000	1.247501 
4110.000000	1.248311 
4109.000000	1.249194 
4108.000000	1.250147 
4107.000000	1.251149 
4106.000000	1.252245 
4105.000000	1.253318 
4104.000000	1.254439 
4103.000000	1.255536 
4102.000000	1.256561 
4101.000000	1.257491 
4100.000000	1.258325 
4099.000000	1.259016 
4098.000000	1.259589 
4097.000000	1.260089 
4096.000000	1.260566 
4095.000000	1.261067 
4094.000000	1.261663 
4093.000000	1.262354 
4092.000000	1.263213 
4091.000000	1.264190 
4090.000000	1.265311 
4089.000000	1.266551 
4088.000000	1.267886 
4087.000000	1.269292 
4086.000000	1.270771 
4085.000000	1.272296 
4084.000000	1.273870 
4083.000000	1.275491 
4082.000000	1.277136 
4081.000000	1.278853 
4080.000000	1.280570 
4079.000000	1.282334 
4078.000000	1.284098 
4077.000000	1.285839 
4076.000000	1.287555 
4075.000000	1.289272 
4074.000000	1.290941 
4073.000000	1.292514 
4072.000000	1.294016 
4071.000000	1.295423 
4070.000000	1.296687 
4069.000000	1.297879 
4068.000000	1.298952 
4067.000000	1.299929 
4066.000000	1.300811 
4065.000000	1.301622 
4064.000000	1.302456 
4063.000000	1.303267 
4062.000000	1.304197 
4061.000000	1.305222 
4060.000000	1.306414 
4059.000000	1.307797 
4058.000000	1.309347 
4057.000000	1.311087 
4056.000000	1.312994 
4055.000000	1.314949 
4054.000000	1.316857 
4053.000000	1.318669 
4052.000000	1.320338 
4051.000000	1.321816 
4050.000000	1.323056 
4049.000000	1.324152 
4048.000000	1.325106 
4047.000000	1.325988 
4046.000000	1.326918 
4045.000000	1.327872 
4044.000000	1.328945 
4043.000000	1.330089 
4042.000000	1.331329 
4041.000000	1.332688 
4040.000000	1.334118 
4039.000000	1.335644 
4038.000000	1.337218 
4037.000000	1.338839 
4036.000000	1.340484 
4035.000000	1.342058 
4034.000000	1.343607 
4033.000000	1.345014 
4032.000000	1.346302 
4031.000000	1.347470 
4030.000000	1.348495 
4029.000000	1.349496 
4028.000000	1.350450 
4027.000000	1.351356 
4026.000000	1.352310 
4025.000000	1.353311 
4024.000000	1.354360 
4023.000000	1.355457 
4022.000000	1.356577 
4021.000000	1.357746 
4020.000000	1.358938 
4019.000000	1.360154 
4018.000000	1.361417 
4017.000000	1.362776 
4016.000000	1.364183 
4015.000000	1.365637 
4014.000000	1.367163 
4013.000000	1.368737 
4012.000000	1.370263 
4011.000000	1.371741 
4010.000000	1.373147 
4009.000000	1.374483 
4008.000000	1.375699 
4007.000000	1.376795 
4006.000000	1.377773 
4005.000000	1.378679 
4004.000000	1.379513 
4003.000000	1.380276 
4002.000000	1.381015 
4001.000000	1.381659 
4000.000000	1.382279 
3999.000000	1.382827 
3998.000000	1.383304 
3997.000000	1.383709 
3996.000000	1.384067 
3995.000000	1.384377 
3994.000000	1.384711 
3993.000000	1.385068 
3992.000000	1.385569 
3991.000000	1.386165 
3990.000000	1.386928 
3989.000000	1.387834 
3988.000000	1.388835 
3987.000000	1.389908 
3986.000000	1.390957 
3985.000000	1.391935 
3984.000000	1.392745 
3983.000000	1.393389 
3982.000000	1.393866 
3981.000000	1.394200 
3980.000000	1.394486 
3979.000000	1.394772 
3978.000000	1.395130 
3977.000000	1.395654 
3976.000000	1.396250 
3975.000000	1.397013 
3974.000000	1.397824 
3973.000000	1.398634 
3972.000000	1.399421 
3971.000000	1.400136 
3970.000000	1.400756 
3969.000000	1.401257 
3968.000000	1.401734 
3967.000000	1.402211 
3966.000000	1.402711 
3965.000000	1.403284 
3964.000000	1.403880 
3963.000000	1.404523 
3962.000000	1.405143 
3961.000000	1.405715 
3960.000000	1.406216 
3959.000000	1.406621 
3958.000000	1.406931 
3957.000000	1.407217 
3956.000000	1.407456 
3955.000000	1.407694 
3954.000000	1.408028 
3953.000000	1.408410 
3952.000000	1.408839 
3951.000000	1.409292 
3950.000000	1.409769 
3949.000000	1.410222 
3948.000000	1.410651 
3947.000000	1.410984 
3946.000000	1.411294 
3945.000000	1.411533 
3944.000000	1.411724 
3943.000000	1.411914 
3942.000000	1.412153 
3941.000000	1.412391 
3940.000000	1.412725 
3939.000000	1.413059 
3938.000000	1.413440 
3937.000000	1.413846 
3936.000000	1.414251 
3935.000000	1.414632 
3934.000000	1.414990 
3933.000000	1.415371 
3932.000000	1.415729 
3931.000000	1.416110 
3930.000000	1.416468 
3929.000000	1.416850 
3928.000000	1.417255 
3927.000000	1.417613 
3926.000000	1.417922 
3925.000000	1.418185 
3924.000000	1.418375 
3923.000000	1.418542 
3922.000000	1.418733 
3921.000000	1.418972 
3920.000000	1.419305 
3919.000000	1.419782 
3918.000000	1.420402 
3917.000000	1.421141 
3916.000000	1.421976 
3915.000000	1.422810 
3914.000000	1.423573 
3913.000000	1.424193 
3912.000000	1.424551 
3911.000000	1.424646 
3910.000000	1.424431 
3909.000000	1.423931 
3908.000000	1.423287 
3907.000000	1.422548 
3906.000000	1.421880 
3905.000000	1.421332 
3904.000000	1.421070 
3903.000000	1.421093 
3902.000000	1.421427 
3901.000000	1.422071 
3900.000000	1.422977 
3899.000000	1.424002 
3898.000000	1.425099 
3897.000000	1.426148 
3896.000000	1.427125 
3895.000000	1.427960 
3894.000000	1.428556 
3893.000000	1.429033 
3892.000000	1.429343 
3891.000000	1.429581 
3890.000000	1.429700 
3889.000000	1.429843 
3888.000000	1.430034 
3887.000000	1.430344 
3886.000000	1.430797 
3885.000000	1.431417 
3884.000000	1.432180 
3883.000000	1.433038 
3882.000000	1.433944 
3881.000000	1.434779 
3880.000000	1.435494 
3879.000000	1.435971 
3878.000000	1.436209 
3877.000000	1.436161 
3876.000000	1.435899 
3875.000000	1.435518 
3874.000000	1.435112 
3873.000000	1.434803 
3872.000000	1.434659 
3871.000000	1.434803 
3870.000000	1.435184 
3869.000000	1.435875 
3868.000000	1.436781 
3867.000000	1.437878 
3866.000000	1.439023 
3865.000000	1.440143 
3864.000000	1.441073 
3863.000000	1.441717 
3862.000000	1.441907 
3861.000000	1.441526 
3860.000000	1.440644 
3859.000000	1.439332 
3858.000000	1.437759 
3857.000000	1.436161 
3856.000000	1.434946 
3855.000000	1.434373 
3854.000000	1.434683 
3853.000000	1.436042 
3852.000000	1.438355 
3851.000000	1.441454 
3850.000000	1.445055 
3849.000000	1.448798 
3848.000000	1.452279 
3847.000000	1.455163 
3846.000000	1.457285 
3845.000000	1.458525 
3844.000000	1.458978 
3843.000000	1.458787 
3842.000000	1.458168 
3841.000000	1.457452 
3840.000000	1.456904 
3839.000000	1.456761 
3838.000000	1.457190 
3837.000000	1.458263 
3836.000000	1.460027 
3835.000000	1.462316 
3834.000000	1.464962 
3833.000000	1.467823 
3832.000000	1.470589 
3831.000000	1.473116 
3830.000000	1.475262 
3829.000000	1.476883 
3828.000000	1.478004 
3827.000000	1.478672 
3826.000000	1.478981 
3825.000000	1.479053 
3824.000000	1.479005 
3823.000000	1.478981 
3822.000000	1.479148 
3821.000000	1.479554 
3820.000000	1.480269 
3819.000000	1.481366 
3818.000000	1.482844 
3817.000000	1.484656 
3816.000000	1.486730 
3815.000000	1.488947 
3814.000000	1.491165 
3813.000000	1.493239 
3812.000000	1.495027 
3811.000000	1.496410 
3810.000000	1.497364 
3809.000000	1.497912 
3808.000000	1.498126 
3807.000000	1.498174 
3806.000000	1.498198 
3805.000000	1.498341 
3804.000000	1.498770 
3803.000000	1.499533 
3802.000000	1.500749 
3801.000000	1.502370 
3800.000000	1.504302 
3799.000000	1.506447 
3798.000000	1.508665 
3797.000000	1.510858 
3796.000000	1.512885 
3795.000000	1.514720 
3794.000000	1.516318 
3793.000000	1.517772 
3792.000000	1.519083 
3791.000000	1.520323 
3790.000000	1.521563 
3789.000000	1.522850 
3788.000000	1.524138 
3787.000000	1.525425 
3786.000000	1.526641 
3785.000000	1.527762 
3784.000000	1.528692 
3783.000000	1.529479 
3782.000000	1.530146 
3781.000000	1.530742 
3780.000000	1.531243 
3779.000000	1.531815 
3778.000000	1.532340 
3777.000000	1.532888 
3776.000000	1.533365 
3775.000000	1.533794 
3774.000000	1.534223 
3773.000000	1.534652 
3772.000000	1.535248 
3771.000000	1.535987 
3770.000000	1.536893 
3769.000000	1.538062 
3768.000000	1.539444 
3767.000000	1.540946 
3766.000000	1.542425 
3765.000000	1.543784 
3764.000000	1.544904 
3763.000000	1.545691 
3762.000000	1.546072 
3761.000000	1.546096 
3760.000000	1.545715 
3759.000000	1.545047 
3758.000000	1.544046 
3757.000000	1.542735 
3756.000000	1.541233 
3755.000000	1.539611 
3754.000000	1.537919 
3753.000000	1.536250 
3752.000000	1.534748 
3751.000000	1.533508 
3750.000000	1.532697 
3749.000000	1.532363 
3748.000000	1.532626 
3747.000000	1.533436 
3746.000000	1.534771 
3745.000000	1.536512 
3744.000000	1.538538 
3743.000000	1.540613 
3742.000000	1.542639 
3741.000000	1.544427 
3740.000000	1.545882 
3739.000000	1.546978 
3738.000000	1.547837 
3737.000000	1.548576 
3736.000000	1.549267 
3735.000000	1.550078 
3734.000000	1.551079 
3733.000000	1.552295 
3732.000000	1.553678 
3731.000000	1.555109 
3730.000000	1.556515 
3729.000000	1.557803 
3728.000000	1.558923 
3727.000000	1.559853 
3726.000000	1.560664 
3725.000000	1.561355 
3724.000000	1.561975 
3723.000000	1.562500 
3722.000000	1.562929 
3721.000000	1.563143 
3720.000000	1.563072 
3719.000000	1.562666 
3718.000000	1.561903 
3717.000000	1.560902 
3716.000000	1.559686 
3715.000000	1.558470 
3714.000000	1.557421 
3713.000000	1.556682 
3712.000000	1.556372 
3711.000000	1.556468 
3710.000000	1.556992 
3709.000000	1.557850 
3708.000000	1.558876 
3707.000000	1.560020 
3706.000000	1.561117 
3705.000000	1.562142 
3704.000000	1.563024 
3703.000000	1.563763 
3702.000000	1.564383 
3701.000000	1.564860 
3700.000000	1.565217 
3699.000000	1.565432 
3698.000000	1.565408 
3697.000000	1.565122 
3696.000000	1.564502 
3695.000000	1.563572 
3694.000000	1.562404 
3693.000000	1.561093 
3692.000000	1.559853 
3691.000000	1.558876 
3690.000000	1.558303 
3689.000000	1.558232 
3688.000000	1.558709 
3687.000000	1.559638 
3686.000000	1.560807 
3685.000000	1.561975 
3684.000000	1.562929 
3683.000000	1.563405 
3682.000000	1.563358 
3681.000000	1.562738 
3680.000000	1.561570 
3679.000000	1.560044 
3678.000000	1.558351 
3677.000000	1.556658 
3676.000000	1.555252 
3675.000000	1.554203 
3674.000000	1.553583 
3673.000000	1.553463 
3672.000000	1.553821 
3671.000000	1.554656 
3670.000000	1.555824 
3669.000000	1.557302 
3668.000000	1.558923 
3667.000000	1.560592 
3666.000000	1.562190 
3665.000000	1.563572 
3664.000000	1.564645 
3663.000000	1.565384 
3662.000000	1.565742 
3661.000000	1.565790 
3660.000000	1.565504 
3659.000000	1.564955 
3658.000000	1.564192 
3657.000000	1.563262 
3656.000000	1.562166 
3655.000000	1.560997 
3654.000000	1.559829 
3653.000000	1.558709 
3652.000000	1.557826 
3651.000000	1.557302 
3650.000000	1.557254 
3649.000000	1.557731 
3648.000000	1.558780 
3647.000000	1.560211 
3646.000000	1.561999 
3645.000000	1.563882 
3644.000000	1.565694 
3643.000000	1.567292 
3642.000000	1.568603 
3641.000000	1.569557 
3640.000000	1.570105 
3639.000000	1.570248 
3638.000000	1.570081 
3637.000000	1.569604 
3636.000000	1.568889 
3635.000000	1.568007 
3634.000000	1.567053 
3633.000000	1.566147 
3632.000000	1.565408 
3631.000000	1.564979 
3630.000000	1.564884 
3629.000000	1.565170 
3628.000000	1.565766 
3627.000000	1.566529 
3626.000000	1.567339 
3625.000000	1.568102 
3624.000000	1.568651 
3623.000000	1.569008 
3622.000000	1.569175 
3621.000000	1.569199 
3620.000000	1.569223 
3619.000000	1.569294 
3618.000000	1.569414 
3617.000000	1.569652 
3616.000000	1.569986 
3615.000000	1.570320 
3614.000000	1.570677 
3613.000000	1.571083 
3612.000000	1.571536 
3611.000000	1.572084 
3610.000000	1.572775 
3609.000000	1.573681 
3608.000000	1.574754 
3607.000000	1.575970 
3606.000000	1.577258 
3605.000000	1.578474 
3604.000000	1.579546 
3603.000000	1.580476 
3602.000000	1.581239 
3601.000000	1.581811 
3600.000000	1.582264 
3599.000000	1.582670 
3598.000000	1.583075 
3597.000000	1.583480 
3596.000000	1.583933 
3595.000000	1.584362 
3594.000000	1.584696 
3593.000000	1.584982 
3592.000000	1.585102 
3591.000000	1.585173 
3590.000000	1.585173 
3589.000000	1.585173 
3588.000000	1.585268 
3587.000000	1.585459 
3586.000000	1.585841 
3585.000000	1.586389 
3584.000000	1.587080 
3583.000000	1.587843 
3582.000000	1.588678 
3581.000000	1.589512 
3580.000000	1.590323 
3579.000000	1.591062 
3578.000000	1.591730 
3577.000000	1.592350 
3576.000000	1.592850 
3575.000000	1.593232 
3574.000000	1.593542 
3573.000000	1.593708 
3572.000000	1.593756 
3571.000000	1.593732 
3570.000000	1.593661 
3569.000000	1.593661 
3568.000000	1.593732 
3567.000000	1.593971 
3566.000000	1.594519 
3565.000000	1.595306 
3564.000000	1.596307 
3563.000000	1.597499 
3562.000000	1.598787 
3561.000000	1.600098 
3560.000000	1.601266 
3559.000000	1.602315 
3558.000000	1.603174 
3557.000000	1.603817 
3556.000000	1.604294 
3555.000000	1.604604 
3554.000000	1.604771 
3553.000000	1.604890 
3552.000000	1.604962 
3551.000000	1.605010 
3550.000000	1.605010 
3549.000000	1.605057 
3548.000000	1.605105 
3547.000000	1.605153 
3546.000000	1.605200 
3545.000000	1.605272 
3544.000000	1.605343 
3543.000000	1.605439 
3542.000000	1.605510 
3541.000000	1.605558 
3540.000000	1.605582 
3539.000000	1.605558 
3538.000000	1.605510 
3537.000000	1.605463 
3536.000000	1.605439 
3535.000000	1.605439 
3534.000000	1.605510 
3533.000000	1.605701 
3532.000000	1.605963 
3531.000000	1.606345 
3530.000000	1.606774 
3529.000000	1.607275 
3528.000000	1.607823 
3527.000000	1.608371 
3526.000000	1.608896 
3525.000000	1.609420 
3524.000000	1.609897 
3523.000000	1.610350 
3522.000000	1.610708 
3521.000000	1.610994 
3520.000000	1.611161 
3519.000000	1.611208 
3518.000000	1.611137 
3517.000000	1.610946 
3516.000000	1.610660 
3515.000000	1.610279 
3514.000000	1.609873 
3513.000000	1.609444 
3512.000000	1.608991 
3511.000000	1.608610 
3510.000000	1.608252 
3509.000000	1.607966 
3508.000000	1.607751 
3507.000000	1.607561 
3506.000000	1.607418 
3505.000000	1.607298 
3504.000000	1.607179 
3503.000000	1.607036 
3502.000000	1.606917 
3501.000000	1.606750 
3500.000000	1.606583 
3499.000000	1.606392 
3498.000000	1.606106 
3497.000000	1.605772 
3496.000000	1.605391 
3495.000000	1.604938 
3494.000000	1.604437 
3493.000000	1.603937 
3492.000000	1.603412 
3491.000000	1.602959 
3490.000000	1.602578 
3489.000000	1.602292 
3488.000000	1.602077 
3487.000000	1.601934 
3486.000000	1.601743 
3485.000000	1.601457 
3484.000000	1.601052 
3483.000000	1.600360 
3482.000000	1.599502 
3481.000000	1.598477 
3480.000000	1.597356 
3479.000000	1.596236 
3478.000000	1.595187 
3477.000000	1.594352 
3476.000000	1.593708 
3475.000000	1.593255 
3474.000000	1.593017 
3473.000000	1.592922 
3472.000000	1.592898 
3471.000000	1.592969 
3470.000000	1.593041 
3469.000000	1.593089 
3468.000000	1.593065 
3467.000000	1.592969 
3466.000000	1.592707 
3465.000000	1.592302 
3464.000000	1.591730 
3463.000000	1.590967 
3462.000000	1.590108 
3461.000000	1.589131 
3460.000000	1.588153 
3459.000000	1.587200 
3458.000000	1.586365 
3457.000000	1.585650 
3456.000000	1.585125 
3455.000000	1.584720 
3454.000000	1.584434 
3453.000000	1.584148 
3452.000000	1.583814 
3451.000000	1.583361 
3450.000000	1.582789 
3449.000000	1.582074 
3448.000000	1.581263 
3447.000000	1.580381 
3446.000000	1.579499 
3445.000000	1.578593 
3444.000000	1.577758 
3443.000000	1.577043 
3442.000000	1.576447 
3441.000000	1.575875 
3440.000000	1.575398 
3439.000000	1.574921 
3438.000000	1.574468 
3437.000000	1.573991 
3436.000000	1.573467 
3435.000000	1.572871 
3434.000000	1.572227 
3433.000000	1.571536 
3432.000000	1.570820 
3431.000000	1.570129 
3430.000000	1.569557 
3429.000000	1.569032 
3428.000000	1.568651 
3427.000000	1.568388 
3426.000000	1.568245 
3425.000000	1.568222 
3424.000000	1.568269 
3423.000000	1.568412 
3422.000000	1.568675 
3421.000000	1.569032 
3420.000000	1.569533 
3419.000000	1.570177 
3418.000000	1.571011 
3417.000000	1.571989 
3416.000000	1.573038 
3415.000000	1.574110 
3414.000000	1.575183 
3413.000000	1.576137 
3412.000000	1.576948 
3411.000000	1.577591 
3410.000000	1.578092 
3409.000000	1.578426 
3408.000000	1.578688 
3407.000000	1.578783 
3406.000000	1.578831 
3405.000000	1.578807 
3404.000000	1.578736 
3403.000000	1.578664 
3402.000000	1.578617 
3401.000000	1.578664 
3400.000000	1.578879 
3399.000000	1.579260 
3398.000000	1.579904 
3397.000000	1.580739 
3396.000000	1.581835 
3395.000000	1.583051 
3394.000000	1.584362 
3393.000000	1.585650 
3392.000000	1.586842 
3391.000000	1.587939 
3390.000000	1.588845 
3389.000000	1.589560 
3388.000000	1.590108 
3387.000000	1.590514 
3386.000000	1.590800 
3385.000000	1.591086 
3384.000000	1.591324 
3383.000000	1.591610 
3382.000000	1.591944 
3381.000000	1.592350 
3380.000000	1.592826 
3379.000000	1.593399 
3378.000000	1.594042 
3377.000000	1.594758 
3376.000000	1.595568 
3375.000000	1.596498 
3374.000000	1.597547 
3373.000000	1.598715 
3372.000000	1.600027 
3371.000000	1.601481 
3370.000000	1.603007 
3369.000000	1.604580 
3368.000000	1.606130 
3367.000000	1.607632 
3366.000000	1.608991 
3365.000000	1.610279 
3364.000000	1.611471 
3363.000000	1.612615 
3362.000000	1.613712 
3361.000000	1.614856 
3360.000000	1.616120 
3359.000000	1.617479 
3358.000000	1.618981 
3357.000000	1.620554 
3356.000000	1.622223 
3355.000000	1.623868 
3354.000000	1.625537 
3353.000000	1.627159 
3352.000000	1.628732 
3351.000000	1.630282 
3350.000000	1.631784 
3349.000000	1.633286 
3348.000000	1.634812 
3347.000000	1.636362 
3346.000000	1.637959 
3345.000000	1.639604 
3344.000000	1.641297 
3343.000000	1.643037 
3342.000000	1.644802 
3341.000000	1.646494 
3340.000000	1.648139 
3339.000000	1.649641 
3338.000000	1.651000 
3337.000000	1.652216 
3336.000000	1.653289 
3335.000000	1.654338 
3334.000000	1.655411 
3333.000000	1.656603 
3332.000000	1.657915 
3331.000000	1.659345 
3330.000000	1.660895 
3329.000000	1.662468 
3328.000000	1.664018 
3327.000000	1.665472 
3326.000000	1.666831 
3325.000000	1.668071 
3324.000000	1.669263 
3323.000000	1.670432 
3322.000000	1.671648 
3321.000000	1.672911 
3320.000000	1.674246 
3319.000000	1.675724 
3318.000000	1.677250 
3317.000000	1.678824 
3316.000000	1.680350 
3315.000000	1.681804 
3314.000000	1.683163 
3313.000000	1.684474 
3312.000000	1.685690 
3311.000000	1.686882 
3310.000000	1.688051 
3309.000000	1.689243 
3308.000000	1.690506 
3307.000000	1.691865 
3306.000000	1.693320 
3305.000000	1.694846 
3304.000000	1.696491 
3303.000000	1.698136 
3302.000000	1.699733 
3301.000000	1.701283 
3300.000000	1.702713 
3299.000000	1.704001 
3298.000000	1.705193 
3297.000000	1.706290 
3296.000000	1.707363 
3295.000000	1.708507 
3294.000000	1.709723 
3293.000000	1.711058 
3292.000000	1.712512 
3291.000000	1.714015 
3290.000000	1.715564 
3289.000000	1.717114 
3288.000000	1.718568 
3287.000000	1.719951 
3286.000000	1.721191 
3285.000000	1.722359 
3284.000000	1.723456 
3283.000000	1.724481 
3282.000000	1.725459 
3281.000000	1.726388 
3280.000000	1.727294 
3279.000000	1.728224 
3278.000000	1.729130 
3277.000000	1.730084 
3276.000000	1.731061 
3275.000000	1.732110 
3274.000000	1.733183 
3273.000000	1.734280 
3272.000000	1.735353 
3271.000000	1.736426 
3270.000000	1.737499 
3269.000000	1.738524 
3268.000000	1.739573 
3267.000000	1.740574 
3266.000000	1.741647 
3265.000000	1.742696 
3264.000000	1.743769 
3263.000000	1.744842 
3262.000000	1.745820 
3261.000000	1.746702 
3260.000000	1.747465 
3259.000000	1.748037 
3258.000000	1.748490 
3257.000000	1.748800 
3256.000000	1.749086 
3255.000000	1.749396 
3254.000000	1.749825 
3253.000000	1.750397 
3252.000000	1.751089 
3251.000000	1.751947 
3250.000000	1.752901 
3249.000000	1.753926 
3248.000000	1.754951 
3247.000000	1.755928 
3246.000000	1.756834 
3245.000000	1.757621 
3244.000000	1.758289 
3243.000000	1.758861 
3242.000000	1.759338 
3241.000000	1.759719 
3240.000000	1.760149 
3239.000000	1.760554 
3238.000000	1.760983 
3237.000000	1.761507 
3236.000000	1.762080 
3235.000000	1.762700 
3234.000000	1.763343 
3233.000000	1.763987 
3232.000000	1.764559 
3231.000000	1.765060 
3230.000000	1.765465 
3229.000000	1.765751 
3228.000000	1.765966 
3227.000000	1.766085 
3226.000000	1.766133 
3225.000000	1.766157 
3224.000000	1.766180 
3223.000000	1.766204 
3222.000000	1.766228 
3221.000000	1.766300 
3220.000000	1.766371 
3219.000000	1.766490 
3218.000000	1.766633 
3217.000000	1.766848 
3216.000000	1.767086 
3215.000000	1.767396 
3214.000000	1.767730 
3213.000000	1.768112 
3212.000000	1.768469 
3211.000000	1.768922 
3210.000000	1.769375 
3209.000000	1.769852 
3208.000000	1.770305 
3207.000000	1.770758 
3206.000000	1.771187 
3205.000000	1.771497 
3204.000000	1.771759 
3203.000000	1.771974 
3202.000000	1.772093 
3201.000000	1.772117 
3200.000000	1.772165 
3199.000000	1.772236 
3198.000000	1.772308 
3197.000000	1.772475 
3196.000000	1.772642 
3195.000000	1.772856 
3194.000000	1.773071 
3193.000000	1.773262 
3192.000000	1.773405 
3191.000000	1.773524 
3190.000000	1.773619 
3189.000000	1.773738 
3188.000000	1.773881 
3187.000000	1.774144 
3186.000000	1.774477 
3185.000000	1.774907 
3184.000000	1.775431 
3183.000000	1.776027 
3182.000000	1.776647 
3181.000000	1.777267 
3180.000000	1.777744 
3179.000000	1.778125 
3178.000000	1.778388 
3177.000000	1.778507 
3176.000000	1.778531 
3175.000000	1.778531 
3174.000000	1.778531 
3173.000000	1.778626 
3172.000000	1.778745 
3171.000000	1.779007 
3170.000000	1.779341 
3169.000000	1.779699 
3168.000000	1.780104 
3167.000000	1.780462 
3166.000000	1.780843 
3165.000000	1.781225 
3164.000000	1.781678 
3163.000000	1.782178 
3162.000000	1.782774 
3161.000000	1.783490 
3160.000000	1.784348 
3159.000000	1.785326 
3158.000000	1.786398 
3157.000000	1.787519 
3156.000000	1.788616 
3155.000000	1.789736 
3154.000000	1.790714 
3153.000000	1.791596 
3152.000000	1.792359 
3151.000000	1.792955 
3150.000000	1.793408 
3149.000000	1.793766 
3148.000000	1.794052 
3147.000000	1.794314 
3146.000000	1.794695 
3145.000000	1.795220 
3144.000000	1.795864 
3143.000000	1.796746 
3142.000000	1.797866 
3141.000000	1.799130 
3140.000000	1.800537 
3139.000000	1.801943 
3138.000000	1.803350 
3137.000000	1.804590 
3136.000000	1.805663 
3135.000000	1.806545 
3134.000000	1.807188 
3133.000000	1.807737 
3132.000000	1.808166 
3131.000000	1.808619 
3130.000000	1.809167 
3129.000000	1.809954 
3128.000000	1.810956 
3127.000000	1.812291 
3126.000000	1.813912 
3125.000000	1.815795 
3124.000000	1.817870 
3123.000000	1.820063 
3122.000000	1.822304 
3121.000000	1.824498 
3120.000000	1.826596 
3119.000000	1.828527 
3118.000000	1.830244 
3117.000000	1.831722 
3116.000000	1.832938 
3115.000000	1.833891 
3114.000000	1.834678 
3113.000000	1.835298 
3112.000000	1.835846 
3111.000000	1.836395 
3110.000000	1.837015 
3109.000000	1.837778 
3108.000000	1.838731 
3107.000000	1.839900 
3106.000000	1.841330 
3105.000000	1.842951 
3104.000000	1.844763 
3103.000000	1.846671 
3102.000000	1.848697 
3101.000000	1.850795 
3100.000000	1.852917 
3099.000000	1.855015 
3098.000000	1.857161 
3097.000000	1.859307 
3096.000000	1.861476 
3095.000000	1.863694 
3094.000000	1.865887 
3093.000000	1.868128 
3092.000000	1.870346 
3091.000000	1.872515 
3090.000000	1.874542 
3089.000000	1.876473 
3088.000000	1.878237 
3087.000000	1.879858 
3086.000000	1.881384 
3085.000000	1.882886 
3084.000000	1.884412 
3083.000000	1.886010 
3082.000000	1.887750 
3081.000000	1.889634 
3080.000000	1.891589 
3079.000000	1.893615 
3078.000000	1.895642 
3077.000000	1.897573 
3076.000000	1.899361 
3075.000000	1.900959 
3074.000000	1.902437 
3073.000000	1.903748 
3072.000000	1.904940 
3071.000000	1.906013 
3070.000000	1.907086 
3069.000000	1.908135 
3068.000000	1.909184 
3067.000000	1.910257 
3066.000000	1.911354 
3065.000000	1.912522 
3064.000000	1.913714 
3063.000000	1.914930 
3062.000000	1.916265 
3061.000000	1.917719 
3060.000000	1.919245 
3059.000000	1.920914 
3058.000000	1.922678 
3057.000000	1.924610 
3056.000000	1.926565 
3055.000000	1.928591 
3054.000000	1.930594 
3053.000000	1.932549 
3052.000000	1.934409 
3051.000000	1.936173 
3050.000000	1.937794 
3049.000000	1.939272 
3048.000000	1.940703 
3047.000000	1.942110 
3046.000000	1.943492 
3045.000000	1.944923 
3044.000000	1.946377 
3043.000000	1.947808 
3042.000000	1.949238 
3041.000000	1.950597 
3040.000000	1.951861 
3039.000000	1.953029 
3038.000000	1.953983 
3037.000000	1.954793 
3036.000000	1.955366 
3035.000000	1.955723 
3034.000000	1.955890 
3033.000000	1.955795 
3032.000000	1.955461 
3031.000000	1.954841 
3030.000000	1.953911 
3029.000000	1.952672 
3028.000000	1.951122 
3027.000000	1.949262 
3026.000000	1.947116 
3025.000000	1.944804 
3024.000000	1.942396 
3023.000000	1.940107 
3022.000000	1.938128 
3021.000000	1.936650 
3020.000000	1.935815 
3019.000000	1.935863 
3018.000000	1.936793 
3017.000000	1.938748 
3016.000000	1.941633 
3015.000000	1.945376 
3014.000000	1.949834 
3013.000000	1.954793 
3012.000000	1.960086 
3011.000000	1.965451 
3010.000000	1.970672 
3009.000000	1.975655 
3008.000000	1.980233 
3007.000000	1.984405 
3006.000000	1.988101 
3005.000000	1.991367 
3004.000000	1.994228 
3003.000000	1.996803 
3002.000000	1.999044 
3001.000000	2.000975 
3000.000000	2.002716 
2999.000000	2.004241 
2998.000000	2.005505 
2997.000000	2.006602 
2996.000000	2.007532 
2995.000000	2.008318 
2994.000000	2.008962 
2993.000000	2.009510 
2992.000000	2.009963 
2991.000000	2.010345 
2990.000000	2.010560 
2989.000000	2.010607 
2988.000000	2.010440 
2987.000000	2.010011 
2986.000000	2.009296 
2985.000000	2.008318 
2984.000000	2.007055 
2983.000000	2.005481 
2982.000000	2.003598 
2981.000000	2.001404 
2980.000000	1.998901 
2979.000000	1.996040 
2978.000000	1.992750 
2977.000000	1.989078 
2976.000000	1.984930 
2975.000000	1.980280 
2974.000000	1.975202 
2973.000000	1.969695 
2972.000000	1.963853 
2971.000000	1.957726 
2970.000000	1.951408 
2969.000000	1.945137 
2968.000000	1.938986 
2967.000000	1.933121 
2966.000000	1.927709 
2965.000000	1.922869 
2964.000000	1.918649 
2963.000000	1.915073 
2962.000000	1.912188 
2961.000000	1.909947 
2960.000000	1.908230 
2959.000000	1.907014 
2958.000000	1.906180 
2957.000000	1.905608 
2956.000000	1.905202 
2955.000000	1.904821 
2954.000000	1.904368 
2953.000000	1.903700 
2952.000000	1.902675 
2951.000000	1.901197 
2950.000000	1.899075 
2949.000000	1.896214 
2948.000000	1.892518 
2947.000000	1.887917 
2946.000000	1.882243 
2945.000000	1.875638 
2944.000000	1.868200 
2943.000000	1.859974 
2942.000000	1.851129 
2941.000000	1.841998 
2940.000000	1.832747 
2939.000000	1.823592 
2938.000000	1.814699 
2937.000000	1.806116 
2936.000000	1.798009 
2935.000000	1.790332 
2934.000000	1.783037 
2933.000000	1.776099 
2932.000000	1.769614 
2931.000000	1.763582 
2930.000000	1.758217 
2929.000000	1.753735 
2928.000000	1.750373 
2927.000000	1.748466 
2926.000000	1.748228 
2925.000000	1.749920 
2924.000000	1.753616 
2923.000000	1.759314 
2922.000000	1.766896 
2921.000000	1.776146 
2920.000000	1.786756 
2919.000000	1.798295 
2918.000000	1.810407 
2917.000000	1.822686 
2916.000000	1.834845 
2915.000000	1.846528 
2914.000000	1.857542 
2913.000000	1.867842 
2912.000000	1.877284 
2911.000000	1.885867 
2910.000000	1.893687 
2909.000000	1.900815 
2908.000000	1.907348 
2907.000000	1.913332 
2906.000000	1.918816 
2905.000000	1.923966 
2904.000000	1.928782 
2903.000000	1.933264 
2902.000000	1.937484 
2901.000000	1.941466 
2900.000000	1.945209 
2899.000000	1.948738 
2898.000000	1.952052 
2897.000000	1.955175 
2896.000000	1.958179 
2895.000000	1.961088 
2894.000000	1.963782 
2893.000000	1.966404 
2892.000000	1.968908 
2891.000000	1.971268 
2890.000000	1.973485 
2889.000000	1.975560 
2888.000000	1.977539 
2887.000000	1.979327 
2886.000000	1.980948 
2885.000000	1.982307 
2884.000000	1.983451 
2883.000000	1.984357 
2882.000000	1.984930 
2881.000000	1.985192 
2880.000000	1.985073 
2879.000000	1.984500 
2878.000000	1.983499 
2877.000000	1.981997 
2876.000000	1.979851 
2875.000000	1.977014 
2874.000000	1.973414 
2873.000000	1.968908 
2872.000000	1.963496 
2871.000000	1.957106 
2870.000000	1.949834 
2869.000000	1.941752 
2868.000000	1.933121 
2867.000000	1.924204 
2866.000000	1.915359 
2865.000000	1.907038 
2864.000000	1.899719 
2863.000000	1.893830 
2862.000000	1.889777 
2861.000000	1.887845 
2860.000000	1.888203 
2859.000000	1.890754 
2858.000000	1.895403 
2857.000000	1.901865 
2856.000000	1.909756 
2855.000000	1.918745 
2854.000000	1.928400 
2853.000000	1.938390 
2852.000000	1.948499 
2851.000000	1.958537 
2850.000000	1.968383 
2849.000000	1.977944 
2848.000000	1.987218 
2847.000000	1.996135 
2846.000000	2.004671 
2845.000000	2.012801 
2844.000000	2.020478 
2843.000000	2.027773 
2842.000000	2.034568 
2841.000000	2.040958 
2840.000000	2.046990 
2839.000000	2.052617 
2838.000000	2.057886 
2837.000000	2.062869 
2836.000000	2.067565 
2835.000000	2.071976 
2834.000000	2.076077 
2833.000000	2.079844 
2832.000000	2.083325 
2831.000000	2.086591 
2830.000000	2.089595 
2829.000000	2.092409 
2828.000000	2.095127 
2827.000000	2.097773 
2826.000000	2.100396 
2825.000000	2.103018 
2824.000000	2.105641 
2823.000000	2.108240 
2822.000000	2.110815 
2821.000000	2.113342 
2820.000000	2.115821 
2819.000000	2.118253 
2818.000000	2.120661 
2817.000000	2.123069 
2816.000000	2.125406 
2815.000000	2.127766 
2814.000000	2.130126 
2813.000000	2.132439 
2812.000000	2.134728 
2811.000000	2.136945 
2810.000000	2.139210 
2809.000000	2.141427 
2808.000000	2.143645 
2807.000000	2.145934 
2806.000000	2.148199 
2805.000000	2.150511 
2804.000000	2.152824 
2803.000000	2.155065 
2802.000000	2.157211 
2801.000000	2.159190 
2800.000000	2.160954 
2799.000000	2.162551 
2798.000000	2.164006 
2797.000000	2.165293 
2796.000000	2.166509 
2795.000000	2.167701 
2794.000000	2.168917 
2793.000000	2.170228 
2792.000000	2.171611 
2791.000000	2.173113 
2790.000000	2.174735 
2789.000000	2.176380 
2788.000000	2.178096 
2787.000000	2.179861 
2786.000000	2.181696 
2785.000000	2.183580 
2784.000000	2.185559 
2783.000000	2.187585 
2782.000000	2.189636 
2781.000000	2.191734 
2780.000000	2.193784 
2779.000000	2.195715 
2778.000000	2.197527 
2777.000000	2.199220 
2776.000000	2.200722 
2775.000000	2.202081 
2774.000000	2.203345 
2773.000000	2.204585 
2772.000000	2.205824 
2771.000000	2.207016 
2770.000000	2.208280 
2769.000000	2.209520 
2768.000000	2.210783 
2767.000000	2.212023 
2766.000000	2.213287 
2765.000000	2.214574 
2764.000000	2.215862 
2763.000000	2.217197 
2762.000000	2.218627 
2761.000000	2.220082 
2760.000000	2.221536 
2759.000000	2.222943 
2758.000000	2.224254 
2757.000000	2.225422 
2756.000000	2.226424 
2755.000000	2.227210 
2754.000000	2.227807 
2753.000000	2.228236 
2752.000000	2.228569 
2751.000000	2.228808 
2750.000000	2.228975 
2749.000000	2.229142 
2748.000000	2.229261 
2747.000000	2.229428 
2746.000000	2.229571 
2745.000000	2.229785 
2744.000000	2.230048 
2743.000000	2.230381 
2742.000000	2.230763 
2741.000000	2.231216 
2740.000000	2.231717 
2739.000000	2.232241 
2738.000000	2.232742 
2737.000000	2.233171 
2736.000000	2.233576 
2735.000000	2.233839 
2734.000000	2.233958 
2733.000000	2.234005 
2732.000000	2.233934 
2731.000000	2.233791 
2730.000000	2.233600 
2729.000000	2.233386 
2728.000000	2.233219 
2727.000000	2.233076 
2726.000000	2.233004 
2725.000000	2.233004 
2724.000000	2.233076 
2723.000000	2.233195 
2722.000000	2.233266 
2721.000000	2.233314 
2720.000000	2.233266 
2719.000000	2.233099 
2718.000000	2.232813 
2717.000000	2.232408 
2716.000000	2.231907 
2715.000000	2.231383 
2714.000000	2.230858 
2713.000000	2.230334 
2712.000000	2.229762 
2711.000000	2.229189 
2710.000000	2.228569 
2709.000000	2.227926 
2708.000000	2.227210 
2707.000000	2.226495 
2706.000000	2.225828 
2705.000000	2.225208 
2704.000000	2.224707 
2703.000000	2.224326 
2702.000000	2.224087 
2701.000000	2.223968 
2700.000000	2.223873 
2699.000000	2.223801 
2698.000000	2.223706 
2697.000000	2.223587 
2696.000000	2.223396 
2695.000000	2.223205 
2694.000000	2.223014 
2693.000000	2.222847 
2692.000000	2.222704 
2691.000000	2.222585 
2690.000000	2.222537 
2689.000000	2.222466 
2688.000000	2.222323 
2687.000000	2.222108 
2686.000000	2.221798 
2685.000000	2.221369 
2684.000000	2.220797 
2683.000000	2.220082 
2682.000000	2.219223 
2681.000000	2.218246 
2680.000000	2.217149 
2679.000000	2.216029 
2678.000000	2.214884 
2677.000000	2.213788 
2676.000000	2.212738 
2675.000000	2.211761 
2674.000000	2.210903 
2673.000000	2.210116 
2672.000000	2.209377 
2671.000000	2.208685 
2670.000000	2.207946 
2669.000000	2.207255 
2668.000000	2.206516 
2667.000000	2.205801 
2666.000000	2.205109 
2665.000000	2.204489 
2664.000000	2.203989 
2663.000000	2.203559 
2662.000000	2.203249 
2661.000000	2.202987 
2660.000000	2.202725 
2659.000000	2.202463 
2658.000000	2.202105 
2657.000000	2.201700 
2656.000000	2.201247 
2655.000000	2.200770 
2654.000000	2.200341 
2653.000000	2.199959 
2652.000000	2.199673 
2651.000000	2.199459 
2650.000000	2.199363 
2649.000000	2.199316 
2648.000000	2.199292 
2647.000000	2.199220 
2646.000000	2.199125 
2645.000000	2.198934 
2644.000000	2.198624 
2643.000000	2.198290 
2642.000000	2.197957 
2641.000000	2.197670 
2640.000000	2.197432 
2639.000000	2.197337 
2638.000000	2.197360 
2637.000000	2.197527 
2636.000000	2.197766 
2635.000000	2.198100 
2634.000000	2.198433 
2633.000000	2.198767 
2632.000000	2.199053 
2631.000000	2.199244 
2630.000000	2.199339 
2629.000000	2.199316 
2628.000000	2.199172 
2627.000000	2.198958 
2626.000000	2.198719 
2625.000000	2.198457 
2624.000000	2.198219 
2623.000000	2.198100 
2622.000000	2.198052 
2621.000000	2.198123 
2620.000000	2.198338 
2619.000000	2.198696 
2618.000000	2.199101 
2617.000000	2.199578 
2616.000000	2.200031 
2615.000000	2.200436 
2614.000000	2.200698 
2613.000000	2.200865 
2612.000000	2.200937 
2611.000000	2.200913 
2610.000000	2.200818 
2609.000000	2.200722 
2608.000000	2.200627 
2607.000000	2.200603 
2606.000000	2.200627 
2605.000000	2.200722 
2604.000000	2.200913 
2603.000000	2.201223 
2602.000000	2.201628 
2601.000000	2.202129 
2600.000000	2.202653 
2599.000000	2.203249 
2598.000000	2.203822 
2597.000000	2.204418 
2596.000000	2.204990 
2595.000000	2.205538 
2594.000000	2.206087 
2593.000000	2.206683 
2592.000000	2.207279 
2591.000000	2.207946 
2590.000000	2.208685 
2589.000000	2.209472 
2588.000000	2.210426 
2587.000000	2.211475 
2586.000000	2.212619 
2585.000000	2.213883 
2584.000000	2.215290 
2583.000000	2.216768 
2582.000000	2.218341 
2581.000000	2.219963 
2580.000000	2.221632 
2579.000000	2.223324 
2578.000000	2.225041 
2577.000000	2.226734 
2576.000000	2.228379 
2575.000000	2.229952 
2574.000000	2.231478 
2573.000000	2.232956 
2572.000000	2.234292 
2571.000000	2.235579 
2570.000000	2.236795 
2569.000000	2.237987 
2568.000000	2.239155 
2567.000000	2.240300 
2566.000000	2.241420 
2565.000000	2.242565 
2564.000000	2.243709 
2563.000000	2.244830 
2562.000000	2.245974 
2561.000000	2.247142 
2560.000000	2.248334 
2559.000000	2.249503 
2558.000000	2.250742 
2557.000000	2.251982 
2556.000000	2.253246 
2555.000000	2.254557 
2554.000000	2.255845 
2553.000000	2.257132 
2552.000000	2.258419 
2551.000000	2.259683 
2550.000000	2.260923 
2549.000000	2.262163 
2548.000000	2.263426 
2547.000000	2.264738 
2546.000000	2.266049 
2545.000000	2.267456 
2544.000000	2.268910 
2543.000000	2.270436 
2542.000000	2.272033 
2541.000000	2.273678 
2540.000000	2.275323 
2539.000000	2.276873 
2538.000000	2.278375 
2537.000000	2.279734 
2536.000000	2.280950 
2535.000000	2.281999 
2534.000000	2.282905 
2533.000000	2.283763 
2532.000000	2.284526 
2531.000000	2.285337 
2530.000000	2.286195 
2529.000000	2.287054 
2528.000000	2.287888 
2527.000000	2.288651 
2526.000000	2.289390 
2525.000000	2.289962 
2524.000000	2.290391 
2523.000000	2.290749 
2522.000000	2.291011 
2521.000000	2.291274 
2520.000000	2.291560 
2519.000000	2.291846 
2518.000000	2.292251 
2517.000000	2.292799 
2516.000000	2.293491 
2515.000000	2.294301 
2514.000000	2.295184 
2513.000000	2.296113 
2512.000000	2.296996 
2511.000000	2.297759 
2510.000000	2.298355 
2509.000000	2.298712 
2508.000000	2.298855 
2507.000000	2.298760 
2506.000000	2.298498 
2505.000000	2.298092 
2504.000000	2.297616 
2503.000000	2.297163 
2502.000000	2.296781 
2501.000000	2.296495 
2500.000000	2.296376 
2499.000000	2.296400 
2498.000000	2.296590 
2497.000000	2.296876 
2496.000000	2.297234 
2495.000000	2.297663 
2494.000000	2.298140 
2493.000000	2.298641 
2492.000000	2.299141 
2491.000000	2.299642 
2490.000000	2.300143 
2489.000000	2.300548 
2488.000000	2.300834 
2487.000000	2.300953 
2486.000000	2.300858 
2485.000000	2.300572 
2484.000000	2.300071 
2483.000000	2.299427 
2482.000000	2.298760 
2481.000000	2.298045 
2480.000000	2.297401 
2479.000000	2.296829 
2478.000000	2.296352 
2477.000000	2.295947 
2476.000000	2.295565 
2475.000000	2.295136 
2474.000000	2.294611 
2473.000000	2.293944 
2472.000000	2.293133 
2471.000000	2.292251 
2470.000000	2.291274 
2469.000000	2.290272 
2468.000000	2.289319 
2467.000000	2.288389 
2466.000000	2.287554 
2465.000000	2.286815 
2464.000000	2.286100 
2463.000000	2.285456 
2462.000000	2.284765 
2461.000000	2.284026 
2460.000000	2.283239 
2459.000000	2.282381 
2458.000000	2.281451 
2457.000000	2.280426 
2456.000000	2.279376 
2455.000000	2.278280 
2454.000000	2.277159 
2453.000000	2.276039 
2452.000000	2.274918 
2451.000000	2.273774 
2450.000000	2.272629 
2449.000000	2.271533 
2448.000000	2.270460 
2447.000000	2.269458 
2446.000000	2.268552 
2445.000000	2.267765 
2444.000000	2.267146 
2443.000000	2.266597 
2442.000000	2.266144 
2441.000000	2.265715 
2440.000000	2.265262 
2439.000000	2.264761 
2438.000000	2.264094 
2437.000000	2.263283 
2436.000000	2.262282 
2435.000000	2.261185 
2434.000000	2.259922 
2433.000000	2.258610 
2432.000000	2.257251 
2431.000000	2.255868 
2430.000000	2.254533 
2429.000000	2.253246 
2428.000000	2.252006 
2427.000000	2.250909 
2426.000000	2.249884 
2425.000000	2.248978 
2424.000000	2.248167 
2423.000000	2.247405 
2422.000000	2.246665 
2421.000000	2.245998 
2420.000000	2.245283 
2419.000000	2.244591 
2418.000000	2.243804 
2417.000000	2.242970 
2416.000000	2.242088 
2415.000000	2.241230 
2414.000000	2.240371 
2413.000000	2.239584 
2412.000000	2.238917 
2411.000000	2.238392 
2410.000000	2.238059 
2409.000000	2.237892 
2408.000000	2.237915 
2407.000000	2.238011 
2406.000000	2.238082 
2405.000000	2.238106 
2404.000000	2.237939 
2403.000000	2.237486 
2402.000000	2.236747 
2401.000000	2.235746 
2400.000000	2.234506 
2399.000000	2.233195 
2398.000000	2.231836 
2397.000000	2.230644 
2396.000000	2.229619 
2395.000000	2.228784 
2394.000000	2.228164 
2393.000000	2.227735 
2392.000000	2.227401 
2391.000000	2.227115 
2390.000000	2.226805 
2389.000000	2.226471 
2388.000000	2.226066 
2387.000000	2.225613 
2386.000000	2.225112 
2385.000000	2.224564 
2384.000000	2.224040 
2383.000000	2.223467 
2382.000000	2.222871 
2381.000000	2.222275 
2380.000000	2.221655 
2379.000000	2.221035 
2378.000000	2.220416 
2377.000000	2.219748 
2376.000000	2.219033 
2375.000000	2.218222 
2374.000000	2.217340 
2373.000000	2.216339 
2372.000000	2.215242 
2371.000000	2.214097 
2370.000000	2.212929 
2369.000000	2.211809 
2368.000000	2.210807 
2367.000000	2.209973 
2366.000000	2.209353 
2365.000000	2.208995 
2364.000000	2.208900 
2363.000000	2.209138 
2362.000000	2.209687 
2361.000000	2.210569 
2360.000000	2.211833 
2359.000000	2.213358 
2358.000000	2.215242 
2357.000000	2.217364 
2356.000000	2.219676 
2355.000000	2.222084 
2354.000000	2.224516 
2353.000000	2.226829 
2352.000000	2.228951 
2351.000000	2.230811 
2350.000000	2.232384 
2349.000000	2.233576 
2348.000000	2.234411 
2347.000000	2.235007 
2346.000000	2.235388 
2345.000000	2.235627 
2344.000000	2.235817 
2343.000000	2.236056 
2342.000000	2.236413 
2341.000000	2.236890 
2340.000000	2.237582 
2339.000000	2.238464 
2338.000000	2.239537 
2337.000000	2.240777 
2336.000000	2.242183 
2335.000000	2.243709 
2334.000000	2.245378 
2333.000000	2.247190 
2332.000000	2.249097 
2331.000000	2.251124 
2330.000000	2.253222 
2329.000000	2.255415 
2328.000000	2.257633 
2327.000000	2.259850 
2326.000000	2.262043 
2325.000000	2.264213 
2324.000000	2.266311 
2323.000000	2.268338 
2322.000000	2.270317 
2321.000000	2.272224 
2320.000000	2.274036 
2319.000000	2.275800 
2318.000000	2.277493 
2317.000000	2.279067 
2316.000000	2.280616 
2315.000000	2.282166 
2314.000000	2.283716 
2313.000000	2.285313 
2312.000000	2.286958 
2311.000000	2.288699 
2310.000000	2.290463 
2309.000000	2.292299 
2308.000000	2.294087 
2307.000000	2.295827 
2306.000000	2.297449 
2305.000000	2.298974 
2304.000000	2.300381 
2303.000000	2.301692 
2302.000000	2.303004 
2301.000000	2.304339 
2300.000000	2.305769 
2299.000000	2.307271 
2298.000000	2.308917 
2297.000000	2.310681 
2296.000000	2.312469 
2295.000000	2.314305 
2294.000000	2.316069 
2293.000000	2.317833 
2292.000000	2.319407 
2291.000000	2.320885 
2290.000000	2.322196 
2289.000000	2.323341 
2288.000000	2.324390 
2287.000000	2.325296 
2286.000000	2.326130 
2285.000000	2.326869 
2284.000000	2.327609 
2283.000000	2.328324 
2282.000000	2.329063 
2281.000000	2.329850 
2280.000000	2.330660 
2279.000000	2.331542 
2278.000000	2.332472 
2277.000000	2.333521 
2276.000000	2.334570 
2275.000000	2.335667 
2274.000000	2.336716 
2273.000000	2.337741 
2272.000000	2.338671 
2271.000000	2.339529 
2270.000000	2.340245 
2269.000000	2.340817 
2268.000000	2.341318 
2267.000000	2.341699 
2266.000000	2.341985 
2265.000000	2.342224 
2264.000000	2.342486 
2263.000000	2.342724 
2262.000000	2.343010 
2261.000000	2.343320 
2260.000000	2.343678 
2259.000000	2.344083 
2258.000000	2.344512 
2257.000000	2.344942 
2256.000000	2.345371 
2255.000000	2.345776 
2254.000000	2.346181 
2253.000000	2.346634 
2252.000000	2.347111 
2251.000000	2.347660 
2250.000000	2.348327 
2249.000000	2.349042 
2248.000000	2.349758 
2247.000000	2.350497 
2246.000000	2.351188 
2245.000000	2.351760 
2244.000000	2.352166 
2243.000000	2.352452 
2242.000000	2.352547 
2241.000000	2.352476 
2240.000000	2.352261 
2239.000000	2.351927 
2238.000000	2.351522 
2237.000000	2.351021 
2236.000000	2.350497 
2235.000000	2.349948 
2234.000000	2.349376 
2233.000000	2.348804 
2232.000000	2.348303 
2231.000000	2.347826 
2230.000000	2.347421 
2229.000000	2.347087 
2228.000000	2.346801 
2227.000000	2.346515 
2226.000000	2.346277 
2225.000000	2.346014 
2224.000000	2.345705 
2223.000000	2.345347 
2222.000000	2.344846 
2221.000000	2.344298 
2220.000000	2.343630 
2219.000000	2.342891 
2218.000000	2.342176 
2217.000000	2.341437 
2216.000000	2.340722 
2215.000000	2.340030 
2214.000000	2.339386 
2213.000000	2.338767 
2212.000000	2.338194 
2211.000000	2.337670 
2210.000000	2.337074 
2209.000000	2.336502 
2208.000000	2.335906 
2207.000000	2.335309 
2206.000000	2.334642 
2205.000000	2.333974 
2204.000000	2.333211 
2203.000000	2.332401 
2202.000000	2.331542 
2201.000000	2.330565 
2200.000000	2.329516 
2199.000000	2.328372 
2198.000000	2.327203 
2197.000000	2.325987 
2196.000000	2.324795 
2195.000000	2.323651 
2194.000000	2.322626 
2193.000000	2.321648 
2192.000000	2.320861 
2191.000000	2.320122 
2190.000000	2.319526 
2189.000000	2.318978 
2188.000000	2.318501 
2187.000000	2.318120 
2186.000000	2.317786 
2185.000000	2.317452 
2184.000000	2.317094 
2183.000000	2.316617 
2182.000000	2.316021 
2181.000000	2.315258 
2180.000000	2.314329 
2179.000000	2.313232 
2178.000000	2.312040 
2177.000000	2.310824 
2176.000000	2.309656 
2175.000000	2.308630 
2174.000000	2.307748 
2173.000000	2.307081 
2172.000000	2.306556 
2171.000000	2.306175 
2170.000000	2.305841 
2169.000000	2.305555 
2168.000000	2.305293 
2167.000000	2.305006 
2166.000000	2.304697 
2165.000000	2.304387 
2164.000000	2.304053 
2163.000000	2.303695 
2162.000000	2.303361 
2161.000000	2.303051 
2160.000000	2.302813 
2159.000000	2.302670 
2158.000000	2.302646 
2157.000000	2.302742 
2156.000000	2.302980 
2155.000000	2.303290 
2154.000000	2.303576 
2153.000000	2.303838 
2152.000000	2.303981 
2151.000000	2.304029 
2150.000000	2.303934 
2149.000000	2.303767 
2148.000000	2.303576 
2147.000000	2.303457 
2146.000000	2.303433 
2145.000000	2.303528 
2144.000000	2.303743 
2143.000000	2.303981 
2142.000000	2.304196 
2141.000000	2.304339 
2140.000000	2.304363 
2139.000000	2.304267 
2138.000000	2.304053 
2137.000000	2.303767 
2136.000000	2.303457 
2135.000000	2.303123 
2134.000000	2.302837 
2133.000000	2.302575 
2132.000000	2.302336 
2131.000000	2.302169 
2130.000000	2.302098 
2129.000000	2.302074 
2128.000000	2.302217 
2127.000000	2.302455 
2126.000000	2.302837 
2125.000000	2.303338 
2124.000000	2.303886 
2123.000000	2.304434 
2122.000000	2.304911 
2121.000000	2.305269 
2120.000000	2.305483 
2119.000000	2.305603 
2118.000000	2.305555 
2117.000000	2.305412 
2116.000000	2.305221 
2115.000000	2.305006 
2114.000000	2.304840 
2113.000000	2.304697 
2112.000000	2.304601 
2111.000000	2.304553 
2110.000000	2.304553 
2109.000000	2.304601 
2108.000000	2.304673 
2107.000000	2.304768 
2106.000000	2.304863 
2105.000000	2.304959 
2104.000000	2.305126 
2103.000000	2.305269 
2102.000000	2.305436 
2101.000000	2.305579 
2100.000000	2.305674 
2099.000000	2.305674 
2098.000000	2.305579 
2097.000000	2.305412 
2096.000000	2.305197 
2095.000000	2.304887 
2094.000000	2.304625 
2093.000000	2.304410 
2092.000000	2.304291 
2091.000000	2.304315 
2090.000000	2.304506 
2089.000000	2.304863 
2088.000000	2.305388 
2087.000000	2.306079 
2086.000000	2.306914 
2085.000000	2.307796 
2084.000000	2.308702 
2083.000000	2.309608 
2082.000000	2.310419 
2081.000000	2.311182 
2080.000000	2.311873 
2079.000000	2.312588 
2078.000000	2.313375 
2077.000000	2.314281 
2076.000000	2.315425 
2075.000000	2.316808 
2074.000000	2.318453 
2073.000000	2.320361 
2072.000000	2.322459 
2071.000000	2.324676 
2070.000000	2.327013 
2069.000000	2.329397 
2068.000000	2.331852 
2067.000000	2.334284 
2066.000000	2.336692 
2065.000000	2.339076 
2064.000000	2.341437 
2063.000000	2.343630 
2062.000000	2.345800 
2061.000000	2.347826 
2060.000000	2.349734 
2059.000000	2.351498 
2058.000000	2.353191 
2057.000000	2.354884 
2056.000000	2.356576 
2055.000000	2.358317 
2054.000000	2.360153 
2053.000000	2.362084 
2052.000000	2.364110 
2051.000000	2.366185 
2050.000000	2.368283 
2049.000000	2.370357 
2048.000000	2.372336 
2047.000000	2.374219 
2046.000000	2.376031 
2045.000000	2.377748 
2044.000000	2.379369 
2043.000000	2.380919 
2042.000000	2.382493 
2041.000000	2.384018 
2040.000000	2.385616 
2039.000000	2.387261 
2038.000000	2.388906 
2037.000000	2.390575 
2036.000000	2.392220 
2035.000000	2.393841 
2034.000000	2.395367 
2033.000000	2.396798 
2032.000000	2.398157 
2031.000000	2.399420 
2030.000000	2.400565 
2029.000000	2.401638 
2028.000000	2.402663 
2027.000000	2.403616 
2026.000000	2.404546 
2025.000000	2.405452 
2024.000000	2.406358 
2023.000000	2.407264 
2022.000000	2.408170 
2021.000000	2.409100 
2020.000000	2.410030 
2019.000000	2.410984 
2018.000000	2.411913 
2017.000000	2.412796 
2016.000000	2.413630 
2015.000000	2.414441 
2014.000000	2.415180 
2013.000000	2.415847 
2012.000000	2.416443 
2011.000000	2.417016 
2010.000000	2.417540 
2009.000000	2.417993 
2008.000000	2.418422 
2007.000000	2.418804 
2006.000000	2.419137 
2005.000000	2.419447 
2004.000000	2.419757 
2003.000000	2.419996 
2002.000000	2.420258 
2001.000000	2.420496 
2000.000000	2.420711 
1999.000000	2.420878 
1998.000000	2.420997 
1997.000000	2.421069 
1996.000000	2.421021 
1995.000000	2.420926 
1994.000000	2.420711 
1993.000000	2.420425 
1992.000000	2.420115 
1991.000000	2.419734 
1990.000000	2.419304 
1989.000000	2.418851 
1988.000000	2.418422 
1987.000000	2.417969 
1986.000000	2.417564 
1985.000000	2.417135 
1984.000000	2.416682 
1983.000000	2.416205 
1982.000000	2.415657 
1981.000000	2.415037 
1980.000000	2.414298 
1979.000000	2.413439 
1978.000000	2.412462 
1977.000000	2.411413 
1976.000000	2.410316 
1975.000000	2.409148 
1974.000000	2.407956 
1973.000000	2.406740 
1972.000000	2.405548 
1971.000000	2.404403 
1970.000000	2.403354 
1969.000000	2.402329 
1968.000000	2.401375 
1967.000000	2.400517 
1966.000000	2.399730 
1965.000000	2.398967 
1964.000000	2.398276 
1963.000000	2.397584 
1962.000000	2.396917 
1961.000000	2.396321 
1960.000000	2.395725 
1959.000000	2.395153 
1958.000000	2.394676 
1957.000000	2.394223 
1956.000000	2.393770 
1955.000000	2.393269 
1954.000000	2.392745 
1953.000000	2.392077 
1952.000000	2.391242 
1951.000000	2.390265 
1950.000000	2.389121 
1949.000000	2.387905 
1948.000000	2.386641 
1947.000000	2.385449 
1946.000000	2.384305 
1945.000000	2.383303 
1944.000000	2.382469 
1943.000000	2.381753 
1942.000000	2.381134 
1941.000000	2.380609 
1940.000000	2.380061 
1939.000000	2.379536 
1938.000000	2.378964 
1937.000000	2.378320 
1936.000000	2.377605 
1935.000000	2.376842 
1934.000000	2.375936 
1933.000000	2.374958 
1932.000000	2.373886 
1931.000000	2.372717 
1930.000000	2.371478 
1929.000000	2.370190 
1928.000000	2.368831 
1927.000000	2.367424 
1926.000000	2.365970 
1925.000000	2.364468 
1924.000000	2.362942 
1923.000000	2.361440 
1922.000000	2.359962 
1921.000000	2.358555 
1920.000000	2.357268 
1919.000000	2.356100 
1918.000000	2.355051 
1917.000000	2.354121 
1916.000000	2.353286 
1915.000000	2.352452 
1914.000000	2.351689 
1913.000000	2.350902 
1912.000000	2.350044 
1911.000000	2.349185 
1910.000000	2.348256 
1909.000000	2.347278 
1908.000000	2.346253 
1907.000000	2.345228 
1906.000000	2.344179 
1905.000000	2.343082 
1904.000000	2.341961 
1903.000000	2.340817 
1902.000000	2.339696 
1901.000000	2.338600 
1900.000000	2.337527 
1899.000000	2.336502 
1898.000000	2.335596 
1897.000000	2.334761 
1896.000000	2.334046 
1895.000000	2.333474 
1894.000000	2.332997 
1893.000000	2.332687 
1892.000000	2.332496 
1891.000000	2.332496 
1890.000000	2.332639 
1889.000000	2.332973 
1888.000000	2.333402 
1887.000000	2.333974 
1886.000000	2.334642 
1885.000000	2.335333 
1884.000000	2.336025 
1883.000000	2.336692 
1882.000000	2.337265 
1881.000000	2.337789 
1880.000000	2.338242 
1879.000000	2.338624 
1878.000000	2.338910 
1877.000000	2.339124 
1876.000000	2.339291 
1875.000000	2.339386 
1874.000000	2.339434 
1873.000000	2.339410 
1872.000000	2.339410 
1871.000000	2.339434 
1870.000000	2.339601 
1869.000000	2.339887 
1868.000000	2.340316 
1867.000000	2.341008 
1866.000000	2.341794 
1865.000000	2.342677 
1864.000000	2.343583 
1863.000000	2.344489 
1862.000000	2.345347 
1861.000000	2.346110 
1860.000000	2.346825 
1859.000000	2.347493 
1858.000000	2.348160 
1857.000000	2.348875 
1856.000000	2.349638 
1855.000000	2.350473 
1854.000000	2.351331 
1853.000000	2.352118 
1852.000000	2.352833 
1851.000000	2.353405 
1850.000000	2.353835 
1849.000000	2.354145 
1848.000000	2.354407 
1847.000000	2.354764 
1846.000000	2.355289 
1845.000000	2.356100 
1844.000000	2.357196 
1843.000000	2.358627 
1842.000000	2.360248 
1841.000000	2.362036 
1840.000000	2.363705 
1839.000000	2.365207 
1838.000000	2.366399 
1837.000000	2.367186 
1836.000000	2.367544 
1835.000000	2.367615 
1834.000000	2.367424 
1833.000000	2.367186 
1832.000000	2.366971 
1831.000000	2.366971 
1830.000000	2.367258 
1829.000000	2.367877 
1828.000000	2.368831 
1827.000000	2.370023 
1826.000000	2.371454 
1825.000000	2.373003 
1824.000000	2.374672 
1823.000000	2.376341 
1822.000000	2.377963 
1821.000000	2.379465 
1820.000000	2.380895 
1819.000000	2.382206 
1818.000000	2.383422 
1817.000000	2.384519 
1816.000000	2.385568 
1815.000000	2.386569 
1814.000000	2.387547 
1813.000000	2.388501 
1812.000000	2.389430 
1811.000000	2.390289 
1810.000000	2.391004 
1809.000000	2.391576 
1808.000000	2.391958 
1807.000000	2.392172 
1806.000000	2.392172 
1805.000000	2.391982 
1804.000000	2.391695 
1803.000000	2.391314 
1802.000000	2.390909 
1801.000000	2.390527 
1800.000000	2.390122 
1799.000000	2.389693 
1798.000000	2.389240 
1797.000000	2.388787 
1796.000000	2.388334 
1795.000000	2.387905 
1794.000000	2.387547 
1793.000000	2.387332 
1792.000000	2.387332 
1791.000000	2.387499 
1790.000000	2.387857 
1789.000000	2.388334 
1788.000000	2.388882 
1787.000000	2.389359 
1786.000000	2.389812 
1785.000000	2.390146 
1784.000000	2.390384 
1783.000000	2.390480 
1782.000000	2.390360 
1781.000000	2.390050 
1780.000000	2.389454 
1779.000000	2.388501 
1778.000000	2.387166 
1777.000000	2.385473 
1776.000000	2.383470 
1775.000000	2.381277 
1774.000000	2.379155 
1773.000000	2.377223 
1772.000000	2.375674 
1771.000000	2.374577 
1770.000000	2.373957 
1769.000000	2.373671 
1768.000000	2.373552 
1767.000000	2.373456 
1766.000000	2.373218 
1765.000000	2.372789 
1764.000000	2.372145 
1763.000000	2.371263 
1762.000000	2.370190 
1761.000000	2.369022 
1760.000000	2.367734 
1759.000000	2.366304 
1758.000000	2.364587 
1757.000000	2.362585 
1756.000000	2.360272 
1755.000000	2.357578 
1754.000000	2.354621 
1753.000000	2.351474 
1752.000000	2.348279 
1751.000000	2.345132 
1750.000000	2.342128 
1749.000000	2.339243 
1748.000000	2.336502 
1747.000000	2.333831 
1746.000000	2.331089 
1745.000000	2.328205 
1744.000000	2.325034 
1743.000000	2.321505 
1742.000000	2.317547 
1741.000000	2.313137 
1740.000000	2.308344 
1739.000000	2.303409 
1738.000000	2.298474 
1737.000000	2.293920 
1736.000000	2.290034 
1735.000000	2.287125 
1734.000000	2.285361 
1733.000000	2.284741 
1732.000000	2.285194 
1731.000000	2.286458 
1730.000000	2.288222 
1729.000000	2.289986 
1728.000000	2.291440 
1727.000000	2.292203 
1726.000000	2.292013 
1725.000000	2.290821 
1724.000000	2.288579 
1723.000000	2.285432 
1722.000000	2.281689 
1721.000000	2.277588 
1720.000000	2.273464 
1719.000000	2.269744 
1718.000000	2.266645 
1717.000000	2.264428 
1716.000000	2.263069 
1715.000000	2.262520 
1714.000000	2.262520 
1713.000000	2.262783 
1712.000000	2.262902 
1711.000000	2.262544 
1710.000000	2.261447 
1709.000000	2.259421 
1708.000000	2.256488 
1707.000000	2.252674 
1706.000000	2.248144 
1705.000000	2.243089 
1704.000000	2.237820 
1703.000000	2.232551 
1702.000000	2.227592 
1701.000000	2.223205 
1700.000000	2.219724 
1699.000000	2.217268 
1698.000000	2.216005 
1697.000000	2.215886 
1696.000000	2.216744 
1695.000000	2.218222 
1694.000000	2.219915 
1693.000000	2.221298 
1692.000000	2.221965 
1691.000000	2.221536 
1690.000000	2.219986 
1689.000000	2.217411 
1688.000000	2.214121 
1687.000000	2.210617 
1686.000000	2.207326 
1685.000000	2.204680 
1684.000000	2.202939 
1683.000000	2.202105 
1682.000000	2.202081 
1681.000000	2.202510 
1680.000000	2.203059 
1679.000000	2.203345 
1678.000000	2.203178 
1677.000000	2.202439 
1676.000000	2.201128 
1675.000000	2.199530 
1674.000000	2.197670 
1673.000000	2.195811 
1672.000000	2.194023 
1671.000000	2.192378 
1670.000000	2.190828 
1669.000000	2.189350 
1668.000000	2.187848 
1667.000000	2.186298 
1666.000000	2.184653 
1665.000000	2.182865 
1664.000000	2.180886 
1663.000000	2.178549 
1662.000000	2.175712 
1661.000000	2.172207 
1660.000000	2.167868 
1659.000000	2.162623 
1658.000000	2.156591 
1657.000000	2.150034 
1656.000000	2.143359 
1655.000000	2.137041 
1654.000000	2.131509 
1653.000000	2.127122 
1652.000000	2.124071 
1651.000000	2.122354 
1650.000000	2.121877 
1649.000000	2.122282 
1648.000000	2.123260 
1647.000000	2.124452 
1646.000000	2.125525 
1645.000000	2.126193 
1644.000000	2.126169 
1643.000000	2.125334 
1642.000000	2.123665 
1641.000000	2.121210 
1640.000000	2.118110 
1639.000000	2.114605 
1638.000000	2.111053 
1637.000000	2.107763 
1636.000000	2.104973 
1635.000000	2.102851 
1634.000000	2.101325 
1633.000000	2.100253 
1632.000000	2.099418 
1631.000000	2.098417 
1630.000000	2.096986 
1629.000000	2.094912 
1628.000000	2.092075 
1627.000000	2.088427 
1626.000000	2.084040 
1625.000000	2.078962 
1624.000000	2.073192 
1623.000000	2.066874 
1622.000000	2.059984 
1621.000000	2.052593 
1620.000000	2.044653 
1619.000000	2.036166 
1618.000000	2.027225 
1617.000000	2.017831 
1616.000000	2.008104 
1615.000000	1.998138 
1614.000000	1.988101 
1613.000000	1.978302 
1612.000000	1.969003 
1611.000000	1.960539 
1610.000000	1.953268 
1609.000000	1.947522 
1608.000000	1.943540 
1607.000000	1.941418 
1606.000000	1.941084 
1605.000000	1.942372 
1604.000000	1.945042 
1603.000000	1.948642 
1602.000000	1.952838 
1601.000000	1.957297 
1600.000000	1.961731 
1599.000000	1.965928 
1598.000000	1.969766 
1597.000000	1.973128 
1596.000000	1.975941 
1595.000000	1.978182 
1594.000000	1.979780 
1593.000000	1.980829 
1592.000000	1.981306 
1591.000000	1.981306 
1590.000000	1.980924 
1589.000000	1.980257 
1588.000000	1.979351 
1587.000000	1.978302 
1586.000000	1.977062 
1585.000000	1.975512 
1584.000000	1.973652 
1583.000000	1.971411 
1582.000000	1.968812 
1581.000000	1.965904 
1580.000000	1.962804 
1579.000000	1.959657 
1578.000000	1.956748 
1577.000000	1.954221 
1576.000000	1.952123 
1575.000000	1.950621 
1574.000000	1.949596 
1573.000000	1.948976 
1572.000000	1.948523 
1571.000000	1.948022 
1570.000000	1.947164 
1569.000000	1.945614 
1568.000000	1.943135 
1567.000000	1.939511 
1566.000000	1.934647 
1565.000000	1.928710 
1564.000000	1.921844 
1563.000000	1.914691 
1562.000000	1.907777 
1561.000000	1.901769 
1560.000000	1.897335 
1559.000000	1.894879 
1558.000000	1.894593 
1557.000000	1.896452 
1556.000000	1.900100 
1555.000000	1.904964 
1554.000000	1.910400 
1553.000000	1.915740 
1552.000000	1.920437 
1551.000000	1.924061 
1550.000000	1.926398 
1549.000000	1.927471 
1548.000000	1.927423 
1547.000000	1.926636 
1546.000000	1.925563 
1545.000000	1.924800 
1544.000000	1.924991 
1543.000000	1.926732 
1542.000000	1.930522 
1541.000000	1.936697 
1540.000000	1.945257 
1539.000000	1.956081 
1538.000000	1.968789 
1537.000000	1.982688 
1536.000000	1.997160 
1535.000000	2.011442 
1534.000000	2.024984 
1533.000000	2.037191 
1532.000000	2.047801 
1531.000000	2.056646 
1530.000000	2.063727 
1529.000000	2.069044 
1528.000000	2.072763 
1527.000000	2.075099 
1526.000000	2.076363 
1525.000000	2.076721 
1524.000000	2.076458 
1523.000000	2.075815 
1522.000000	2.075004 
1521.000000	2.074146 
1520.000000	2.073311 
1519.000000	2.072453 
1518.000000	2.071571 
1517.000000	2.070498 
1516.000000	2.069091 
1515.000000	2.067136 
1514.000000	2.064466 
1513.000000	2.060961 
1512.000000	2.056550 
1511.000000	2.051091 
1510.000000	2.044653 
1509.000000	2.036905 
1508.000000	2.027559 
1507.000000	2.016019 
1506.000000	2.001619 
1505.000000	1.983428 
1504.000000	1.960706 
1503.000000	1.932930 
1502.000000	1.900029 
1501.000000	1.862645 
1500.000000	1.822185 
1499.000000	1.780724 
1498.000000	1.740813 
1497.000000	1.705193 
1496.000000	1.676487 
1495.000000	1.656675 
1494.000000	1.646924 
1493.000000	1.647543 
1492.000000	1.657938 
1491.000000	1.676607 
1490.000000	1.701593 
1489.000000	1.730656 
1488.000000	1.761794 
1487.000000	1.792907 
1486.000000	1.822519 
1485.000000	1.849436 
1484.000000	1.872992 
1483.000000	1.892828 
1482.000000	1.908922 
1481.000000	1.921415 
1480.000000	1.930618 
1479.000000	1.937031 
1478.000000	1.941251 
1477.000000	1.943707 
1476.000000	1.944899 
1475.000000	1.945281 
1474.000000	1.945185 
1473.000000	1.944684 
1472.000000	1.943826 
1471.000000	1.942658 
1470.000000	1.940989 
1469.000000	1.938581 
1468.000000	1.935195 
1467.000000	1.930713 
1466.000000	1.924848 
1465.000000	1.917409 
1464.000000	1.908159 
1463.000000	1.896977 
1462.000000	1.883816 
1461.000000	1.868724 
1460.000000	1.851916 
1459.000000	1.833748 
1458.000000	1.814866 
1457.000000	1.796174 
1456.000000	1.778459 
1455.000000	1.762700 
1454.000000	1.749944 
1453.000000	1.740980 
1452.000000	1.736283 
1451.000000	1.736044 
1450.000000	1.740097 
1449.000000	1.747870 
1448.000000	1.758456 
1447.000000	1.770710 
1446.000000	1.783537 
1445.000000	1.795840 
1444.000000	1.806783 
1443.000000	1.815819 
1442.000000	1.822733 
1441.000000	1.827692 
1440.000000	1.831054 
1439.000000	1.833271 
1438.000000	1.834869 
1437.000000	1.836276 
1436.000000	1.837658 
1435.000000	1.839160 
1434.000000	1.840710 
1433.000000	1.842164 
1432.000000	1.843404 
1431.000000	1.844334 
1430.000000	1.844739 
1429.000000	1.844668 
1428.000000	1.844096 
1427.000000	1.843047 
1426.000000	1.841473 
1425.000000	1.839518 
1424.000000	1.837229 
1423.000000	1.834654 
1422.000000	1.831912 
1421.000000	1.829051 
1420.000000	1.826190 
1419.000000	1.823353 
1418.000000	1.820421 
1417.000000	1.817250 
1416.000000	1.813554 
1415.000000	1.809024 
1414.000000	1.803374 
1413.000000	1.796269 
1412.000000	1.787543 
1411.000000	1.777291 
1410.000000	1.765727 
1409.000000	1.753377 
1408.000000	1.740789 
1407.000000	1.728820 
1406.000000	1.718115 
1405.000000	1.709437 
1404.000000	1.703238 
1403.000000	1.699900 
1402.000000	1.699423 
1401.000000	1.701688 
1400.000000	1.706314 
1399.000000	1.712775 
1398.000000	1.720523 
1397.000000	1.728916 
1396.000000	1.737260 
1395.000000	1.745033 
1394.000000	1.751685 
1393.000000	1.756882 
1392.000000	1.760387 
1391.000000	1.762151 
1390.000000	1.762390 
1389.000000	1.761388 
1388.000000	1.759648 
1387.000000	1.757764 
1386.000000	1.756215 
1385.000000	1.755475 
1384.000000	1.755809 
1383.000000	1.757216 
1382.000000	1.759696 
1381.000000	1.762914 
1380.000000	1.766538 
1379.000000	1.770257 
1378.000000	1.773858 
1377.000000	1.777148 
1376.000000	1.779961 
1375.000000	1.782321 
1374.000000	1.784276 
1373.000000	1.785826 
1372.000000	1.786994 
1371.000000	1.787877 
1370.000000	1.788425 
1369.000000	1.788735 
1368.000000	1.788806 
1367.000000	1.788735 
1366.000000	1.788592 
1365.000000	1.788425 
1364.000000	1.788306 
1363.000000	1.788258 
1362.000000	1.788258 
1361.000000	1.788282 
1360.000000	1.788330 
1359.000000	1.788306 
1358.000000	1.788234 
1357.000000	1.788020 
1356.000000	1.787710 
1355.000000	1.787281 
1354.000000	1.786804 
1353.000000	1.786327 
1352.000000	1.785874 
1351.000000	1.785469 
1350.000000	1.785230 
1349.000000	1.785111 
1348.000000	1.785111 
1347.000000	1.785230 
1346.000000	1.785445 
1345.000000	1.785755 
1344.000000	1.786208 
1343.000000	1.786732 
1342.000000	1.787424 
1341.000000	1.788330 
1340.000000	1.789498 
1339.000000	1.791024 
1338.000000	1.792836 
1337.000000	1.794958 
1336.000000	1.797366 
1335.000000	1.799964 
1334.000000	1.802682 
1333.000000	1.805377 
1332.000000	1.808023 
1331.000000	1.810526 
1330.000000	1.812791 
1329.000000	1.814818 
1328.000000	1.816558 
1327.000000	1.817989 
1326.000000	1.819109 
1325.000000	1.819968 
1324.000000	1.820635 
1323.000000	1.821112 
1322.000000	1.821541 
1321.000000	1.821947 
1320.000000	1.822400 
1319.000000	1.822900 
1318.000000	1.823472 
1317.000000	1.824092 
1316.000000	1.824712 
1315.000000	1.825237 
1314.000000	1.825666 
1313.000000	1.825976 
1312.000000	1.826095 
1311.000000	1.826071 
1310.000000	1.825928 
1309.000000	1.825737 
1308.000000	1.825475 
1307.000000	1.825189 
1306.000000	1.824903 
1305.000000	1.824641 
1304.000000	1.824426 
1303.000000	1.824259 
1302.000000	1.824188 
1301.000000	1.824188 
1300.000000	1.824259 
1299.000000	1.824450 
1298.000000	1.824712 
1297.000000	1.824998 
1296.000000	1.825261 
1295.000000	1.825499 
1294.000000	1.825714 
1293.000000	1.825785 
1292.000000	1.825809 
1291.000000	1.825714 
1290.000000	1.825571 
1289.000000	1.825332 
1288.000000	1.825070 
1287.000000	1.824641 
1286.000000	1.824069 
1285.000000	1.823306 
1284.000000	1.822352 
1283.000000	1.821112 
1282.000000	1.819586 
1281.000000	1.817774 
1280.000000	1.815629 
1279.000000	1.813077 
1278.000000	1.810050 
1277.000000	1.806497 
1276.000000	1.802182 
1275.000000	1.797008 
1274.000000	1.790809 
1273.000000	1.783466 
1272.000000	1.774930 
1271.000000	1.765251 
1270.000000	1.754570 
1269.000000	1.743197 
1268.000000	1.731586 
1267.000000	1.720213 
1266.000000	1.709699 
1265.000000	1.700663 
1264.000000	1.693677 
1263.000000	1.689195 
1262.000000	1.687526 
1261.000000	1.688742 
1260.000000	1.692795 
1259.000000	1.699352 
1258.000000	1.707911 
1257.000000	1.717925 
1256.000000	1.728773 
1255.000000	1.739835 
1254.000000	1.750564 
1253.000000	1.760578 
1252.000000	1.769614 
1251.000000	1.777482 
1250.000000	1.784181 
1249.000000	1.789712 
1248.000000	1.794195 
1247.000000	1.797723 
1246.000000	1.800441 
1245.000000	1.802468 
1244.000000	1.803994 
1243.000000	1.805090 
1242.000000	1.805806 
1241.000000	1.806259 
1240.000000	1.806497 
1239.000000	1.806545 
1238.000000	1.806402 
1237.000000	1.806116 
1236.000000	1.805663 
1235.000000	1.805043 
1234.000000	1.804280 
1233.000000	1.803302 
1232.000000	1.802158 
1231.000000	1.800823 
1230.000000	1.799321 
1229.000000	1.797652 
1228.000000	1.795792 
1227.000000	1.793742 
1226.000000	1.791453 
1225.000000	1.788949 
1224.000000	1.786136 
1223.000000	1.782989 
1222.000000	1.779508 
1221.000000	1.775670 
1220.000000	1.771497 
1219.000000	1.767039 
1218.000000	1.762342 
1217.000000	1.757502 
1216.000000	1.752614 
1215.000000	1.747775 
1214.000000	1.743149 
1213.000000	1.738810 
1212.000000	1.734876 
1211.000000	1.731371 
1210.000000	1.728391 
1209.000000	1.725888 
1208.000000	1.723933 
1207.000000	1.722431 
1206.000000	1.721334 
1205.000000	1.720619 
1204.000000	1.720190 
1203.000000	1.720023 
1202.000000	1.720070 
1201.000000	1.720190 
1200.000000	1.720333 
1199.000000	1.720452 
1198.000000	1.720404 
1197.000000	1.720166 
1196.000000	1.719617 
1195.000000	1.718783 
1194.000000	1.717710 
1193.000000	1.716351 
1192.000000	1.714825 
1191.000000	1.713109 
1190.000000	1.711201 
1189.000000	1.709103 
1188.000000	1.706814 
1187.000000	1.704311 
1186.000000	1.701688 
1185.000000	1.698899 
1184.000000	1.696014 
1183.000000	1.693081 
1182.000000	1.690196 
1181.000000	1.687359 
1180.000000	1.684617 
1179.000000	1.681923 
1178.000000	1.679277 
1177.000000	1.676630 
1176.000000	1.673913 
1175.000000	1.671099 
1174.000000	1.668119 
1173.000000	1.664876 
1172.000000	1.661419 
1171.000000	1.657700 
1170.000000	1.653671 
1169.000000	1.649451 
1168.000000	1.644968 
1167.000000	1.640272 
1166.000000	1.635384 
1165.000000	1.630330 
1164.000000	1.625227 
1163.000000	1.620125 
1162.000000	1.615142 
1161.000000	1.610422 
1160.000000	1.606154 
1159.000000	1.602387 
1158.000000	1.599216 
1157.000000	1.596641 
1156.000000	1.594662 
1155.000000	1.593184 
1154.000000	1.592111 
1153.000000	1.591277 
1152.000000	1.590585 
1151.000000	1.589846 
1150.000000	1.589012 
1149.000000	1.587891 
1148.000000	1.586532 
1147.000000	1.584911 
1146.000000	1.582980 
1145.000000	1.580834 
1144.000000	1.578426 
1143.000000	1.575827 
1142.000000	1.573061 
1141.000000	1.570153 
1140.000000	1.567053 
1139.000000	1.563787 
1138.000000	1.560378 
1137.000000	1.556801 
1136.000000	1.553058 
1135.000000	1.549220 
1134.000000	1.545238 
1133.000000	1.541161 
1132.000000	1.536965 
1131.000000	1.532721 
1130.000000	1.528382 
1129.000000	1.523971 
1128.000000	1.519489 
1127.000000	1.514863 
1126.000000	1.510143 
1125.000000	1.505279 
1124.000000	1.500272 
1123.000000	1.495170 
1122.000000	1.489901 
1121.000000	1.484537 
1120.000000	1.479148 
1119.000000	1.473712 
1118.000000	1.468253 
1117.000000	1.462817 
1116.000000	1.457405 
1115.000000	1.452064 
1114.000000	1.446819 
1113.000000	1.441740 
1112.000000	1.436829 
1111.000000	1.432180 
1110.000000	1.427865 
1109.000000	1.424002 
1108.000000	1.420569 
1107.000000	1.417636 
1106.000000	1.415228 
1105.000000	1.413369 
1104.000000	1.411914 
1103.000000	1.410794 
1102.000000	1.409888 
1101.000000	1.409077 
1100.000000	1.408338 
1099.000000	1.407599 
1098.000000	1.406836 
1097.000000	1.406073 
1096.000000	1.405358 
1095.000000	1.404809 
1094.000000	1.404404 
1093.000000	1.404285 
1092.000000	1.404452 
1091.000000	1.404929 
1090.000000	1.405668 
1089.000000	1.406598 
1088.000000	1.407623 
1087.000000	1.408624 
1086.000000	1.409459 
1085.000000	1.410079 
1084.000000	1.410365 
1083.000000	1.410365 
1082.000000	1.410031 
1081.000000	1.409530 
1080.000000	1.408958 
1079.000000	1.408386 
1078.000000	1.407980 
1077.000000	1.407837 
1076.000000	1.408028 
1075.000000	1.408529 
1074.000000	1.409363 
1073.000000	1.410460 
1072.000000	1.411771 
1071.000000	1.413106 
1070.000000	1.414346 
1069.000000	1.415419 
1068.000000	1.416230 
1067.000000	1.416707 
1066.000000	1.416778 
1065.000000	1.416325 
1064.000000	1.415181 
1063.000000	1.413226 
1062.000000	1.410102 
1061.000000	1.405429 
1060.000000	1.398873 
1059.000000	1.390099 
1058.000000	1.378989 
1057.000000	1.365685 
1056.000000	1.350736 
1055.000000	1.334977 
1054.000000	1.319479 
1053.000000	1.305532 
1052.000000	1.294302 
1051.000000	1.286792 
1050.000000	1.283574 
1049.000000	1.284670 
1048.000000	1.289772 
1047.000000	1.297950 
1046.000000	1.308226 
1045.000000	1.319432 
1044.000000	1.330542 
1043.000000	1.340651 
1042.000000	1.349186 
1041.000000	1.355910 
1040.000000	1.360774 
1039.000000	1.363945 
1038.000000	1.365685 
1037.000000	1.366281 
1036.000000	1.366043 
1035.000000	1.365208 
1034.000000	1.363945 
1033.000000	1.362323 
1032.000000	1.360511 
1031.000000	1.358532 
1030.000000	1.356339 
1029.000000	1.354002 
1028.000000	1.351594 
1027.000000	1.349091 
1026.000000	1.346611 
1025.000000	1.344227 
1024.000000	1.342105 
1023.000000	1.340341 
1022.000000	1.339101 
1021.000000	1.338458 
1020.000000	1.338481 
1019.000000	1.339101 
1018.000000	1.340293 
1017.000000	1.341986 
1016.000000	1.344108 
1015.000000	1.346540 
1014.000000	1.349234 
1013.000000	1.352167 
1012.000000	1.355290 
1011.000000	1.358485 
1010.000000	1.361751 
1009.000000	1.365017 
1008.000000	1.368141 
1007.000000	1.371073 
1006.000000	1.373624 
1005.000000	1.375818 
1004.000000	1.377534 
1003.000000	1.378798 
1002.000000	1.379656 
1001.000000	1.380109 
1000.000000	1.380300 
999.000000	 1.380252 
998.000000	 1.379990 
997.000000	 1.379561 
996.000000	 1.379013 
995.000000	 1.378273 
994.000000	 1.377367 
993.000000	 1.376318 
992.000000	 1.375102 
991.000000	 1.373720 
990.000000	 1.372218 
989.000000	 1.370549 
988.000000	 1.368784 
987.000000	 1.366877 
986.000000	 1.364946 
985.000000	 1.362895 
984.000000	 1.360797 
983.000000	 1.358699 
982.000000	 1.356577 
981.000000	 1.354408 
980.000000	 1.352238 
979.000000	 1.350092 
978.000000	 1.347923 
977.000000	 1.345705 
976.000000	 1.343441 
975.000000	 1.341080 
974.000000	 1.338648 
973.000000	 1.336026 
972.000000	 1.333355 
971.000000	 1.330566 
970.000000	 1.327681 
969.000000	 1.324677 
968.000000	 1.321625 
967.000000	 1.318478 
966.000000	 1.315259 
965.000000	 1.311945 
964.000000	 1.308536 
963.000000	 1.305055 
962.000000	 1.301503 
961.000000	 1.297926 
960.000000	 1.294374 
959.000000	 1.290798 
958.000000	 1.287293 
957.000000	 1.283836 
956.000000	 1.280474 
955.000000	 1.277136 
954.000000	 1.273941 
953.000000	 1.270842 
952.000000	 1.267862 
951.000000	 1.264977 
950.000000	 1.262187 
949.000000	 1.259493 
948.000000	 1.256942 
947.000000	 1.254463 
946.000000	 1.252055 
945.000000	 1.249742 
944.000000	 1.247501 
943.000000	 1.245427 
942.000000	 1.243472 
941.000000	 1.241636 
940.000000	 1.239943 
939.000000	 1.238346 
938.000000	 1.236820 
937.000000	 1.235270 
936.000000	 1.233625 
935.000000	 1.231884 
934.000000	 1.229953 
933.000000	 1.227855 
932.000000	 1.225590 
931.000000	 1.223230 
930.000000	 1.220798 
929.000000	 1.218390 
928.000000	 1.216006 
927.000000	 1.213717 
926.000000	 1.211500 
925.000000	 1.209306 
924.000000	 1.207137 
923.000000	 1.204919 
922.000000	 1.202607 
921.000000	 1.200127 
920.000000	 1.197433 
919.000000	 1.194524 
918.000000	 1.191329 
917.000000	 1.187849 
916.000000	 1.184153 
915.000000	 1.180171 
914.000000	 1.176095 
913.000000	 1.171898 
912.000000	 1.167702 
911.000000	 1.163578 
910.000000	 1.159644 
909.000000	 1.155948 
908.000000	 1.152563 
907.000000	 1.149535 
906.000000	 1.146841 
905.000000	 1.144528 
904.000000	 1.142573 
903.000000	 1.140904 
902.000000	 1.139569 
901.000000	 1.138448 
900.000000	 1.137471 
899.000000	 1.136660 
898.000000	 1.135849 
897.000000	 1.134967 
896.000000	 1.133894 
895.000000	 1.132535 
894.000000	 1.130676 
893.000000	 1.128292 
892.000000	 1.125216 
891.000000	 1.121377 
890.000000	 1.116704 
889.000000	 1.111102 
888.000000	 1.104593 
887.000000	 1.097178 
886.000000	 1.088929 
885.000000	 1.080036 
884.000000	 1.070666 
883.000000	 1.061105 
882.000000	 1.051616 
881.000000	 1.042628 
880.000000	 1.034474 
879.000000	 1.027441 
878.000000	 1.021838 
877.000000	 1.017832 
876.000000	 1.015591 
875.000000	 1.015162 
874.000000	 1.016473 
873.000000	 1.019382 
872.000000	 1.023626 
871.000000	 1.028966 
870.000000	 1.035022 
869.000000	 1.041460 
868.000000	 1.047921 
867.000000	 1.054120 
866.000000	 1.059794 
865.000000	 1.064729 
864.000000	 1.068854 
863.000000	 1.072120 
862.000000	 1.074552 
861.000000	 1.076197 
860.000000	 1.077103 
859.000000	 1.077461 
858.000000	 1.077318 
857.000000	 1.076769 
856.000000	 1.075911 
855.000000	 1.074814 
854.000000	 1.073575 
853.000000	 1.072263 
852.000000	 1.070880 
851.000000	 1.069474 
850.000000	 1.068067 
849.000000	 1.066613 
848.000000	 1.065135 
847.000000	 1.063537 
846.000000	 1.061820 
845.000000	 1.059889 
844.000000	 1.057624 
843.000000	 1.054978 
842.000000	 1.051735 
841.000000	 1.047778 
840.000000	 1.042866 
839.000000	 1.036858 
838.000000	 1.029443 
837.000000	 1.020407 
836.000000	 1.009607 
835.000000	 0.996851 
834.000000	 0.982093 
833.000000	 0.965499 
832.000000	 0.947284 
831.000000	 0.927948 
830.000000	 0.908136 
829.000000	 0.888752 
828.000000	 0.870847 
827.000000	 0.855350 
826.000000	 0.843262 
825.000000	 0.835227 
824.000000	 0.831675 
823.000000	 0.832605 
822.000000	 0.837635 
821.000000	 0.846052 
820.000000	 0.856852 
819.000000	 0.869083 
818.000000	 0.881671 
817.000000	 0.893735 
816.000000	 0.904607 
815.000000	 0.913786 
814.000000	 0.921177 
813.000000	 0.926685 
812.000000	 0.930500 
811.000000	 0.932860 
810.000000	 0.934004 
809.000000	 0.934243 
808.000000	 0.933837 
807.000000	 0.933027 
806.000000	 0.932025 
805.000000	 0.930953 
804.000000	 0.929999 
803.000000	 0.929260 
802.000000	 0.928854 
801.000000	 0.928783 
800.000000	 0.929093 
799.000000	 0.929832 
798.000000	 0.931000 
797.000000	 0.932526 
796.000000	 0.934433 
795.000000	 0.936698 
794.000000	 0.939202 
793.000000	 0.941944 
792.000000	 0.944805 
791.000000	 0.947690 
790.000000	 0.950551 
789.000000	 0.953245 
788.000000	 0.955724 
787.000000	 0.957942 
786.000000	 0.959873 
785.000000	 0.961494 
784.000000	 0.962805 
783.000000	 0.963735 
782.000000	 0.964403 
781.000000	 0.964760 
780.000000	 0.964879 
779.000000	 0.964784 
778.000000	 0.964498 
777.000000	 0.964093 
776.000000	 0.963544 
775.000000	 0.962924 
774.000000	 0.962257 
773.000000	 0.961518 
772.000000	 0.960803 
771.000000	 0.960111 
770.000000	 0.959420 
769.000000	 0.958704 
768.000000	 0.957989 
767.000000	 0.957274 
766.000000	 0.956535 
765.000000	 0.955748 
764.000000	 0.954866 
763.000000	 0.953936 
762.000000	 0.952887 
761.000000	 0.951766 
760.000000	 0.950551 
759.000000	 0.949192 
758.000000	 0.947785 
757.000000	 0.946259 
756.000000	 0.944662 
755.000000	 0.942993 
754.000000	 0.941252 
753.000000	 0.939583 
752.000000	 0.937914 
751.000000	 0.936412 
750.000000	 0.935077 
749.000000	 0.933861 
748.000000	 0.932812 
747.000000	 0.931787 
746.000000	 0.930714 
745.000000	 0.929498 
744.000000	 0.928044 
743.000000	 0.926327 
742.000000	 0.924324 
741.000000	 0.922083 
740.000000	 0.919628 
739.000000	 0.917053 
738.000000	 0.914454 
737.000000	 0.911855 
736.000000	 0.909280 
735.000000	 0.906825 
734.000000	 0.904393 
733.000000	 0.901961 
732.000000	 0.899529 
731.000000	 0.897002 
730.000000	 0.894427 
729.000000	 0.891709 
728.000000	 0.888895 
727.000000	 0.886034 
726.000000	 0.883150 
725.000000	 0.880312 
724.000000	 0.877523 
723.000000	 0.874805 
722.000000	 0.872206 
721.000000	 0.869703 
720.000000	 0.867247 
719.000000	 0.864839 
718.000000	 0.862336 
717.000000	 0.859761 
716.000000	 0.857067 
715.000000	 0.854182 
714.000000	 0.851178 
713.000000	 0.847983 
712.000000	 0.844693 
711.000000	 0.841283 
710.000000	 0.837826 
709.000000	 0.834345 
708.000000	 0.830864 
707.000000	 0.827431 
706.000000	 0.824022 
705.000000	 0.820636 
704.000000	 0.817203 
703.000000	 0.813722 
702.000000	 0.810098 
701.000000	 0.806307 
700.000000	 0.802254 
699.000000	 0.797843 
698.000000	 0.793004 
697.000000	 0.787615 
696.000000	 0.781607 
695.000000	 0.774979 
694.000000	 0.767850 
693.000000	 0.760316 
692.000000	 0.752663 
691.000000	 0.745201 
690.000000	 0.738263 
689.000000	 0.732278 
688.000000	 0.727438 
687.000000	 0.723934 
686.000000	 0.721764 
685.000000	 0.720810 
684.000000	 0.720810 
683.000000	 0.721454 
682.000000	 0.722312 
681.000000	 0.723147 
680.000000	 0.723695 
679.000000	 0.723791 
678.000000	 0.723409 
677.000000	 0.722575 
676.000000	 0.721311 
675.000000	 0.719761 
674.000000	 0.717926 
673.000000	 0.715970 
672.000000	 0.713825 
671.000000	 0.711607 
670.000000	 0.709271 
669.000000	 0.706887 
668.000000	 0.704431 
667.000000	 0.701951 
666.000000	 0.699496 
665.000000	 0.697135 
664.000000	 0.694870 
663.000000	 0.692749 
662.000000	 0.690770 
661.000000	 0.688886 
660.000000	 0.687074 
659.000000	 0.685238 
658.000000	 0.683355 
657.000000	 0.681328 
656.000000	 0.679135 
655.000000	 0.676727 
654.000000	 0.674176 
653.000000	 0.671410 
652.000000	 0.668573 
651.000000	 0.665640 
650.000000	 0.662684 
649.000000	 0.659704 
648.000000	 0.656723 
647.000000	 0.653743 
646.000000	 0.650763 
645.000000	 0.647735 
644.000000	 0.644731 
643.000000	 0.641703 
642.000000	 0.638651 
641.000000	 0.635623 
640.000000	 0.632643 
639.000000	 0.629782 
638.000000	 0.627088 
637.000000	 0.624513 
636.000000	 0.622057 
635.000000	 0.619769 
634.000000	 0.617599 
633.000000	 0.615525 
632.000000	 0.613498 
631.000000	 0.611472 
630.000000	 0.609445 
629.000000	 0.607395 
628.000000	 0.605273 
627.000000	 0.603032 
626.000000	 0.600719 
625.000000	 0.598335 
624.000000	 0.595855 
623.000000	 0.593304 
622.000000	 0.590610 
621.000000	 0.587797 
620.000000	 0.584793 
619.000000	 0.581574 
618.000000	 0.578093 
617.000000	 0.574302 
616.000000	 0.570154 
615.000000	 0.565600 
614.000000	 0.560688 
613.000000	 0.555443 
612.000000	 0.549960 
611.000000	 0.544309 
610.000000	 0.538706 
609.000000	 0.533342 
608.000000	 0.528407 
607.000000	 0.524067 
606.000000	 0.520467 
605.000000	 0.517678 
604.000000	 0.515747 
603.000000	 0.514626 
602.000000	 0.514149 
601.000000	 0.514149 
600.000000	 0.514507 
599.000000	 0.514984 
598.000000	 0.515389 
597.000000	 0.515651 
596.000000	 0.515532 
595.000000	 0.515103 
594.000000	 0.514316 
593.000000	 0.513172 
592.000000	 0.511765 
591.000000	 0.510144 
590.000000	 0.508451 
589.000000	 0.506687 
588.000000	 0.504994 
587.000000	 0.503444 
586.000000	 0.502014 
585.000000	 0.500702 
584.000000	 0.499558 
583.000000	 0.498533 
582.000000	 0.497579 
581.000000	 0.496673 
580.000000	 0.495815 
579.000000	 0.494980 
578.000000	 0.494170 
577.000000	 0.493383 
576.000000	 0.492620 
575.000000	 0.491905 
574.000000	 0.491213 
573.000000	 0.490474 
572.000000	 0.489711 
571.000000	 0.488901 
570.000000	 0.487971 
569.000000	 0.486946 
568.000000	 0.485754 
567.000000	 0.484490 
566.000000	 0.483131 
565.000000	 0.481677 
564.000000	 0.480175 
563.000000	 0.478601 
562.000000	 0.477004 
561.000000	 0.475406 
560.000000	 0.473785 
559.000000	 0.472164 
558.000000	 0.470519 
557.000000	 0.468850 
556.000000	 0.467133 
555.000000	 0.465416 
554.000000	 0.463628 
553.000000	 0.461769 
552.000000	 0.459837 
551.000000	 0.457835 
550.000000	 0.455832 
549.000000	 0.453805 
548.000000	 0.451803 
547.000000	 0.449848 
546.000000	 0.447988 
545.000000	 0.446200 
544.000000	 0.444483 
543.000000	 0.442790 
542.000000	 0.441074 
541.000000	 0.439238 
540.000000	 0.437307 
539.000000	 0.435256 
538.000000	 0.433087 
537.000000	 0.430822 
536.000000	 0.428509 
535.000000	 0.426244 
534.000000	 0.424075 
533.000000	 0.421929 
532.000000	 0.419831 
531.000000	 0.417733 
530.000000	 0.415611 
529.000000	 0.413393 
528.000000	 0.411057 
527.000000	 0.408625 
526.000000	 0.406098 
525.000000	 0.403523 
524.000000	 0.400924 
523.000000	 0.398373 
522.000000	 0.395917 
521.000000	 0.393533 
520.000000	 0.391221 
519.000000	 0.389027 
518.000000	 0.386905 
517.000000	 0.384855 
516.000000	 0.382900 
515.000000	 0.380969 
514.000000	 0.379085 
513.000000	 0.377154 
512.000000	 0.375199 
511.000000	 0.373125 
510.000000	 0.370907 
509.000000	 0.368452 
508.000000	 0.365829 
507.000000	 0.362992 
506.000000	 0.359988 
505.000000	 0.356864 
504.000000	 0.353670 
503.000000	 0.350403 
502.000000	 0.347137 
501.000000	 0.343894 
500.000000	 0.340676 
499.000000	 0.337553 
498.000000	 0.334453 
497.000000	 0.331425 
496.000000	 0.328421 
495.000000	 0.325441 
494.000000	 0.322413 
493.000000	 0.319337 
492.000000	 0.316143 
491.000000	 0.312757 
490.000000	 0.309157 
489.000000	 0.305366 
488.000000	 0.301408 
487.000000	 0.297284 
486.000000	 0.293135 
485.000000	 0.288987 
484.000000	 0.284957 
483.000000	 0.281071 
482.000000	 0.277352 
481.000000	 0.273919 
480.000000	 0.270724 
479.000000	 0.267791 
478.000000	 0.265049 
477.000000	 0.262427 
476.000000	 0.259923 
475.000000	 0.257420 
474.000000	 0.254821 
473.000000	 0.252127 
472.000000	 0.249242 
471.000000	 0.246262 
470.000000	 0.243115 
469.000000	 0.239872 
468.000000	 0.236582 
467.000000	 0.233292 
466.000000	 0.230026 
465.000000	 0.226783 
464.000000	 0.223517 
463.000000	 0.220274 
462.000000	 0.216984 
461.000000	 0.213623 
460.000000	 0.210142 
459.000000	 0.206565 
458.000000	 0.202846 
457.000000	 0.199007 
456.000000	 0.195097 
455.000000	 0.191140 
454.000000	 0.187253 
453.000000	 0.183439 
452.000000	 0.179791 
451.000000	 0.176382 
450.000000	 0.173234 
449.000000	 0.170350 
448.000000	 0.167727 
447.000000	 0.165319 
446.000000	 0.163054 
445.000000	 0.160884 
444.000000	 0.158715 
443.000000	 0.156497 
442.000000	 0.154185 
441.000000	 0.151753 
440.000000	 0.149154 
439.000000	 0.146365 
438.000000	 0.143480 
437.000000	 0.140428 
436.000000	 0.137186 
435.000000	 0.133800 
434.000000	 0.130319 
433.000000	 0.126743 
432.000000	 0.123119 
431.000000	 0.119471 
430.000000	 0.115871 
429.000000	 0.112342 
428.000000	 0.108933 
427.000000	 0.105619 
426.000000	 0.102424 
425.000000	 0.099301 
424.000000	 0.096249 
423.000000	 0.093245 
422.000000	 0.090336 
421.000000	 0.087475 
420.000000	 0.084710 
419.000000	 0.082039 
418.000000	 0.079441 
417.000000	 0.076937 
416.000000	 0.074481 
415.000000	 0.072050 
414.000000	 0.069594 
413.000000	 0.067090 
412.000000	 0.064563 
411.000000	 0.061988 
410.000000	 0.059413 
409.000000	 0.056862 
408.000000	 0.054430 
407.000000	 0.052118 
406.000000	 0.049996 
405.000000	 0.048041 
404.000000	 0.046300 
403.000000	 0.044631 
402.000000	 0.043034 
401.000000	 0.041437 
400.000000	 0.039768 
399.000000	 0.038051 
398.000000	 0.036239 
397.000000	 0.034379 
396.000000	 0.032472 
395.000000	 0.030636 
394.000000	 0.028872 
393.000000	 0.027298 
392.000000	 0.025820 
391.000000	 0.024509 
390.000000	 0.023317 
389.000000	 0.022220 
388.000000	 0.021147 
387.000000	 0.020074 
386.000000	 0.018978 
385.000000	 0.017809 
384.000000	 0.016593 
383.000000	 0.015330 
382.000000	 0.014114 
381.000000	 0.012969 
380.000000	 0.011920 
379.000000	 0.011062 
378.000000	 0.010395 
377.000000	 0.009918 
376.000000	 0.009608 
375.000000	 0.009369 
374.000000	 0.009131 
373.000000	 0.008869 
372.000000	 0.008463 
371.000000	 0.007915 
370.000000	 0.007271 

