PE IR       SPECTRUM    SPECTRUM    ASCII       PEDS        1.60        
  -1
LP09BB~1.ASC
17/05/16
21:38:07.00
17/05/16
21:38:07.00
tln
$LPE453_e0126$<ebV0>[-23.3,12.1,10.0,0.0,27,1,0]
370.000000
64









2002,4.07    
MIRTGS : RIGHTBACK : INTERNAL 2
MIR : ON : INTERNAL 2
OPTKBR

0.200000
8
8.000000
FILLER
SINGLE
SPECTRUM
UNLOCKED 256

DOUBLE

COMBINED
1
0
0


1.000000
BACKG


1
0
TRUE
51149
0
LEFT NOT FITTED RIGHT NOT FITTED 0
NONE
NONE
15600
12.000000
4.427000
51148
TRUE
1 0 8 72 0 0 0 0 

15798.010000






#HDR
-1
-1
#GR
CM-1
EGY
0.00002384185791015625
0.0
5000.000000
-1.000000
4631
8
2.420759
0.009417
#DATA
5000.000000	0.769877 
4999.000000	0.770664 
4998.000000	0.771260 
4997.000000	0.771760 
4996.000000	0.772142 
4995.000000	0.772452 
4994.000000	0.772786 
4993.000000	0.773167 
4992.000000	0.773620 
4991.000000	0.774216 
4990.000000	0.774908 
4989.000000	0.775694 
4988.000000	0.776505 
4987.000000	0.777268 
4986.000000	0.777959 
4985.000000	0.778460 
4984.000000	0.778770 
4983.000000	0.778913 
4982.000000	0.778865 
4981.000000	0.778675 
4980.000000	0.778460 
4979.000000	0.778269 
4978.000000	0.778102 
4977.000000	0.778031 
4976.000000	0.778055 
4975.000000	0.778126 
4974.000000	0.778293 
4973.000000	0.778508 
4972.000000	0.778794 
4971.000000	0.779151 
4970.000000	0.779557 
4969.000000	0.780057 
4968.000000	0.780558 
4967.000000	0.781106 
4966.000000	0.781583 
4965.000000	0.781989 
4964.000000	0.782299 
4963.000000	0.782489 
4962.000000	0.782656 
4961.000000	0.782775 
4960.000000	0.782942 
4959.000000	0.783157 
4958.000000	0.783443 
4957.000000	0.783824 
4956.000000	0.784325 
4955.000000	0.784802 
4954.000000	0.785279 
4953.000000	0.785708 
4952.000000	0.786066 
4951.000000	0.786399 
4950.000000	0.786709 
4949.000000	0.787019 
4948.000000	0.787377 
4947.000000	0.787949 
4946.000000	0.788617 
4945.000000	0.789427 
4944.000000	0.790309 
4943.000000	0.791239 
4942.000000	0.792169 
4941.000000	0.792980 
4940.000000	0.793647 
4939.000000	0.794196 
4938.000000	0.794649 
4937.000000	0.795054 
4936.000000	0.795435 
4935.000000	0.795888 
4934.000000	0.796413 
4933.000000	0.797057 
4932.000000	0.797772 
4931.000000	0.798535 
4930.000000	0.799274 
4929.000000	0.799918 
4928.000000	0.800418 
4927.000000	0.800704 
4926.000000	0.800848 
4925.000000	0.800800 
4924.000000	0.800681 
4923.000000	0.800538 
4922.000000	0.800395 
4921.000000	0.800323 
4920.000000	0.800395 
4919.000000	0.800609 
4918.000000	0.800991 
4917.000000	0.801491 
4916.000000	0.802040 
4915.000000	0.802636 
4914.000000	0.803232 
4913.000000	0.803804 
4912.000000	0.804376 
4911.000000	0.804924 
4910.000000	0.805473 
4909.000000	0.806045 
4908.000000	0.806617 
4907.000000	0.807166 
4906.000000	0.807642 
4905.000000	0.808000 
4904.000000	0.808262 
4903.000000	0.808358 
4902.000000	0.808286 
4901.000000	0.808095 
4900.000000	0.807857 
4899.000000	0.807595 
4898.000000	0.807332 
4897.000000	0.807166 
4896.000000	0.807094 
4895.000000	0.807213 
4894.000000	0.807523 
4893.000000	0.808000 
4892.000000	0.808620 
4891.000000	0.809407 
4890.000000	0.810265 
4889.000000	0.811147 
4888.000000	0.812005 
4887.000000	0.812745 
4886.000000	0.813388 
4885.000000	0.813889 
4884.000000	0.814270 
4883.000000	0.814604 
4882.000000	0.814890 
4881.000000	0.815248 
4880.000000	0.815653 
4879.000000	0.816226 
4878.000000	0.816917 
4877.000000	0.817823 
4876.000000	0.818848 
4875.000000	0.819993 
4874.000000	0.821161 
4873.000000	0.822329 
4872.000000	0.823450 
4871.000000	0.824427 
4870.000000	0.825285 
4869.000000	0.825905 
4868.000000	0.826382 
4867.000000	0.826692 
4866.000000	0.826883 
4865.000000	0.827002 
4864.000000	0.827097 
4863.000000	0.827193 
4862.000000	0.827336 
4861.000000	0.827503 
4860.000000	0.827717 
4859.000000	0.827932 
4858.000000	0.828146 
4857.000000	0.828385 
4856.000000	0.828552 
4855.000000	0.828695 
4854.000000	0.828790 
4853.000000	0.828886 
4852.000000	0.829029 
4851.000000	0.829148 
4850.000000	0.829339 
4849.000000	0.829577 
4848.000000	0.829887 
4847.000000	0.830268 
4846.000000	0.830721 
4845.000000	0.831270 
4844.000000	0.831913 
4843.000000	0.832700 
4842.000000	0.833582 
4841.000000	0.834608 
4840.000000	0.835680 
4839.000000	0.836777 
4838.000000	0.837826 
4837.000000	0.838732 
4836.000000	0.839424 
4835.000000	0.839924 
4834.000000	0.840210 
4833.000000	0.840353 
4832.000000	0.840425 
4831.000000	0.840497 
4830.000000	0.840735 
4829.000000	0.841164 
4828.000000	0.841808 
4827.000000	0.842666 
4826.000000	0.843667 
4825.000000	0.844740 
4824.000000	0.845766 
4823.000000	0.846648 
4822.000000	0.847434 
4821.000000	0.848078 
4820.000000	0.848650 
4819.000000	0.849223 
4818.000000	0.849866 
4817.000000	0.850605 
4816.000000	0.851464 
4815.000000	0.852441 
4814.000000	0.853514 
4813.000000	0.854563 
4812.000000	0.855541 
4811.000000	0.856375 
4810.000000	0.856995 
4809.000000	0.857496 
4808.000000	0.857877 
4807.000000	0.858139 
4806.000000	0.858402 
4805.000000	0.858664 
4804.000000	0.858974 
4803.000000	0.859332 
4802.000000	0.859665 
4801.000000	0.860071 
4800.000000	0.860500 
4799.000000	0.860977 
4798.000000	0.861525 
4797.000000	0.862169 
4796.000000	0.862956 
4795.000000	0.863885 
4794.000000	0.864934 
4793.000000	0.866127 
4792.000000	0.867319 
4791.000000	0.868558 
4790.000000	0.869774 
4789.000000	0.870943 
4788.000000	0.872063 
4787.000000	0.873112 
4786.000000	0.874090 
4785.000000	0.874972 
4784.000000	0.875806 
4783.000000	0.876450 
4782.000000	0.876975 
4781.000000	0.877380 
4780.000000	0.877618 
4779.000000	0.877833 
4778.000000	0.878000 
4777.000000	0.878214 
4776.000000	0.878524 
4775.000000	0.879025 
4774.000000	0.879621 
4773.000000	0.880265 
4772.000000	0.880932 
4771.000000	0.881576 
4770.000000	0.882148 
4769.000000	0.882601 
4768.000000	0.882983 
4767.000000	0.883340 
4766.000000	0.883746 
4765.000000	0.884222 
4764.000000	0.884795 
4763.000000	0.885415 
4762.000000	0.886034 
4761.000000	0.886631 
4760.000000	0.887060 
4759.000000	0.887274 
4758.000000	0.887298 
4757.000000	0.887155 
4756.000000	0.886821 
4755.000000	0.886416 
4754.000000	0.885987 
4753.000000	0.885581 
4752.000000	0.885295 
4751.000000	0.885176 
4750.000000	0.885152 
4749.000000	0.885343 
4748.000000	0.885725 
4747.000000	0.886321 
4746.000000	0.887084 
4745.000000	0.887966 
4744.000000	0.888919 
4743.000000	0.889921 
4742.000000	0.890922 
4741.000000	0.891804 
4740.000000	0.892591 
4739.000000	0.893211 
4738.000000	0.893735 
4737.000000	0.894093 
4736.000000	0.894308 
4735.000000	0.894474 
4734.000000	0.894546 
4733.000000	0.894618 
4732.000000	0.894689 
4731.000000	0.894784 
4730.000000	0.894927 
4729.000000	0.895118 
4728.000000	0.895380 
4727.000000	0.895667 
4726.000000	0.896024 
4725.000000	0.896382 
4724.000000	0.896787 
4723.000000	0.897192 
4722.000000	0.897574 
4721.000000	0.897955 
4720.000000	0.898313 
4719.000000	0.898694 
4718.000000	0.899052 
4717.000000	0.899434 
4716.000000	0.899815 
4715.000000	0.900244 
4714.000000	0.900721 
4713.000000	0.901174 
4712.000000	0.901675 
4711.000000	0.902104 
4710.000000	0.902533 
4709.000000	0.902891 
4708.000000	0.903224 
4707.000000	0.903463 
4706.000000	0.903654 
4705.000000	0.903868 
4704.000000	0.904059 
4703.000000	0.904250 
4702.000000	0.904488 
4701.000000	0.904774 
4700.000000	0.905036 
4699.000000	0.905346 
4698.000000	0.905656 
4697.000000	0.905942 
4696.000000	0.906205 
4695.000000	0.906443 
4694.000000	0.906634 
4693.000000	0.906848 
4692.000000	0.906944 
4691.000000	0.907039 
4690.000000	0.907111 
4689.000000	0.907158 
4688.000000	0.907230 
4687.000000	0.907373 
4686.000000	0.907635 
4685.000000	0.907993 
4684.000000	0.908493 
4683.000000	0.909090 
4682.000000	0.909709 
4681.000000	0.910234 
4680.000000	0.910544 
4679.000000	0.910592 
4678.000000	0.910329 
4677.000000	0.909757 
4676.000000	0.909042 
4675.000000	0.908350 
4674.000000	0.907826 
4673.000000	0.907683 
4672.000000	0.908088 
4671.000000	0.909090 
4670.000000	0.910639 
4669.000000	0.912642 
4668.000000	0.914835 
4667.000000	0.917005 
4666.000000	0.918841 
4665.000000	0.920081 
4664.000000	0.920605 
4663.000000	0.920343 
4662.000000	0.919342 
4661.000000	0.917768 
4660.000000	0.915789 
4659.000000	0.913619 
4658.000000	0.911521 
4657.000000	0.909638 
4656.000000	0.907993 
4655.000000	0.906729 
4654.000000	0.905752 
4653.000000	0.905084 
4652.000000	0.904726 
4651.000000	0.904703 
4650.000000	0.904989 
4649.000000	0.905609 
4648.000000	0.906538 
4647.000000	0.907659 
4646.000000	0.908803 
4645.000000	0.909852 
4644.000000	0.910615 
4643.000000	0.911116 
4642.000000	0.911331 
4641.000000	0.911402 
4640.000000	0.911474 
4639.000000	0.911617 
4638.000000	0.911879 
4637.000000	0.912213 
4636.000000	0.912475 
4635.000000	0.912475 
4634.000000	0.911998 
4633.000000	0.911116 
4632.000000	0.909876 
4631.000000	0.908613 
4630.000000	0.907707 
4629.000000	0.907492 
4628.000000	0.908231 
4627.000000	0.909996 
4626.000000	0.912547 
4625.000000	0.915646 
4624.000000	0.918698 
4623.000000	0.921368 
4622.000000	0.923299 
4621.000000	0.924348 
4620.000000	0.924563 
4619.000000	0.924181 
4618.000000	0.923418 
4617.000000	0.922560 
4616.000000	0.921702 
4615.000000	0.920891 
4614.000000	0.920104 
4613.000000	0.919198 
4612.000000	0.918173 
4611.000000	0.916981 
4610.000000	0.915694 
4609.000000	0.914502 
4608.000000	0.913572 
4607.000000	0.913095 
4606.000000	0.913214 
4605.000000	0.914025 
4604.000000	0.915575 
4603.000000	0.917840 
4602.000000	0.920796 
4601.000000	0.924277 
4600.000000	0.928187 
4599.000000	0.932240 
4598.000000	0.936269 
4597.000000	0.940060 
4596.000000	0.943350 
4595.000000	0.946021 
4594.000000	0.947928 
4593.000000	0.949072 
4592.000000	0.949597 
4591.000000	0.949454 
4590.000000	0.948834 
4589.000000	0.947785 
4588.000000	0.946450 
4587.000000	0.944828 
4586.000000	0.943112 
4585.000000	0.941276 
4584.000000	0.939559 
4583.000000	0.938105 
4582.000000	0.937080 
4581.000000	0.936603 
4580.000000	0.936722 
4579.000000	0.937485 
4578.000000	0.938820 
4577.000000	0.940465 
4576.000000	0.942254 
4575.000000	0.944018 
4574.000000	0.945615 
4573.000000	0.946998 
4572.000000	0.948143 
4571.000000	0.949072 
4570.000000	0.949835 
4569.000000	0.950407 
4568.000000	0.950837 
4567.000000	0.951075 
4566.000000	0.951147 
4565.000000	0.951051 
4564.000000	0.950860 
4563.000000	0.950622 
4562.000000	0.950551 
4561.000000	0.950741 
4560.000000	0.951266 
4559.000000	0.952219 
4558.000000	0.953602 
4557.000000	0.955343 
4556.000000	0.957369 
4555.000000	0.959587 
4554.000000	0.961995 
4553.000000	0.964474 
4552.000000	0.967025 
4551.000000	0.969529 
4550.000000	0.971841 
4549.000000	0.973844 
4548.000000	0.975441 
4547.000000	0.976490 
4546.000000	0.977110 
4545.000000	0.977349 
4544.000000	0.977420 
4543.000000	0.977492 
4542.000000	0.977754 
4541.000000	0.978207 
4540.000000	0.978946 
4539.000000	0.979948 
4538.000000	0.981092 
4537.000000	0.982332 
4536.000000	0.983548 
4535.000000	0.984692 
4534.000000	0.985717 
4533.000000	0.986528 
4532.000000	0.987148 
4531.000000	0.987577 
4530.000000	0.987958 
4529.000000	0.988411 
4528.000000	0.989151 
4527.000000	0.990343 
4526.000000	0.992274 
4525.000000	0.995016 
4524.000000	0.998449 
4523.000000	1.002335 
4522.000000	1.006317 
4521.000000	1.010012 
4520.000000	1.013040 
4519.000000	1.015186 
4518.000000	1.016139 
4517.000000	1.015758 
4516.000000	1.013684 
4515.000000	1.009607 
4514.000000	1.003098 
4513.000000	0.993800 
4512.000000	0.981497 
4511.000000	0.966262 
4510.000000	0.948715 
4509.000000	0.929760 
4508.000000	0.910735 
4507.000000	0.893115 
4506.000000	0.878500 
4505.000000	0.868153 
4504.000000	0.863313 
4503.000000	0.864505 
4502.000000	0.872063 
4501.000000	0.885725 
4500.000000	0.904822 
4499.000000	0.928139 
4498.000000	0.953888 
4497.000000	0.979828 
4496.000000	1.003313 
4495.000000	1.021790 
4494.000000	1.033067 
4493.000000	1.035737 
4492.000000	1.029634 
4491.000000	1.015973 
4490.000000	0.997161 
4489.000000	0.976395 
4488.000000	0.957107 
4487.000000	0.942301 
4486.000000	0.934052 
4485.000000	0.932955 
4484.000000	0.938415 
4483.000000	0.948596 
4482.000000	0.961232 
4481.000000	0.973987 
4480.000000	0.985002 
4479.000000	0.993204 
4478.000000	0.998282 
4477.000000	1.000738 
4476.000000	1.001310 
4475.000000	1.000928 
4474.000000	1.000332 
4473.000000	0.999855 
4472.000000	0.999712 
4471.000000	0.999760 
4470.000000	0.999927 
4469.000000	1.000070 
4468.000000	1.000237 
4467.000000	1.000475 
4466.000000	1.001071 
4465.000000	1.002097 
4464.000000	1.003527 
4463.000000	1.005339 
4462.000000	1.007390 
4461.000000	1.009416 
4460.000000	1.011300 
4459.000000	1.012802 
4458.000000	1.013803 
4457.000000	1.014375 
4456.000000	1.014518 
4455.000000	1.014256 
4454.000000	1.013636 
4453.000000	1.012730 
4452.000000	1.011753 
4451.000000	1.010799 
4450.000000	1.010036 
4449.000000	1.009607 
4448.000000	1.009559 
4447.000000	1.009917 
4446.000000	1.010680 
4445.000000	1.011705 
4444.000000	1.012825 
4443.000000	1.013875 
4442.000000	1.014661 
4441.000000	1.015090 
4440.000000	1.015114 
4439.000000	1.014804 
4438.000000	1.014208 
4437.000000	1.013517 
4436.000000	1.012849 
4435.000000	1.012372 
4434.000000	1.012182 
4433.000000	1.012277 
4432.000000	1.012754 
4431.000000	1.013445 
4430.000000	1.014328 
4429.000000	1.015257 
4428.000000	1.016187 
4427.000000	1.016950 
4426.000000	1.017475 
4425.000000	1.017713 
4424.000000	1.017642 
4423.000000	1.017308 
4422.000000	1.016736 
4421.000000	1.016068 
4420.000000	1.015377 
4419.000000	1.014757 
4418.000000	1.014280 
4417.000000	1.013970 
4416.000000	1.013851 
4415.000000	1.013898 
4414.000000	1.014065 
4413.000000	1.014304 
4412.000000	1.014590 
4411.000000	1.014995 
4410.000000	1.015496 
4409.000000	1.016068 
4408.000000	1.016783 
4407.000000	1.017665 
4406.000000	1.018643 
4405.000000	1.019668 
4404.000000	1.020693 
4403.000000	1.021647 
4402.000000	1.022505 
4401.000000	1.023268 
4400.000000	1.023888 
4399.000000	1.024317 
4398.000000	1.024651 
4397.000000	1.024913 
4396.000000	1.025128 
4395.000000	1.025390 
4394.000000	1.025700 
4393.000000	1.026082 
4392.000000	1.026606 
4391.000000	1.027250 
4390.000000	1.027965 
4389.000000	1.028776 
4388.000000	1.029586 
4387.000000	1.030421 
4386.000000	1.031208 
4385.000000	1.031923 
4384.000000	1.032519 
4383.000000	1.032972 
4382.000000	1.033258 
4381.000000	1.033401 
4380.000000	1.033425 
4379.000000	1.033329 
4378.000000	1.033186 
4377.000000	1.033067 
4376.000000	1.033067 
4375.000000	1.033163 
4374.000000	1.033496 
4373.000000	1.033973 
4372.000000	1.034593 
4371.000000	1.035380 
4370.000000	1.036214 
4369.000000	1.037096 
4368.000000	1.038026 
4367.000000	1.038980 
4366.000000	1.039910 
4365.000000	1.040840 
4364.000000	1.041769 
4363.000000	1.042675 
4362.000000	1.043558 
4361.000000	1.044416 
4360.000000	1.045250 
4359.000000	1.046061 
4358.000000	1.046872 
4357.000000	1.047730 
4356.000000	1.048612 
4355.000000	1.049470 
4354.000000	1.050353 
4353.000000	1.051139 
4352.000000	1.051926 
4351.000000	1.052570 
4350.000000	1.053190 
4349.000000	1.053738 
4348.000000	1.054358 
4347.000000	1.055026 
4346.000000	1.055836 
4345.000000	1.056766 
4344.000000	1.057815 
4343.000000	1.058959 
4342.000000	1.060199 
4341.000000	1.061463 
4340.000000	1.062750 
4339.000000	1.064014 
4338.000000	1.065230 
4337.000000	1.066350 
4336.000000	1.067447 
4335.000000	1.068449 
4334.000000	1.069426 
4333.000000	1.070356 
4332.000000	1.071310 
4331.000000	1.072287 
4330.000000	1.073384 
4329.000000	1.074624 
4328.000000	1.075959 
4327.000000	1.077437 
4326.000000	1.078987 
4325.000000	1.080513 
4324.000000	1.082015 
4323.000000	1.083397 
4322.000000	1.084661 
4321.000000	1.085758 
4320.000000	1.086759 
4319.000000	1.087665 
4318.000000	1.088476 
4317.000000	1.089286 
4316.000000	1.090049 
4315.000000	1.090908 
4314.000000	1.091790 
4313.000000	1.092791 
4312.000000	1.093912 
4311.000000	1.095199 
4310.000000	1.096677 
4309.000000	1.098227 
4308.000000	1.099848 
4307.000000	1.101422 
4306.000000	1.102948 
4305.000000	1.104307 
4304.000000	1.105499 
4303.000000	1.106524 
4302.000000	1.107406 
4301.000000	1.108145 
4300.000000	1.108837 
4299.000000	1.109504 
4298.000000	1.110196 
4297.000000	1.110935 
4296.000000	1.111745 
4295.000000	1.112627 
4294.000000	1.113677 
4293.000000	1.114773 
4292.000000	1.116085 
4291.000000	1.117491 
4290.000000	1.118993 
4289.000000	1.120543 
4288.000000	1.122093 
4287.000000	1.123571 
4286.000000	1.124954 
4285.000000	1.126241 
4284.000000	1.127338 
4283.000000	1.128315 
4282.000000	1.129198 
4281.000000	1.130008 
4280.000000	1.130843 
4279.000000	1.131725 
4278.000000	1.132726 
4277.000000	1.133823 
4276.000000	1.135039 
4275.000000	1.136302 
4274.000000	1.137566 
4273.000000	1.138782 
4272.000000	1.139926 
4271.000000	1.140999 
4270.000000	1.141953 
4269.000000	1.142835 
4268.000000	1.143670 
4267.000000	1.144504 
4266.000000	1.145434 
4265.000000	1.146411 
4264.000000	1.147484 
4263.000000	1.148653 
4262.000000	1.149892 
4261.000000	1.151204 
4260.000000	1.152539 
4259.000000	1.153850 
4258.000000	1.155138 
4257.000000	1.156330 
4256.000000	1.157402 
4255.000000	1.158356 
4254.000000	1.159143 
4253.000000	1.159811 
4252.000000	1.160335 
4251.000000	1.160717 
4250.000000	1.161050 
4249.000000	1.161384 
4248.000000	1.161813 
4247.000000	1.162385 
4246.000000	1.163101 
4245.000000	1.163959 
4244.000000	1.164913 
4243.000000	1.165914 
4242.000000	1.166892 
4241.000000	1.167798 
4240.000000	1.168560 
4239.000000	1.169133 
4238.000000	1.169538 
4237.000000	1.169800 
4236.000000	1.169967 
4235.000000	1.170086 
4234.000000	1.170229 
4233.000000	1.170420 
4232.000000	1.170706 
4231.000000	1.171088 
4230.000000	1.171588 
4229.000000	1.172137 
4228.000000	1.172757 
4227.000000	1.173448 
4226.000000	1.174139 
4225.000000	1.174855 
4224.000000	1.175594 
4223.000000	1.176309 
4222.000000	1.177024 
4221.000000	1.177668 
4220.000000	1.178288 
4219.000000	1.178860 
4218.000000	1.179385 
4217.000000	1.179838 
4216.000000	1.180243 
4215.000000	1.180601 
4214.000000	1.180934 
4213.000000	1.181244 
4212.000000	1.181578 
4211.000000	1.181936 
4210.000000	1.182293 
4209.000000	1.182723 
4208.000000	1.183199 
4207.000000	1.183772 
4206.000000	1.184344 
4205.000000	1.185011 
4204.000000	1.185679 
4203.000000	1.186370 
4202.000000	1.187109 
4201.000000	1.187825 
4200.000000	1.188516 
4199.000000	1.189184 
4198.000000	1.189804 
4197.000000	1.190376 
4196.000000	1.190924 
4195.000000	1.191401 
4194.000000	1.191854 
4193.000000	1.192283 
4192.000000	1.192736 
4191.000000	1.193237 
4190.000000	1.193809 
4189.000000	1.194477 
4188.000000	1.195216 
4187.000000	1.196050 
4186.000000	1.196885 
4185.000000	1.197695 
4184.000000	1.198410 
4183.000000	1.198983 
4182.000000	1.199388 
4181.000000	1.199626 
4180.000000	1.199674 
4179.000000	1.199650 
4178.000000	1.199555 
4177.000000	1.199460 
4176.000000	1.199388 
4175.000000	1.199460 
4174.000000	1.199674 
4173.000000	1.200032 
4172.000000	1.200532 
4171.000000	1.201176 
4170.000000	1.201915 
4169.000000	1.202797 
4168.000000	1.203751 
4167.000000	1.204824 
4166.000000	1.205921 
4165.000000	1.207041 
4164.000000	1.208138 
4163.000000	1.209163 
4162.000000	1.210045 
4161.000000	1.210784 
4160.000000	1.211380 
4159.000000	1.211810 
4158.000000	1.212120 
4157.000000	1.212358 
4156.000000	1.212573 
4155.000000	1.212811 
4154.000000	1.213026 
4153.000000	1.213264 
4152.000000	1.213479 
4151.000000	1.213669 
4150.000000	1.213836 
4149.000000	1.214027 
4148.000000	1.214265 
4147.000000	1.214575 
4146.000000	1.215052 
4145.000000	1.215648 
4144.000000	1.216363 
4143.000000	1.217246 
4142.000000	1.218223 
4141.000000	1.219248 
4140.000000	1.220321 
4139.000000	1.221418 
4138.000000	1.222515 
4137.000000	1.223587 
4136.000000	1.224637 
4135.000000	1.225614 
4134.000000	1.226520 
4133.000000	1.227259 
4132.000000	1.227903 
4131.000000	1.228427 
4130.000000	1.228880 
4129.000000	1.229333 
4128.000000	1.229763 
4127.000000	1.230311 
4126.000000	1.230907 
4125.000000	1.231670 
4124.000000	1.232528 
4123.000000	1.233506 
4122.000000	1.234531 
4121.000000	1.235556 
4120.000000	1.236653 
4119.000000	1.237773 
4118.000000	1.238894 
4117.000000	1.240062 
4116.000000	1.241254 
4115.000000	1.242518 
4114.000000	1.243805 
4113.000000	1.245212 
4112.000000	1.246643 
4111.000000	1.248073 
4110.000000	1.249480 
4109.000000	1.250839 
4108.000000	1.252079 
4107.000000	1.253175 
4106.000000	1.254105 
4105.000000	1.254844 
4104.000000	1.255416 
4103.000000	1.255869 
4102.000000	1.256227 
4101.000000	1.256537 
4100.000000	1.256847 
4099.000000	1.257228 
4098.000000	1.257705 
4097.000000	1.258325 
4096.000000	1.259088 
4095.000000	1.260089 
4094.000000	1.261329 
4093.000000	1.262807 
4092.000000	1.264524 
4091.000000	1.266431 
4090.000000	1.268458 
4089.000000	1.270484 
4088.000000	1.272463 
4087.000000	1.274251 
4086.000000	1.275801 
4085.000000	1.277136 
4084.000000	1.278257 
4083.000000	1.279258 
4082.000000	1.280212 
4081.000000	1.281285 
4080.000000	1.282429 
4079.000000	1.283788 
4078.000000	1.285290 
4077.000000	1.286935 
4076.000000	1.288580 
4075.000000	1.290225 
4074.000000	1.291847 
4073.000000	1.293373 
4072.000000	1.294875 
4071.000000	1.296377 
4070.000000	1.297903 
4069.000000	1.299500 
4068.000000	1.301145 
4067.000000	1.302766 
4066.000000	1.304340 
4065.000000	1.305818 
4064.000000	1.307201 
4063.000000	1.308441 
4062.000000	1.309561 
4061.000000	1.310634 
4060.000000	1.311731 
4059.000000	1.312828 
4058.000000	1.313972 
4057.000000	1.315164 
4056.000000	1.316380 
4055.000000	1.317691 
4054.000000	1.319003 
4053.000000	1.320385 
4052.000000	1.321840 
4051.000000	1.323366 
4050.000000	1.324987 
4049.000000	1.326656 
4048.000000	1.328349 
4047.000000	1.329994 
4046.000000	1.331591 
4045.000000	1.333069 
4044.000000	1.334452 
4043.000000	1.335716 
4042.000000	1.336908 
4041.000000	1.338028 
4040.000000	1.339125 
4039.000000	1.340174 
4038.000000	1.341223 
4037.000000	1.342201 
4036.000000	1.343154 
4035.000000	1.344013 
4034.000000	1.344847 
4033.000000	1.345634 
4032.000000	1.346397 
4031.000000	1.347208 
4030.000000	1.348066 
4029.000000	1.349115 
4028.000000	1.350235 
4027.000000	1.351475 
4026.000000	1.352834 
4025.000000	1.354265 
4024.000000	1.355695 
4023.000000	1.357150 
4022.000000	1.358556 
4021.000000	1.359868 
4020.000000	1.361083 
4019.000000	1.362180 
4018.000000	1.363110 
4017.000000	1.363945 
4016.000000	1.364707 
4015.000000	1.365399 
4014.000000	1.366043 
4013.000000	1.366686 
4012.000000	1.367330 
4011.000000	1.368021 
4010.000000	1.368737 
4009.000000	1.369500 
4008.000000	1.370263 
4007.000000	1.371073 
4006.000000	1.371908 
4005.000000	1.372838 
4004.000000	1.373863 
4003.000000	1.374936 
4002.000000	1.376199 
4001.000000	1.377534 
4000.000000	1.378917 
3999.000000	1.380348 
3998.000000	1.381778 
3997.000000	1.383137 
3996.000000	1.384377 
3995.000000	1.385545 
3994.000000	1.386618 
3993.000000	1.387691 
3992.000000	1.388692 
3991.000000	1.389694 
3990.000000	1.390719 
3989.000000	1.391720 
3988.000000	1.392650 
3987.000000	1.393532 
3986.000000	1.394295 
3985.000000	1.394915 
3984.000000	1.395368 
3983.000000	1.395654 
3982.000000	1.395845 
3981.000000	1.395940 
3980.000000	1.396059 
3979.000000	1.396155 
3978.000000	1.396393 
3977.000000	1.396751 
3976.000000	1.397275 
3975.000000	1.397991 
3974.000000	1.398849 
3973.000000	1.399803 
3972.000000	1.400780 
3971.000000	1.401734 
3970.000000	1.402521 
3969.000000	1.403093 
3968.000000	1.403427 
3967.000000	1.403498 
3966.000000	1.403355 
3965.000000	1.403069 
3964.000000	1.402759 
3963.000000	1.402473 
3962.000000	1.402330 
3961.000000	1.402330 
3960.000000	1.402521 
3959.000000	1.402902 
3958.000000	1.403427 
3957.000000	1.404047 
3956.000000	1.404714 
3955.000000	1.405405 
3954.000000	1.406097 
3953.000000	1.406764 
3952.000000	1.407432 
3951.000000	1.408100 
3950.000000	1.408767 
3949.000000	1.409459 
3948.000000	1.410126 
3947.000000	1.410818 
3946.000000	1.411485 
3945.000000	1.412081 
3944.000000	1.412630 
3943.000000	1.413059 
3942.000000	1.413440 
3941.000000	1.413679 
3940.000000	1.413869 
3939.000000	1.414012 
3938.000000	1.414203 
3937.000000	1.414442 
3936.000000	1.414799 
3935.000000	1.415300 
3934.000000	1.415848 
3933.000000	1.416468 
3932.000000	1.417160 
3931.000000	1.417732 
3930.000000	1.418209 
3929.000000	1.418542 
3928.000000	1.418685 
3927.000000	1.418685 
3926.000000	1.418519 
3925.000000	1.418328 
3924.000000	1.418113 
3923.000000	1.417946 
3922.000000	1.417875 
3921.000000	1.417875 
3920.000000	1.417994 
3919.000000	1.418280 
3918.000000	1.418685 
3917.000000	1.419234 
3916.000000	1.419901 
3915.000000	1.420617 
3914.000000	1.421356 
3913.000000	1.422071 
3912.000000	1.422643 
3911.000000	1.423048 
3910.000000	1.423192 
3909.000000	1.423096 
3908.000000	1.422834 
3907.000000	1.422476 
3906.000000	1.422095 
3905.000000	1.421856 
3904.000000	1.421809 
3903.000000	1.422047 
3902.000000	1.422572 
3901.000000	1.423335 
3900.000000	1.424264 
3899.000000	1.425242 
3898.000000	1.426196 
3897.000000	1.427006 
3896.000000	1.427602 
3895.000000	1.427960 
3894.000000	1.428079 
3893.000000	1.428031 
3892.000000	1.427888 
3891.000000	1.427674 
3890.000000	1.427459 
3889.000000	1.427268 
3888.000000	1.427173 
3887.000000	1.427149 
3886.000000	1.427268 
3885.000000	1.427507 
3884.000000	1.427960 
3883.000000	1.428580 
3882.000000	1.429390 
3881.000000	1.430344 
3880.000000	1.431393 
3879.000000	1.432442 
3878.000000	1.433396 
3877.000000	1.434183 
3876.000000	1.434731 
3875.000000	1.435041 
3874.000000	1.435160 
3873.000000	1.435136 
3872.000000	1.435065 
3871.000000	1.435017 
3870.000000	1.435136 
3869.000000	1.435446 
3868.000000	1.436018 
3867.000000	1.436877 
3866.000000	1.438045 
3865.000000	1.439380 
3864.000000	1.440715 
3863.000000	1.441955 
3862.000000	1.442837 
3861.000000	1.443195 
3860.000000	1.442980 
3859.000000	1.442122 
3858.000000	1.440858 
3857.000000	1.439356 
3856.000000	1.438021 
3855.000000	1.437258 
3854.000000	1.437258 
3853.000000	1.438283 
3852.000000	1.440286 
3851.000000	1.443171 
3850.000000	1.446604 
3849.000000	1.450181 
3848.000000	1.453542 
3847.000000	1.456284 
3846.000000	1.458263 
3845.000000	1.459407 
3844.000000	1.459741 
3843.000000	1.459527 
3842.000000	1.459050 
3841.000000	1.458549 
3840.000000	1.458311 
3839.000000	1.458597 
3838.000000	1.459527 
3837.000000	1.461052 
3836.000000	1.463174 
3835.000000	1.465749 
3834.000000	1.468586 
3833.000000	1.471471 
3832.000000	1.474189 
3831.000000	1.476597 
3830.000000	1.478624 
3829.000000	1.480102 
3828.000000	1.481056 
3827.000000	1.481509 
3826.000000	1.481556 
3825.000000	1.481223 
3824.000000	1.480698 
3823.000000	1.480054 
3822.000000	1.479506 
3821.000000	1.479148 
3820.000000	1.479125 
3819.000000	1.479578 
3818.000000	1.480507 
3817.000000	1.481914 
3816.000000	1.483702 
3815.000000	1.485729 
3814.000000	1.487827 
3813.000000	1.489901 
3812.000000	1.491808 
3811.000000	1.493430 
3810.000000	1.494717 
3809.000000	1.495695 
3808.000000	1.496434 
3807.000000	1.496958 
3806.000000	1.497459 
3805.000000	1.498007 
3804.000000	1.498746 
3803.000000	1.499676 
3802.000000	1.500964 
3801.000000	1.502513 
3800.000000	1.504397 
3799.000000	1.506519 
3798.000000	1.508855 
3797.000000	1.511240 
3796.000000	1.513648 
3795.000000	1.515960 
3794.000000	1.518130 
3793.000000	1.520133 
3792.000000	1.521921 
3791.000000	1.523470 
3790.000000	1.524829 
3789.000000	1.525974 
3788.000000	1.526927 
3787.000000	1.527714 
3786.000000	1.528286 
3785.000000	1.528739 
3784.000000	1.529097 
3783.000000	1.529383 
3782.000000	1.529693 
3781.000000	1.530075 
3780.000000	1.530528 
3779.000000	1.531124 
3778.000000	1.531815 
3777.000000	1.532649 
3776.000000	1.533460 
3775.000000	1.534295 
3774.000000	1.535105 
3773.000000	1.535892 
3772.000000	1.536631 
3771.000000	1.537322 
3770.000000	1.537919 
3769.000000	1.538515 
3768.000000	1.539158 
3767.000000	1.539802 
3766.000000	1.540470 
3765.000000	1.541209 
3764.000000	1.541972 
3763.000000	1.542758 
3762.000000	1.543521 
3761.000000	1.544117 
3760.000000	1.544499 
3759.000000	1.544547 
3758.000000	1.544141 
3757.000000	1.543331 
3756.000000	1.542043 
3755.000000	1.540398 
3754.000000	1.538515 
3753.000000	1.536536 
3752.000000	1.534700 
3751.000000	1.533079 
3750.000000	1.531887 
3749.000000	1.531171 
3748.000000	1.530981 
3747.000000	1.531410 
3746.000000	1.532363 
3745.000000	1.533818 
3744.000000	1.535606 
3743.000000	1.537632 
3742.000000	1.539731 
3741.000000	1.541757 
3740.000000	1.543569 
3739.000000	1.545119 
3738.000000	1.546430 
3737.000000	1.547503 
3736.000000	1.548504 
3735.000000	1.549506 
3734.000000	1.550555 
3733.000000	1.551747 
3732.000000	1.553058 
3731.000000	1.554393 
3730.000000	1.555705 
3729.000000	1.556825 
3728.000000	1.557755 
3727.000000	1.558470 
3726.000000	1.559114 
3725.000000	1.559638 
3724.000000	1.560139 
3723.000000	1.560664 
3722.000000	1.561236 
3721.000000	1.561737 
3720.000000	1.562094 
3719.000000	1.562261 
3718.000000	1.562190 
3717.000000	1.561784 
3716.000000	1.561164 
3715.000000	1.560401 
3714.000000	1.559638 
3713.000000	1.559042 
3712.000000	1.558709 
3711.000000	1.558732 
3710.000000	1.559162 
3709.000000	1.559901 
3708.000000	1.560878 
3707.000000	1.561975 
3706.000000	1.563072 
3705.000000	1.564121 
3704.000000	1.565051 
3703.000000	1.565814 
3702.000000	1.566410 
3701.000000	1.566863 
3700.000000	1.567077 
3699.000000	1.567125 
3698.000000	1.566910 
3697.000000	1.566362 
3696.000000	1.565551 
3695.000000	1.564407 
3694.000000	1.563096 
3693.000000	1.561713 
3692.000000	1.560401 
3691.000000	1.559305 
3690.000000	1.558661 
3689.000000	1.558446 
3688.000000	1.558756 
3687.000000	1.559519 
3686.000000	1.560521 
3685.000000	1.561546 
3684.000000	1.562404 
3683.000000	1.562857 
3682.000000	1.562833 
3681.000000	1.562261 
3680.000000	1.561236 
3679.000000	1.559877 
3678.000000	1.558423 
3677.000000	1.557016 
3676.000000	1.555871 
3675.000000	1.555109 
3674.000000	1.554775 
3673.000000	1.554942 
3672.000000	1.555562 
3671.000000	1.556611 
3670.000000	1.557970 
3669.000000	1.559591 
3668.000000	1.561331 
3667.000000	1.563072 
3666.000000	1.564669 
3665.000000	1.566004 
3664.000000	1.566958 
3663.000000	1.567482 
3662.000000	1.567554 
3661.000000	1.567196 
3660.000000	1.566433 
3659.000000	1.565384 
3658.000000	1.564121 
3657.000000	1.562762 
3656.000000	1.561379 
3655.000000	1.560091 
3654.000000	1.558923 
3653.000000	1.557993 
3652.000000	1.557421 
3651.000000	1.557230 
3650.000000	1.557469 
3649.000000	1.558136 
3648.000000	1.559257 
3647.000000	1.560688 
3646.000000	1.562333 
3645.000000	1.564002 
3644.000000	1.565575 
3643.000000	1.566934 
3642.000000	1.567983 
3641.000000	1.568722 
3640.000000	1.569151 
3639.000000	1.569223 
3638.000000	1.569008 
3637.000000	1.568508 
3636.000000	1.567769 
3635.000000	1.566839 
3634.000000	1.565814 
3633.000000	1.564812 
3632.000000	1.563930 
3631.000000	1.563382 
3630.000000	1.563215 
3629.000000	1.563477 
3628.000000	1.564168 
3627.000000	1.565194 
3626.000000	1.566386 
3625.000000	1.567602 
3624.000000	1.568722 
3623.000000	1.569628 
3622.000000	1.570224 
3621.000000	1.570582 
3620.000000	1.570820 
3619.000000	1.570916 
3618.000000	1.570963 
3617.000000	1.570963 
3616.000000	1.571011 
3615.000000	1.571083 
3614.000000	1.571178 
3613.000000	1.571321 
3612.000000	1.571607 
3611.000000	1.572012 
3610.000000	1.572561 
3609.000000	1.573300 
3608.000000	1.574182 
3607.000000	1.575160 
3606.000000	1.576185 
3605.000000	1.577162 
3604.000000	1.578092 
3603.000000	1.578927 
3602.000000	1.579689 
3601.000000	1.580405 
3600.000000	1.581096 
3599.000000	1.581788 
3598.000000	1.582431 
3597.000000	1.583027 
3596.000000	1.583552 
3595.000000	1.583886 
3594.000000	1.584076 
3593.000000	1.584124 
3592.000000	1.584100 
3591.000000	1.584076 
3590.000000	1.584172 
3589.000000	1.584434 
3588.000000	1.584911 
3587.000000	1.585674 
3586.000000	1.586627 
3585.000000	1.587748 
3584.000000	1.588964 
3583.000000	1.590156 
3582.000000	1.591348 
3581.000000	1.592445 
3580.000000	1.593375 
3579.000000	1.594138 
3578.000000	1.594734 
3577.000000	1.595187 
3576.000000	1.595449 
3575.000000	1.595473 
3574.000000	1.595330 
3573.000000	1.595044 
3572.000000	1.594662 
3571.000000	1.594281 
3570.000000	1.593995 
3569.000000	1.593828 
3568.000000	1.593923 
3567.000000	1.594233 
3566.000000	1.594853 
3565.000000	1.595687 
3564.000000	1.596713 
3563.000000	1.597809 
3562.000000	1.598978 
3561.000000	1.600050 
3560.000000	1.601028 
3559.000000	1.601839 
3558.000000	1.602506 
3557.000000	1.603007 
3556.000000	1.603436 
3555.000000	1.603770 
3554.000000	1.604032 
3553.000000	1.604294 
3552.000000	1.604557 
3551.000000	1.604890 
3550.000000	1.605248 
3549.000000	1.605629 
3548.000000	1.606154 
3547.000000	1.606655 
3546.000000	1.607203 
3545.000000	1.607704 
3544.000000	1.608157 
3543.000000	1.608514 
3542.000000	1.608729 
3541.000000	1.608800 
3540.000000	1.608729 
3539.000000	1.608538 
3538.000000	1.608300 
3537.000000	1.608109 
3536.000000	1.607990 
3535.000000	1.607966 
3534.000000	1.608157 
3533.000000	1.608467 
3532.000000	1.608943 
3531.000000	1.609468 
3530.000000	1.610016 
3529.000000	1.610565 
3528.000000	1.611042 
3527.000000	1.611471 
3526.000000	1.611852 
3525.000000	1.612138 
3524.000000	1.612472 
3523.000000	1.612806 
3522.000000	1.613116 
3521.000000	1.613426 
3520.000000	1.613712 
3519.000000	1.613903 
3518.000000	1.614022 
3517.000000	1.614069 
3516.000000	1.614022 
3515.000000	1.613926 
3514.000000	1.613759 
3513.000000	1.613616 
3512.000000	1.613497 
3511.000000	1.613426 
3510.000000	1.613450 
3509.000000	1.613450 
3508.000000	1.613450 
3507.000000	1.613354 
3506.000000	1.613116 
3505.000000	1.612710 
3504.000000	1.612114 
3503.000000	1.611375 
3502.000000	1.610517 
3501.000000	1.609587 
3500.000000	1.608729 
3499.000000	1.607894 
3498.000000	1.607203 
3497.000000	1.606655 
3496.000000	1.606202 
3495.000000	1.605844 
3494.000000	1.605582 
3493.000000	1.605367 
3492.000000	1.605200 
3491.000000	1.604986 
3490.000000	1.604795 
3489.000000	1.604557 
3488.000000	1.604318 
3487.000000	1.604056 
3486.000000	1.603722 
3485.000000	1.603317 
3484.000000	1.602888 
3483.000000	1.602363 
3482.000000	1.601815 
3481.000000	1.601219 
3480.000000	1.600623 
3479.000000	1.600050 
3478.000000	1.599550 
3477.000000	1.599073 
3476.000000	1.598644 
3475.000000	1.598238 
3474.000000	1.597905 
3473.000000	1.597595 
3472.000000	1.597332 
3471.000000	1.597070 
3470.000000	1.596808 
3469.000000	1.596474 
3468.000000	1.596117 
3467.000000	1.595759 
3466.000000	1.595330 
3465.000000	1.594924 
3464.000000	1.594471 
3463.000000	1.594066 
3462.000000	1.593637 
3461.000000	1.593160 
3460.000000	1.592636 
3459.000000	1.591968 
3458.000000	1.591181 
3457.000000	1.590228 
3456.000000	1.589107 
3455.000000	1.587867 
3454.000000	1.586532 
3453.000000	1.585173 
3452.000000	1.583862 
3451.000000	1.582694 
3450.000000	1.581597 
3449.000000	1.580739 
3448.000000	1.579999 
3447.000000	1.579427 
3446.000000	1.578998 
3445.000000	1.578617 
3444.000000	1.578211 
3443.000000	1.577830 
3442.000000	1.577425 
3441.000000	1.576972 
3440.000000	1.576471 
3439.000000	1.575970 
3438.000000	1.575469 
3437.000000	1.575040 
3436.000000	1.574659 
3435.000000	1.574325 
3434.000000	1.574039 
3433.000000	1.573753 
3432.000000	1.573467 
3431.000000	1.573181 
3430.000000	1.572895 
3429.000000	1.572632 
3428.000000	1.572442 
3427.000000	1.572370 
3426.000000	1.572394 
3425.000000	1.572561 
3424.000000	1.572895 
3423.000000	1.573348 
3422.000000	1.573872 
3421.000000	1.574492 
3420.000000	1.575064 
3419.000000	1.575589 
3418.000000	1.576089 
3417.000000	1.576471 
3416.000000	1.576781 
3415.000000	1.577067 
3414.000000	1.577305 
3413.000000	1.577544 
3412.000000	1.577806 
3411.000000	1.578116 
3410.000000	1.578474 
3409.000000	1.578903 
3408.000000	1.579332 
3407.000000	1.579809 
3406.000000	1.580238 
3405.000000	1.580691 
3404.000000	1.581144 
3403.000000	1.581573 
3402.000000	1.582050 
3401.000000	1.582527 
3400.000000	1.583003 
3399.000000	1.583456 
3398.000000	1.583933 
3397.000000	1.584362 
3396.000000	1.584696 
3395.000000	1.585054 
3394.000000	1.585459 
3393.000000	1.585888 
3392.000000	1.586437 
3391.000000	1.587104 
3390.000000	1.587843 
3389.000000	1.588702 
3388.000000	1.589584 
3387.000000	1.590466 
3386.000000	1.591300 
3385.000000	1.592111 
3384.000000	1.592826 
3383.000000	1.593518 
3382.000000	1.594209 
3381.000000	1.594853 
3380.000000	1.595520 
3379.000000	1.596283 
3378.000000	1.597118 
3377.000000	1.598000 
3376.000000	1.599001 
3375.000000	1.600098 
3374.000000	1.601219 
3373.000000	1.602387 
3372.000000	1.603603 
3371.000000	1.604866 
3370.000000	1.606130 
3369.000000	1.607394 
3368.000000	1.608633 
3367.000000	1.609897 
3366.000000	1.611161 
3365.000000	1.612448 
3364.000000	1.613783 
3363.000000	1.615142 
3362.000000	1.616501 
3361.000000	1.617836 
3360.000000	1.619172 
3359.000000	1.620483 
3358.000000	1.621770 
3357.000000	1.623058 
3356.000000	1.624369 
3355.000000	1.625752 
3354.000000	1.627159 
3353.000000	1.628661 
3352.000000	1.630210 
3351.000000	1.631808 
3350.000000	1.633358 
3349.000000	1.634860 
3348.000000	1.636338 
3347.000000	1.637744 
3346.000000	1.639103 
3345.000000	1.640439 
3344.000000	1.641774 
3343.000000	1.643109 
3342.000000	1.644515 
3341.000000	1.645922 
3340.000000	1.647329 
3339.000000	1.648736 
3338.000000	1.650142 
3337.000000	1.651525 
3336.000000	1.652956 
3335.000000	1.654362 
3334.000000	1.655840 
3333.000000	1.657319 
3332.000000	1.658868 
3331.000000	1.660394 
3330.000000	1.661920 
3329.000000	1.663327 
3328.000000	1.664638 
3327.000000	1.665830 
3326.000000	1.666903 
3325.000000	1.667904 
3324.000000	1.668834 
3323.000000	1.669788 
3322.000000	1.670837 
3321.000000	1.672005 
3320.000000	1.673316 
3319.000000	1.674795 
3318.000000	1.676392 
3317.000000	1.678109 
3316.000000	1.679873 
3315.000000	1.681685 
3314.000000	1.683425 
3313.000000	1.685070 
3312.000000	1.686644 
3311.000000	1.688098 
3310.000000	1.689457 
3309.000000	1.690626 
3308.000000	1.691675 
3307.000000	1.692605 
3306.000000	1.693487 
3305.000000	1.694369 
3304.000000	1.695299 
3303.000000	1.696395 
3302.000000	1.697659 
3301.000000	1.699161 
3300.000000	1.700878 
3299.000000	1.702809 
3298.000000	1.704812 
3297.000000	1.706814 
3296.000000	1.708841 
3295.000000	1.710700 
3294.000000	1.712441 
3293.000000	1.714015 
3292.000000	1.715493 
3291.000000	1.716876 
3290.000000	1.718235 
3289.000000	1.719594 
3288.000000	1.720929 
3287.000000	1.722240 
3286.000000	1.723480 
3285.000000	1.724648 
3284.000000	1.725673 
3283.000000	1.726555 
3282.000000	1.727366 
3281.000000	1.728081 
3280.000000	1.728749 
3279.000000	1.729440 
3278.000000	1.730155 
3277.000000	1.730966 
3276.000000	1.731896 
3275.000000	1.732945 
3274.000000	1.734042 
3273.000000	1.735210 
3272.000000	1.736378 
3271.000000	1.737523 
3270.000000	1.738619 
3269.000000	1.739597 
3268.000000	1.740503 
3267.000000	1.741313 
3266.000000	1.742053 
3265.000000	1.742768 
3264.000000	1.743483 
3263.000000	1.744222 
3262.000000	1.745033 
3261.000000	1.745843 
3260.000000	1.746702 
3259.000000	1.747560 
3258.000000	1.748418 
3257.000000	1.749253 
3256.000000	1.750063 
3255.000000	1.750850 
3254.000000	1.751708 
3253.000000	1.752591 
3252.000000	1.753497 
3251.000000	1.754426 
3250.000000	1.755356 
3249.000000	1.756238 
3248.000000	1.757097 
3247.000000	1.757812 
3246.000000	1.758432 
3245.000000	1.758933 
3244.000000	1.759338 
3243.000000	1.759648 
3242.000000	1.759982 
3241.000000	1.760292 
3240.000000	1.760673 
3239.000000	1.761102 
3238.000000	1.761579 
3237.000000	1.762151 
3236.000000	1.762747 
3235.000000	1.763415 
3234.000000	1.764082 
3233.000000	1.764750 
3232.000000	1.765394 
3231.000000	1.765990 
3230.000000	1.766514 
3229.000000	1.766991 
3228.000000	1.767468 
3227.000000	1.767897 
3226.000000	1.768326 
3225.000000	1.768732 
3224.000000	1.769185 
3223.000000	1.769614 
3222.000000	1.770019 
3221.000000	1.770401 
3220.000000	1.770782 
3219.000000	1.771068 
3218.000000	1.771306 
3217.000000	1.771473 
3216.000000	1.771640 
3215.000000	1.771712 
3214.000000	1.771759 
3213.000000	1.771831 
3212.000000	1.771879 
3211.000000	1.771903 
3210.000000	1.771903 
3209.000000	1.771926 
3208.000000	1.771950 
3207.000000	1.772069 
3206.000000	1.772212 
3205.000000	1.772451 
3204.000000	1.772761 
3203.000000	1.773166 
3202.000000	1.773595 
3201.000000	1.774048 
3200.000000	1.774477 
3199.000000	1.774835 
3198.000000	1.775145 
3197.000000	1.775383 
3196.000000	1.775527 
3195.000000	1.775574 
3194.000000	1.775622 
3193.000000	1.775622 
3192.000000	1.775574 
3191.000000	1.775550 
3190.000000	1.775503 
3189.000000	1.775503 
3188.000000	1.775503 
3187.000000	1.775527 
3186.000000	1.775574 
3185.000000	1.775622 
3184.000000	1.775765 
3183.000000	1.775956 
3182.000000	1.776170 
3181.000000	1.776432 
3180.000000	1.776742 
3179.000000	1.777029 
3178.000000	1.777291 
3177.000000	1.777505 
3176.000000	1.777672 
3175.000000	1.777791 
3174.000000	1.777958 
3173.000000	1.778197 
3172.000000	1.778507 
3171.000000	1.778960 
3170.000000	1.779508 
3169.000000	1.780128 
3168.000000	1.780843 
3167.000000	1.781558 
3166.000000	1.782226 
3165.000000	1.782870 
3164.000000	1.783394 
3163.000000	1.783800 
3162.000000	1.784133 
3161.000000	1.784443 
3160.000000	1.784753 
3159.000000	1.785159 
3158.000000	1.785635 
3157.000000	1.786327 
3156.000000	1.787137 
3155.000000	1.788067 
3154.000000	1.789093 
3153.000000	1.790213 
3152.000000	1.791334 
3151.000000	1.792478 
3150.000000	1.793551 
3149.000000	1.794552 
3148.000000	1.795482 
3147.000000	1.796317 
3146.000000	1.797080 
3145.000000	1.797795 
3144.000000	1.798462 
3143.000000	1.799106 
3142.000000	1.799702 
3141.000000	1.800298 
3140.000000	1.800894 
3139.000000	1.801538 
3138.000000	1.802182 
3137.000000	1.802897 
3136.000000	1.803708 
3135.000000	1.804637 
3134.000000	1.805663 
3133.000000	1.806783 
3132.000000	1.807928 
3131.000000	1.809120 
3130.000000	1.810312 
3129.000000	1.811456 
3128.000000	1.812577 
3127.000000	1.813673 
3126.000000	1.814723 
3125.000000	1.815724 
3124.000000	1.816725 
3123.000000	1.817703 
3122.000000	1.818680 
3121.000000	1.819634 
3120.000000	1.820635 
3119.000000	1.821732 
3118.000000	1.822948 
3117.000000	1.824307 
3116.000000	1.825833 
3115.000000	1.827526 
3114.000000	1.829338 
3113.000000	1.831293 
3112.000000	1.833248 
3111.000000	1.835203 
3110.000000	1.837134 
3109.000000	1.838994 
3108.000000	1.840806 
3107.000000	1.842522 
3106.000000	1.844167 
3105.000000	1.845860 
3104.000000	1.847481 
3103.000000	1.849150 
3102.000000	1.850843 
3101.000000	1.852583 
3100.000000	1.854419 
3099.000000	1.856303 
3098.000000	1.858329 
3097.000000	1.860499 
3096.000000	1.862788 
3095.000000	1.865148 
3094.000000	1.867580 
3093.000000	1.870012 
3092.000000	1.872372 
3091.000000	1.874709 
3090.000000	1.876878 
3089.000000	1.878929 
3088.000000	1.880860 
3087.000000	1.882648 
3086.000000	1.884412 
3085.000000	1.886153 
3084.000000	1.887822 
3083.000000	1.889514 
3082.000000	1.891136 
3081.000000	1.892638 
3080.000000	1.894021 
3079.000000	1.895213 
3078.000000	1.896238 
3077.000000	1.897144 
3076.000000	1.898002 
3075.000000	1.898908 
3074.000000	1.899957 
3073.000000	1.901221 
3072.000000	1.902675 
3071.000000	1.904392 
3070.000000	1.906275 
3069.000000	1.908230 
3068.000000	1.910114 
3067.000000	1.911902 
3066.000000	1.913523 
3065.000000	1.914978 
3064.000000	1.916313 
3063.000000	1.917576 
3062.000000	1.918864 
3061.000000	1.920199 
3060.000000	1.921653 
3059.000000	1.923179 
3058.000000	1.924777 
3057.000000	1.926374 
3056.000000	1.927971 
3055.000000	1.929545 
3054.000000	1.931095 
3053.000000	1.932621 
3052.000000	1.934099 
3051.000000	1.935648 
3050.000000	1.937246 
3049.000000	1.938796 
3048.000000	1.940393 
3047.000000	1.941919 
3046.000000	1.943445 
3045.000000	1.944947 
3044.000000	1.946401 
3043.000000	1.947855 
3042.000000	1.949262 
3041.000000	1.950645 
3040.000000	1.952028 
3039.000000	1.953339 
3038.000000	1.954579 
3037.000000	1.955699 
3036.000000	1.956605 
3035.000000	1.957273 
3034.000000	1.957678 
3033.000000	1.957774 
3032.000000	1.957535 
3031.000000	1.956963 
3030.000000	1.956057 
3029.000000	1.954841 
3028.000000	1.953315 
3027.000000	1.951527 
3026.000000	1.949548 
3025.000000	1.947355 
3024.000000	1.945090 
3023.000000	1.942873 
3022.000000	1.940870 
3021.000000	1.939225 
3020.000000	1.938104 
3019.000000	1.937770 
3018.000000	1.938295 
3017.000000	1.939821 
3016.000000	1.942348 
3015.000000	1.945877 
3014.000000	1.950240 
3013.000000	1.955270 
3012.000000	1.960682 
3011.000000	1.966261 
3010.000000	1.971721 
3009.000000	1.976919 
3008.000000	1.981616 
3007.000000	1.985788 
3006.000000	1.989436 
3005.000000	1.992583 
3004.000000	1.995229 
3003.000000	1.997590 
3002.000000	1.999640 
3001.000000	2.001452 
3000.000000	2.003097 
2999.000000	2.004671 
2998.000000	2.006101 
2997.000000	2.007341 
2996.000000	2.008461 
2995.000000	2.009391 
2994.000000	2.010107 
2993.000000	2.010560 
2992.000000	2.010774 
2991.000000	2.010750 
2990.000000	2.010512 
2989.000000	2.010107 
2988.000000	2.009606 
2987.000000	2.009057 
2986.000000	2.008390 
2985.000000	2.007627 
2984.000000	2.006697 
2983.000000	2.005577 
2982.000000	2.004146 
2981.000000	2.002334 
2980.000000	2.000188 
2979.000000	1.997613 
2978.000000	1.994585 
2977.000000	1.991128 
2976.000000	1.987195 
2975.000000	1.982760 
2974.000000	1.977872 
2973.000000	1.972460 
2972.000000	1.966714 
2971.000000	1.960539 
2970.000000	1.954150 
2969.000000	1.947665 
2968.000000	1.941323 
2967.000000	1.935195 
2966.000000	1.929497 
2965.000000	1.924395 
2964.000000	1.919960 
2963.000000	1.916146 
2962.000000	1.912999 
2961.000000	1.910519 
2960.000000	1.908564 
2959.000000	1.907062 
2958.000000	1.905965 
2957.000000	1.905202 
2956.000000	1.904654 
2955.000000	1.904201 
2954.000000	1.903748 
2953.000000	1.903128 
2952.000000	1.902174 
2951.000000	1.900792 
2950.000000	1.898789 
2949.000000	1.896047 
2948.000000	1.892471 
2947.000000	1.888012 
2946.000000	1.882553 
2945.000000	1.876115 
2944.000000	1.868891 
2943.000000	1.860880 
2942.000000	1.852250 
2941.000000	1.843166 
2940.000000	1.833891 
2939.000000	1.824617 
2938.000000	1.815509 
2937.000000	1.806759 
2936.000000	1.798462 
2935.000000	1.790642 
2934.000000	1.783323 
2933.000000	1.776552 
2932.000000	1.770305 
2931.000000	1.764583 
2930.000000	1.759505 
2929.000000	1.755285 
2928.000000	1.752138 
2927.000000	1.750302 
2926.000000	1.750016 
2925.000000	1.751589 
2924.000000	1.755118 
2923.000000	1.760601 
2922.000000	1.767969 
2921.000000	1.777052 
2920.000000	1.787519 
2919.000000	1.798987 
2918.000000	1.811075 
2917.000000	1.823377 
2916.000000	1.835536 
2915.000000	1.847219 
2914.000000	1.858258 
2913.000000	1.868510 
2912.000000	1.877808 
2911.000000	1.886200 
2910.000000	1.893782 
2909.000000	1.900625 
2908.000000	1.906847 
2907.000000	1.912546 
2906.000000	1.917862 
2905.000000	1.922821 
2904.000000	1.927518 
2903.000000	1.931929 
2902.000000	1.936101 
2901.000000	1.940035 
2900.000000	1.943707 
2899.000000	1.947188 
2898.000000	1.950478 
2897.000000	1.953625 
2896.000000	1.956653 
2895.000000	1.959633 
2894.000000	1.962542 
2893.000000	1.965379 
2892.000000	1.968145 
2891.000000	1.970767 
2890.000000	1.973247 
2889.000000	1.975488 
2888.000000	1.977562 
2887.000000	1.979351 
2886.000000	1.980900 
2885.000000	1.982164 
2884.000000	1.983213 
2883.000000	1.984000 
2882.000000	1.984548 
2881.000000	1.984858 
2880.000000	1.984906 
2879.000000	1.984620 
2878.000000	1.983952 
2877.000000	1.982808 
2876.000000	1.981043 
2875.000000	1.978564 
2874.000000	1.975250 
2873.000000	1.970934 
2872.000000	1.965522 
2871.000000	1.958990 
2870.000000	1.951384 
2869.000000	1.942873 
2868.000000	1.933693 
2867.000000	1.924204 
2866.000000	1.914834 
2865.000000	1.906085 
2864.000000	1.898431 
2863.000000	1.892375 
2862.000000	1.888203 
2861.000000	1.886224 
2860.000000	1.886439 
2859.000000	1.888847 
2858.000000	1.893234 
2857.000000	1.899361 
2856.000000	1.906871 
2855.000000	1.915454 
2854.000000	1.924729 
2853.000000	1.934480 
2852.000000	1.944422 
2851.000000	1.954460 
2850.000000	1.964402 
2849.000000	1.974201 
2848.000000	1.983785 
2847.000000	1.993155 
2846.000000	2.002215 
2845.000000	2.010917 
2844.000000	2.019214 
2843.000000	2.027034 
2842.000000	2.034330 
2841.000000	2.041125 
2840.000000	2.047324 
2839.000000	2.053046 
2838.000000	2.058196 
2837.000000	2.062964 
2836.000000	2.067351 
2835.000000	2.071452 
2834.000000	2.075266 
2833.000000	2.078866 
2832.000000	2.082276 
2831.000000	2.085518 
2830.000000	2.088594 
2829.000000	2.091550 
2828.000000	2.094388 
2827.000000	2.097129 
2826.000000	2.099847 
2825.000000	2.102589 
2824.000000	2.105355 
2823.000000	2.108144 
2822.000000	2.110934 
2821.000000	2.113676 
2820.000000	2.116346 
2819.000000	2.118897 
2818.000000	2.121305 
2817.000000	2.123546 
2816.000000	2.125668 
2815.000000	2.127695 
2814.000000	2.129650 
2813.000000	2.131557 
2812.000000	2.133464 
2811.000000	2.135348 
2810.000000	2.137255 
2809.000000	2.139115 
2808.000000	2.140927 
2807.000000	2.142739 
2806.000000	2.144527 
2805.000000	2.146267 
2804.000000	2.148056 
2803.000000	2.149820 
2802.000000	2.151584 
2801.000000	2.153348 
2800.000000	2.155017 
2799.000000	2.156615 
2798.000000	2.158164 
2797.000000	2.159619 
2796.000000	2.161073 
2795.000000	2.162528 
2794.000000	2.164077 
2793.000000	2.165722 
2792.000000	2.167582 
2791.000000	2.169585 
2790.000000	2.171730 
2789.000000	2.174019 
2788.000000	2.176356 
2787.000000	2.178740 
2786.000000	2.181100 
2785.000000	2.183413 
2784.000000	2.185630 
2783.000000	2.187800 
2782.000000	2.189874 
2781.000000	2.191853 
2780.000000	2.193760 
2779.000000	2.195668 
2778.000000	2.197527 
2777.000000	2.199411 
2776.000000	2.201223 
2775.000000	2.203035 
2774.000000	2.204775 
2773.000000	2.206373 
2772.000000	2.207851 
2771.000000	2.209138 
2770.000000	2.210259 
2769.000000	2.211260 
2768.000000	2.212095 
2767.000000	2.212905 
2766.000000	2.213692 
2765.000000	2.214503 
2764.000000	2.215433 
2763.000000	2.216482 
2762.000000	2.217650 
2761.000000	2.218866 
2760.000000	2.220129 
2759.000000	2.221369 
2758.000000	2.222537 
2757.000000	2.223610 
2756.000000	2.224493 
2755.000000	2.225208 
2754.000000	2.225756 
2753.000000	2.226161 
2752.000000	2.226519 
2751.000000	2.226805 
2750.000000	2.227115 
2749.000000	2.227449 
2748.000000	2.227902 
2747.000000	2.228403 
2746.000000	2.228951 
2745.000000	2.229523 
2744.000000	2.230119 
2743.000000	2.230644 
2742.000000	2.231097 
2741.000000	2.231454 
2740.000000	2.231788 
2739.000000	2.232050 
2738.000000	2.232313 
2737.000000	2.232575 
2736.000000	2.232885 
2735.000000	2.233242 
2734.000000	2.233648 
2733.000000	2.234077 
2732.000000	2.234482 
2731.000000	2.234888 
2730.000000	2.235269 
2729.000000	2.235627 
2728.000000	2.235913 
2727.000000	2.236151 
2726.000000	2.236318 
2725.000000	2.236390 
2724.000000	2.236342 
2723.000000	2.236175 
2722.000000	2.235865 
2721.000000	2.235436 
2720.000000	2.234888 
2719.000000	2.234268 
2718.000000	2.233624 
2717.000000	2.232980 
2716.000000	2.232360 
2715.000000	2.231812 
2714.000000	2.231287 
2713.000000	2.230787 
2712.000000	2.230310 
2711.000000	2.229833 
2710.000000	2.229380 
2709.000000	2.228975 
2708.000000	2.228546 
2707.000000	2.228260 
2706.000000	2.228021 
2705.000000	2.227854 
2704.000000	2.227759 
2703.000000	2.227711 
2702.000000	2.227592 
2701.000000	2.227377 
2700.000000	2.227067 
2699.000000	2.226614 
2698.000000	2.226018 
2697.000000	2.225279 
2696.000000	2.224397 
2695.000000	2.223515 
2694.000000	2.222609 
2693.000000	2.221775 
2692.000000	2.221035 
2691.000000	2.220368 
2690.000000	2.219772 
2689.000000	2.219247 
2688.000000	2.218794 
2687.000000	2.218365 
2686.000000	2.217888 
2685.000000	2.217435 
2684.000000	2.216982 
2683.000000	2.216506 
2682.000000	2.216053 
2681.000000	2.215623 
2680.000000	2.215242 
2679.000000	2.214837 
2678.000000	2.214407 
2677.000000	2.213954 
2676.000000	2.213454 
2675.000000	2.212882 
2674.000000	2.212238 
2673.000000	2.211523 
2672.000000	2.210760 
2671.000000	2.209997 
2670.000000	2.209234 
2669.000000	2.208471 
2668.000000	2.207732 
2667.000000	2.206969 
2666.000000	2.206254 
2665.000000	2.205562 
2664.000000	2.204942 
2663.000000	2.204370 
2662.000000	2.203893 
2661.000000	2.203512 
2660.000000	2.203226 
2659.000000	2.203059 
2658.000000	2.202916 
2657.000000	2.202796 
2656.000000	2.202701 
2655.000000	2.202558 
2654.000000	2.202415 
2653.000000	2.202200 
2652.000000	2.201962 
2651.000000	2.201700 
2650.000000	2.201366 
2649.000000	2.201056 
2648.000000	2.200698 
2647.000000	2.200365 
2646.000000	2.199959 
2645.000000	2.199530 
2644.000000	2.199077 
2643.000000	2.198600 
2642.000000	2.198147 
2641.000000	2.197718 
2640.000000	2.197337 
2639.000000	2.197051 
2638.000000	2.196884 
2637.000000	2.196836 
2636.000000	2.196860 
2635.000000	2.197003 
2634.000000	2.197170 
2633.000000	2.197360 
2632.000000	2.197504 
2631.000000	2.197575 
2630.000000	2.197527 
2629.000000	2.197432 
2628.000000	2.197265 
2627.000000	2.197051 
2626.000000	2.196884 
2625.000000	2.196717 
2624.000000	2.196645 
2623.000000	2.196693 
2622.000000	2.196788 
2621.000000	2.196907 
2620.000000	2.197051 
2619.000000	2.197170 
2618.000000	2.197289 
2617.000000	2.197432 
2616.000000	2.197575 
2615.000000	2.197790 
2614.000000	2.198052 
2613.000000	2.198410 
2612.000000	2.198839 
2611.000000	2.199292 
2610.000000	2.199745 
2609.000000	2.200198 
2608.000000	2.200627 
2607.000000	2.201008 
2606.000000	2.201390 
2605.000000	2.201747 
2604.000000	2.202105 
2603.000000	2.202463 
2602.000000	2.202796 
2601.000000	2.203130 
2600.000000	2.203440 
2599.000000	2.203726 
2598.000000	2.203941 
2597.000000	2.204155 
2596.000000	2.204322 
2595.000000	2.204513 
2594.000000	2.204823 
2593.000000	2.205204 
2592.000000	2.205729 
2591.000000	2.206373 
2590.000000	2.207207 
2589.000000	2.208209 
2588.000000	2.209401 
2587.000000	2.210736 
2586.000000	2.212166 
2585.000000	2.213692 
2584.000000	2.215266 
2583.000000	2.216887 
2582.000000	2.218508 
2581.000000	2.220153 
2580.000000	2.221798 
2579.000000	2.223491 
2578.000000	2.225208 
2577.000000	2.226948 
2576.000000	2.228689 
2575.000000	2.230405 
2574.000000	2.232122 
2573.000000	2.233719 
2572.000000	2.235150 
2571.000000	2.236509 
2570.000000	2.237701 
2569.000000	2.238821 
2568.000000	2.239918 
2567.000000	2.241015 
2566.000000	2.242159 
2565.000000	2.243447 
2564.000000	2.244877 
2563.000000	2.246356 
2562.000000	2.247881 
2561.000000	2.249360 
2560.000000	2.250814 
2559.000000	2.252125 
2558.000000	2.253317 
2557.000000	2.254414 
2556.000000	2.255415 
2555.000000	2.256441 
2554.000000	2.257418 
2553.000000	2.258443 
2552.000000	2.259564 
2551.000000	2.260708 
2550.000000	2.261877 
2549.000000	2.263045 
2548.000000	2.264165 
2547.000000	2.265262 
2546.000000	2.266287 
2545.000000	2.267289 
2544.000000	2.268314 
2543.000000	2.269291 
2542.000000	2.270317 
2541.000000	2.271413 
2540.000000	2.272558 
2539.000000	2.273774 
2538.000000	2.275085 
2537.000000	2.276515 
2536.000000	2.277922 
2535.000000	2.279305 
2534.000000	2.280616 
2533.000000	2.281761 
2532.000000	2.282714 
2531.000000	2.283501 
2530.000000	2.284145 
2529.000000	2.284669 
2528.000000	2.285099 
2527.000000	2.285528 
2526.000000	2.286005 
2525.000000	2.286577 
2524.000000	2.287197 
2523.000000	2.287864 
2522.000000	2.288556 
2521.000000	2.289223 
2520.000000	2.289843 
2519.000000	2.290391 
2518.000000	2.290916 
2517.000000	2.291464 
2516.000000	2.292060 
2515.000000	2.292680 
2514.000000	2.293372 
2513.000000	2.294039 
2512.000000	2.294683 
2511.000000	2.295231 
2510.000000	2.295637 
2509.000000	2.295947 
2508.000000	2.296137 
2507.000000	2.296280 
2506.000000	2.296400 
2505.000000	2.296566 
2504.000000	2.296733 
2503.000000	2.296972 
2502.000000	2.297258 
2501.000000	2.297496 
2500.000000	2.297735 
2499.000000	2.297997 
2498.000000	2.298235 
2497.000000	2.298498 
2496.000000	2.298808 
2495.000000	2.299165 
2494.000000	2.299571 
2493.000000	2.299952 
2492.000000	2.300286 
2491.000000	2.300500 
2490.000000	2.300548 
2489.000000	2.300405 
2488.000000	2.300095 
2487.000000	2.299714 
2486.000000	2.299213 
2485.000000	2.298688 
2484.000000	2.298164 
2483.000000	2.297711 
2482.000000	2.297282 
2481.000000	2.296924 
2480.000000	2.296543 
2479.000000	2.296209 
2478.000000	2.295899 
2477.000000	2.295565 
2476.000000	2.295255 
2475.000000	2.294921 
2474.000000	2.294611 
2473.000000	2.294278 
2472.000000	2.293944 
2471.000000	2.293586 
2470.000000	2.293181 
2469.000000	2.292752 
2468.000000	2.292275 
2467.000000	2.291727 
2466.000000	2.291131 
2465.000000	2.290487 
2464.000000	2.289772 
2463.000000	2.289009 
2462.000000	2.288126 
2461.000000	2.287173 
2460.000000	2.286124 
2459.000000	2.284979 
2458.000000	2.283835 
2457.000000	2.282595 
2456.000000	2.281379 
2455.000000	2.280235 
2454.000000	2.279114 
2453.000000	2.278065 
2452.000000	2.277064 
2451.000000	2.276158 
2450.000000	2.275228 
2449.000000	2.274298 
2448.000000	2.273297 
2447.000000	2.272200 
2446.000000	2.271032 
2445.000000	2.269816 
2444.000000	2.268528 
2443.000000	2.267241 
2442.000000	2.265977 
2441.000000	2.264714 
2440.000000	2.263569 
2439.000000	2.262473 
2438.000000	2.261424 
2437.000000	2.260398 
2436.000000	2.259373 
2435.000000	2.258372 
2434.000000	2.257323 
2433.000000	2.256321 
2432.000000	2.255296 
2431.000000	2.254343 
2430.000000	2.253365 
2429.000000	2.252459 
2428.000000	2.251601 
2427.000000	2.250766 
2426.000000	2.250003 
2425.000000	2.249145 
2424.000000	2.248287 
2423.000000	2.247333 
2422.000000	2.246236 
2421.000000	2.245068 
2420.000000	2.243804 
2419.000000	2.242469 
2418.000000	2.241182 
2417.000000	2.239990 
2416.000000	2.238988 
2415.000000	2.238202 
2414.000000	2.237629 
2413.000000	2.237248 
2412.000000	2.237033 
2411.000000	2.236890 
2410.000000	2.236676 
2409.000000	2.236366 
2408.000000	2.235865 
2407.000000	2.235126 
2406.000000	2.234268 
2405.000000	2.233195 
2404.000000	2.232122 
2403.000000	2.231049 
2402.000000	2.230072 
2401.000000	2.229189 
2400.000000	2.228450 
2399.000000	2.227854 
2398.000000	2.227377 
2397.000000	2.227067 
2396.000000	2.226829 
2395.000000	2.226686 
2394.000000	2.226614 
2393.000000	2.226614 
2392.000000	2.226567 
2391.000000	2.226448 
2390.000000	2.226257 
2389.000000	2.225995 
2388.000000	2.225661 
2387.000000	2.225255 
2386.000000	2.224850 
2385.000000	2.224397 
2384.000000	2.223920 
2383.000000	2.223420 
2382.000000	2.222847 
2381.000000	2.222204 
2380.000000	2.221417 
2379.000000	2.220439 
2378.000000	2.219343 
2377.000000	2.218127 
2376.000000	2.216815 
2375.000000	2.215480 
2374.000000	2.214193 
2373.000000	2.213025 
2372.000000	2.211952 
2371.000000	2.211022 
2370.000000	2.210235 
2369.000000	2.209615 
2368.000000	2.209043 
2367.000000	2.208614 
2366.000000	2.208399 
2365.000000	2.208328 
2364.000000	2.208447 
2363.000000	2.208828 
2362.000000	2.209448 
2361.000000	2.210378 
2360.000000	2.211618 
2359.000000	2.213120 
2358.000000	2.214908 
2357.000000	2.216911 
2356.000000	2.219104 
2355.000000	2.221465 
2354.000000	2.223873 
2353.000000	2.226257 
2352.000000	2.228522 
2351.000000	2.230572 
2350.000000	2.232360 
2349.000000	2.233862 
2348.000000	2.235031 
2347.000000	2.235841 
2346.000000	2.236437 
2345.000000	2.236795 
2344.000000	2.237057 
2343.000000	2.237343 
2342.000000	2.237701 
2341.000000	2.238202 
2340.000000	2.238869 
2339.000000	2.239751 
2338.000000	2.240848 
2337.000000	2.242112 
2336.000000	2.243542 
2335.000000	2.245092 
2334.000000	2.246761 
2333.000000	2.248525 
2332.000000	2.250289 
2331.000000	2.252101 
2330.000000	2.253961 
2329.000000	2.255892 
2328.000000	2.257847 
2327.000000	2.259850 
2326.000000	2.261972 
2325.000000	2.264165 
2324.000000	2.266383 
2323.000000	2.268671 
2322.000000	2.270936 
2321.000000	2.273178 
2320.000000	2.275323 
2319.000000	2.277350 
2318.000000	2.279329 
2317.000000	2.281212 
2316.000000	2.283120 
2315.000000	2.285027 
2314.000000	2.286982 
2313.000000	2.288937 
2312.000000	2.290916 
2311.000000	2.292823 
2310.000000	2.294635 
2309.000000	2.296257 
2308.000000	2.297639 
2307.000000	2.298808 
2306.000000	2.299833 
2305.000000	2.300691 
2304.000000	2.301526 
2303.000000	2.302360 
2302.000000	2.303314 
2301.000000	2.304410 
2300.000000	2.305674 
2299.000000	2.307105 
2298.000000	2.308630 
2297.000000	2.310252 
2296.000000	2.311921 
2295.000000	2.313661 
2294.000000	2.315378 
2293.000000	2.317094 
2292.000000	2.318763 
2291.000000	2.320361 
2290.000000	2.321887 
2289.000000	2.323412 
2288.000000	2.324843 
2287.000000	2.326226 
2286.000000	2.327513 
2285.000000	2.328729 
2284.000000	2.329826 
2283.000000	2.330803 
2282.000000	2.331686 
2281.000000	2.332425 
2280.000000	2.333116 
2279.000000	2.333784 
2278.000000	2.334499 
2277.000000	2.335333 
2276.000000	2.336287 
2275.000000	2.337431 
2274.000000	2.338624 
2273.000000	2.339887 
2272.000000	2.341175 
2271.000000	2.342367 
2270.000000	2.343416 
2269.000000	2.344274 
2268.000000	2.344894 
2267.000000	2.345323 
2266.000000	2.345561 
2265.000000	2.345681 
2264.000000	2.345728 
2263.000000	2.345776 
2262.000000	2.345824 
2261.000000	2.345943 
2260.000000	2.346134 
2259.000000	2.346396 
2258.000000	2.346730 
2257.000000	2.347111 
2256.000000	2.347493 
2255.000000	2.347874 
2254.000000	2.348208 
2253.000000	2.348494 
2252.000000	2.348685 
2251.000000	2.348852 
2250.000000	2.348971 
2249.000000	2.349019 
2248.000000	2.349090 
2247.000000	2.349138 
2246.000000	2.349233 
2245.000000	2.349328 
2244.000000	2.349424 
2243.000000	2.349472 
2242.000000	2.349519 
2241.000000	2.349591 
2240.000000	2.349662 
2239.000000	2.349734 
2238.000000	2.349805 
2237.000000	2.349901 
2236.000000	2.349948 
2235.000000	2.349996 
2234.000000	2.349948 
2233.000000	2.349853 
2232.000000	2.349615 
2231.000000	2.349233 
2230.000000	2.348780 
2229.000000	2.348184 
2228.000000	2.347540 
2227.000000	2.346873 
2226.000000	2.346181 
2225.000000	2.345490 
2224.000000	2.344727 
2223.000000	2.343964 
2222.000000	2.343177 
2221.000000	2.342343 
2220.000000	2.341461 
2219.000000	2.340602 
2218.000000	2.339768 
2217.000000	2.338981 
2216.000000	2.338314 
2215.000000	2.337765 
2214.000000	2.337288 
2213.000000	2.336931 
2212.000000	2.336621 
2211.000000	2.336287 
2210.000000	2.335929 
2209.000000	2.335476 
2208.000000	2.334904 
2207.000000	2.334213 
2206.000000	2.333378 
2205.000000	2.332472 
2204.000000	2.331519 
2203.000000	2.330565 
2202.000000	2.329635 
2201.000000	2.328729 
2200.000000	2.327871 
2199.000000	2.327036 
2198.000000	2.326226 
2197.000000	2.325439 
2196.000000	2.324628 
2195.000000	2.323818 
2194.000000	2.323007 
2193.000000	2.322220 
2192.000000	2.321434 
2191.000000	2.320647 
2190.000000	2.319908 
2189.000000	2.319216 
2188.000000	2.318572 
2187.000000	2.317976 
2186.000000	2.317428 
2185.000000	2.316975 
2184.000000	2.316570 
2183.000000	2.316188 
2182.000000	2.315855 
2181.000000	2.315449 
2180.000000	2.314972 
2179.000000	2.314472 
2178.000000	2.313876 
2177.000000	2.313208 
2176.000000	2.312493 
2175.000000	2.311754 
2174.000000	2.311015 
2173.000000	2.310276 
2172.000000	2.309560 
2171.000000	2.308845 
2170.000000	2.308082 
2169.000000	2.307295 
2168.000000	2.306485 
2167.000000	2.305650 
2166.000000	2.304768 
2165.000000	2.303957 
2164.000000	2.303218 
2163.000000	2.302646 
2162.000000	2.302193 
2161.000000	2.301907 
2160.000000	2.301740 
2159.000000	2.301692 
2158.000000	2.301716 
2157.000000	2.301812 
2156.000000	2.301907 
2155.000000	2.302050 
2154.000000	2.302193 
2153.000000	2.302360 
2152.000000	2.302598 
2151.000000	2.302885 
2150.000000	2.303242 
2149.000000	2.303576 
2148.000000	2.303886 
2147.000000	2.304148 
2146.000000	2.304315 
2145.000000	2.304387 
2144.000000	2.304291 
2143.000000	2.304148 
2142.000000	2.303981 
2141.000000	2.303838 
2140.000000	2.303743 
2139.000000	2.303695 
2138.000000	2.303743 
2137.000000	2.303814 
2136.000000	2.303862 
2135.000000	2.303862 
2134.000000	2.303791 
2133.000000	2.303600 
2132.000000	2.303314 
2131.000000	2.302980 
2130.000000	2.302646 
2129.000000	2.302336 
2128.000000	2.302145 
2127.000000	2.302074 
2126.000000	2.302169 
2125.000000	2.302455 
2124.000000	2.302885 
2123.000000	2.303457 
2122.000000	2.304100 
2121.000000	2.304720 
2120.000000	2.305293 
2119.000000	2.305698 
2118.000000	2.305936 
2117.000000	2.306008 
2116.000000	2.305889 
2115.000000	2.305698 
2114.000000	2.305483 
2113.000000	2.305269 
2112.000000	2.305150 
2111.000000	2.305126 
2110.000000	2.305221 
2109.000000	2.305388 
2108.000000	2.305603 
2107.000000	2.305841 
2106.000000	2.306056 
2105.000000	2.306270 
2104.000000	2.306437 
2103.000000	2.306509 
2102.000000	2.306556 
2101.000000	2.306580 
2100.000000	2.306556 
2099.000000	2.306532 
2098.000000	2.306485 
2097.000000	2.306437 
2096.000000	2.306365 
2095.000000	2.306294 
2094.000000	2.306199 
2093.000000	2.306079 
2092.000000	2.305984 
2091.000000	2.305912 
2090.000000	2.305960 
2089.000000	2.306056 
2088.000000	2.306294 
2087.000000	2.306675 
2086.000000	2.307176 
2085.000000	2.307868 
2084.000000	2.308607 
2083.000000	2.309417 
2082.000000	2.310252 
2081.000000	2.311110 
2080.000000	2.311968 
2079.000000	2.312850 
2078.000000	2.313804 
2077.000000	2.314829 
2076.000000	2.315998 
2075.000000	2.317309 
2074.000000	2.318835 
2073.000000	2.320528 
2072.000000	2.322411 
2071.000000	2.324509 
2070.000000	2.326679 
2069.000000	2.328920 
2068.000000	2.331209 
2067.000000	2.333474 
2066.000000	2.335715 
2065.000000	2.337932 
2064.000000	2.340078 
2063.000000	2.342152 
2062.000000	2.344179 
2061.000000	2.346134 
2060.000000	2.348065 
2059.000000	2.349972 
2058.000000	2.351856 
2057.000000	2.353739 
2056.000000	2.355599 
2055.000000	2.357459 
2054.000000	2.359366 
2053.000000	2.361249 
2052.000000	2.363157 
2051.000000	2.365064 
2050.000000	2.366971 
2049.000000	2.368903 
2048.000000	2.370834 
2047.000000	2.372813 
2046.000000	2.374768 
2045.000000	2.376770 
2044.000000	2.378749 
2043.000000	2.380728 
2042.000000	2.382683 
2041.000000	2.384567 
2040.000000	2.386379 
2039.000000	2.388119 
2038.000000	2.389764 
2037.000000	2.391290 
2036.000000	2.392745 
2035.000000	2.394151 
2034.000000	2.395486 
2033.000000	2.396798 
2032.000000	2.398133 
2031.000000	2.399492 
2030.000000	2.400875 
2029.000000	2.402305 
2028.000000	2.403712 
2027.000000	2.405047 
2026.000000	2.406287 
2025.000000	2.407336 
2024.000000	2.408194 
2023.000000	2.408814 
2022.000000	2.409219 
2021.000000	2.409434 
2020.000000	2.409505 
2019.000000	2.409505 
2018.000000	2.409553 
2017.000000	2.409672 
2016.000000	2.409958 
2015.000000	2.410387 
2014.000000	2.411031 
2013.000000	2.411818 
2012.000000	2.412772 
2011.000000	2.413821 
2010.000000	2.414870 
2009.000000	2.415919 
2008.000000	2.416944 
2007.000000	2.417850 
2006.000000	2.418589 
2005.000000	2.419137 
2004.000000	2.419590 
2003.000000	2.419829 
2002.000000	2.419972 
2001.000000	2.420067 
2000.000000	2.420115 
1999.000000	2.420186 
1998.000000	2.420258 
1997.000000	2.420377 
1996.000000	2.420520 
1995.000000	2.420639 
1994.000000	2.420735 
1993.000000	2.420759 
1992.000000	2.420687 
1991.000000	2.420544 
1990.000000	2.420306 
1989.000000	2.419972 
1988.000000	2.419543 
1987.000000	2.419018 
1986.000000	2.418422 
1985.000000	2.417707 
1984.000000	2.416920 
1983.000000	2.416062 
1982.000000	2.415132 
1981.000000	2.414202 
1980.000000	2.413249 
1979.000000	2.412319 
1978.000000	2.411484 
1977.000000	2.410674 
1976.000000	2.409934 
1975.000000	2.409172 
1974.000000	2.408432 
1973.000000	2.407693 
1972.000000	2.406883 
1971.000000	2.406024 
1970.000000	2.405095 
1969.000000	2.404141 
1968.000000	2.403163 
1967.000000	2.402210 
1966.000000	2.401280 
1965.000000	2.400445 
1964.000000	2.399659 
1963.000000	2.398896 
1962.000000	2.398157 
1961.000000	2.397370 
1960.000000	2.396559 
1959.000000	2.395701 
1958.000000	2.394771 
1957.000000	2.393794 
1956.000000	2.392768 
1955.000000	2.391743 
1954.000000	2.390694 
1953.000000	2.389669 
1952.000000	2.388668 
1951.000000	2.387666 
1950.000000	2.386713 
1949.000000	2.385807 
1948.000000	2.384996 
1947.000000	2.384209 
1946.000000	2.383518 
1945.000000	2.382898 
1944.000000	2.382373 
1943.000000	2.381920 
1942.000000	2.381539 
1941.000000	2.381157 
1940.000000	2.380752 
1939.000000	2.380251 
1938.000000	2.379679 
1937.000000	2.378988 
1936.000000	2.378129 
1935.000000	2.377200 
1934.000000	2.376151 
1933.000000	2.375078 
1932.000000	2.374005 
1931.000000	2.373003 
1930.000000	2.372002 
1929.000000	2.371001 
1928.000000	2.369999 
1927.000000	2.368927 
1926.000000	2.367806 
1925.000000	2.366542 
1924.000000	2.365159 
1923.000000	2.363705 
1922.000000	2.362251 
1921.000000	2.360796 
1920.000000	2.359414 
1919.000000	2.358174 
1918.000000	2.357077 
1917.000000	2.356052 
1916.000000	2.355074 
1915.000000	2.354168 
1914.000000	2.353191 
1913.000000	2.352118 
1912.000000	2.350926 
1911.000000	2.349638 
1910.000000	2.348279 
1909.000000	2.346920 
1908.000000	2.345585 
1907.000000	2.344322 
1906.000000	2.343177 
1905.000000	2.342176 
1904.000000	2.341270 
1903.000000	2.340459 
1902.000000	2.339649 
1901.000000	2.338838 
1900.000000	2.337980 
1899.000000	2.337121 
1898.000000	2.336215 
1897.000000	2.335309 
1896.000000	2.334475 
1895.000000	2.333831 
1894.000000	2.333307 
1893.000000	2.332997 
1892.000000	2.332925 
1891.000000	2.333068 
1890.000000	2.333426 
1889.000000	2.333927 
1888.000000	2.334570 
1887.000000	2.335286 
1886.000000	2.336049 
1885.000000	2.336788 
1884.000000	2.337503 
1883.000000	2.338194 
1882.000000	2.338814 
1881.000000	2.339386 
1880.000000	2.339911 
1879.000000	2.340388 
1878.000000	2.340769 
1877.000000	2.341079 
1876.000000	2.341222 
1875.000000	2.341246 
1874.000000	2.341127 
1873.000000	2.340841 
1872.000000	2.340435 
1871.000000	2.340006 
1870.000000	2.339601 
1869.000000	2.339363 
1868.000000	2.339363 
1867.000000	2.339649 
1866.000000	2.340292 
1865.000000	2.341270 
1864.000000	2.342486 
1863.000000	2.343845 
1862.000000	2.345275 
1861.000000	2.346634 
1860.000000	2.347874 
1859.000000	2.348899 
1858.000000	2.349758 
1857.000000	2.350497 
1856.000000	2.351164 
1855.000000	2.351760 
1854.000000	2.352309 
1853.000000	2.352857 
1852.000000	2.353310 
1851.000000	2.353644 
1850.000000	2.353858 
1849.000000	2.353930 
1848.000000	2.353906 
1847.000000	2.353858 
1846.000000	2.353930 
1845.000000	2.354168 
1844.000000	2.354717 
1843.000000	2.355599 
1842.000000	2.356743 
1841.000000	2.358102 
1840.000000	2.359604 
1839.000000	2.361035 
1838.000000	2.362346 
1837.000000	2.363395 
1836.000000	2.364182 
1835.000000	2.364706 
1834.000000	2.365040 
1833.000000	2.365303 
1832.000000	2.365612 
1831.000000	2.366042 
1830.000000	2.366662 
1829.000000	2.367568 
1828.000000	2.368760 
1827.000000	2.370190 
1826.000000	2.371835 
1825.000000	2.373576 
1824.000000	2.375364 
1823.000000	2.377128 
1822.000000	2.378797 
1821.000000	2.380299 
1820.000000	2.381587 
1819.000000	2.382636 
1818.000000	2.383518 
1817.000000	2.384233 
1816.000000	2.384829 
1815.000000	2.385401 
1814.000000	2.385950 
1813.000000	2.386569 
1812.000000	2.387261 
1811.000000	2.388000 
1810.000000	2.388763 
1809.000000	2.389502 
1808.000000	2.390217 
1807.000000	2.390789 
1806.000000	2.391242 
1805.000000	2.391576 
1804.000000	2.391791 
1803.000000	2.391910 
1802.000000	2.391910 
1801.000000	2.391862 
1800.000000	2.391695 
1799.000000	2.391433 
1798.000000	2.391028 
1797.000000	2.390527 
1796.000000	2.389907 
1795.000000	2.389287 
1794.000000	2.388763 
1793.000000	2.388453 
1792.000000	2.388334 
1791.000000	2.388501 
1790.000000	2.388882 
1789.000000	2.389478 
1788.000000	2.390098 
1787.000000	2.390718 
1786.000000	2.391195 
1785.000000	2.391505 
1784.000000	2.391600 
1783.000000	2.391433 
1782.000000	2.390956 
1781.000000	2.390170 
1780.000000	2.389025 
1779.000000	2.387475 
1778.000000	2.385568 
1777.000000	2.383375 
1776.000000	2.381014 
1775.000000	2.378654 
1774.000000	2.376484 
1773.000000	2.374768 
1772.000000	2.373600 
1771.000000	2.373027 
1770.000000	2.373003 
1769.000000	2.373433 
1768.000000	2.374100 
1767.000000	2.374768 
1766.000000	2.375316 
1765.000000	2.375578 
1764.000000	2.375531 
1763.000000	2.375125 
1762.000000	2.374386 
1761.000000	2.373337 
1760.000000	2.372002 
1759.000000	2.370262 
1758.000000	2.368164 
1757.000000	2.365636 
1756.000000	2.362728 
1755.000000	2.359461 
1754.000000	2.356004 
1753.000000	2.352428 
1752.000000	2.348899 
1751.000000	2.345585 
1750.000000	2.342462 
1749.000000	2.339649 
1748.000000	2.336955 
1747.000000	2.334380 
1746.000000	2.331781 
1745.000000	2.328944 
1744.000000	2.325797 
1743.000000	2.322268 
1742.000000	2.318334 
1741.000000	2.313947 
1740.000000	2.309298 
1739.000000	2.304577 
1738.000000	2.299952 
1737.000000	2.295756 
1736.000000	2.292227 
1735.000000	2.289581 
1734.000000	2.287888 
1733.000000	2.287173 
1732.000000	2.287340 
1731.000000	2.288079 
1730.000000	2.289128 
1729.000000	2.290177 
1728.000000	2.290844 
1727.000000	2.290892 
1726.000000	2.290081 
1725.000000	2.288365 
1724.000000	2.285695 
1723.000000	2.282238 
1722.000000	2.278232 
1721.000000	2.274012 
1720.000000	2.269911 
1719.000000	2.266287 
1718.000000	2.263450 
1717.000000	2.261567 
1716.000000	2.260684 
1715.000000	2.260684 
1714.000000	2.261304 
1713.000000	2.262187 
1712.000000	2.262926 
1711.000000	2.263164 
1710.000000	2.262663 
1709.000000	2.261257 
1708.000000	2.258872 
1707.000000	2.255558 
1706.000000	2.251434 
1705.000000	2.246689 
1704.000000	2.241539 
1703.000000	2.236342 
1702.000000	2.231287 
1701.000000	2.226710 
1700.000000	2.222919 
1699.000000	2.220225 
1698.000000	2.218675 
1697.000000	2.218317 
1696.000000	2.218937 
1695.000000	2.220201 
1694.000000	2.221727 
1693.000000	2.222919 
1692.000000	2.223396 
1691.000000	2.222824 
1690.000000	2.221107 
1689.000000	2.218389 
1688.000000	2.215051 
1687.000000	2.211523 
1686.000000	2.208328 
1685.000000	2.205848 
1684.000000	2.204275 
1683.000000	2.203655 
1682.000000	2.203798 
1681.000000	2.204346 
1680.000000	2.204918 
1679.000000	2.205157 
1678.000000	2.204847 
1677.000000	2.203822 
1676.000000	2.202224 
1675.000000	2.200198 
1674.000000	2.197957 
1673.000000	2.195668 
1672.000000	2.193474 
1671.000000	2.191448 
1670.000000	2.189588 
1669.000000	2.187848 
1668.000000	2.186203 
1667.000000	2.184629 
1666.000000	2.183127 
1665.000000	2.181553 
1664.000000	2.179884 
1663.000000	2.177906 
1662.000000	2.175426 
1661.000000	2.172279 
1660.000000	2.168297 
1659.000000	2.163386 
1658.000000	2.157711 
1657.000000	2.151536 
1656.000000	2.145314 
1655.000000	2.139449 
1654.000000	2.134418 
1653.000000	2.130508 
1652.000000	2.127838 
1651.000000	2.126383 
1650.000000	2.125978 
1649.000000	2.126312 
1648.000000	2.127051 
1647.000000	2.127885 
1646.000000	2.128553 
1645.000000	2.128863 
1644.000000	2.128601 
1643.000000	2.127671 
1642.000000	2.126073 
1641.000000	2.123808 
1640.000000	2.120971 
1639.000000	2.117729 
1638.000000	2.114343 
1637.000000	2.111053 
1636.000000	2.108097 
1635.000000	2.105569 
1634.000000	2.103519 
1633.000000	2.101802 
1632.000000	2.100229 
1631.000000	2.098488 
1630.000000	2.096343 
1629.000000	2.093601 
1628.000000	2.090191 
1627.000000	2.086067 
1626.000000	2.081251 
1625.000000	2.075862 
1624.000000	2.069902 
1623.000000	2.063488 
1622.000000	2.056527 
1621.000000	2.049136 
1620.000000	2.041220 
1619.000000	2.032804 
1618.000000	2.023935 
1617.000000	2.014613 
1616.000000	2.004981 
1615.000000	1.995158 
1614.000000	1.985311 
1613.000000	1.975655 
1612.000000	1.966476 
1611.000000	1.958131 
1610.000000	1.950907 
1609.000000	1.945114 
1608.000000	1.941037 
1607.000000	1.938724 
1606.000000	1.938223 
1605.000000	1.939439 
1604.000000	1.942086 
1603.000000	1.945805 
1602.000000	1.950263 
1601.000000	1.955080 
1600.000000	1.960015 
1599.000000	1.964712 
1598.000000	1.969075 
1597.000000	1.972961 
1596.000000	1.976299 
1595.000000	1.979017 
1594.000000	1.980996 
1593.000000	1.982307 
1592.000000	1.982927 
1591.000000	1.982903 
1590.000000	1.982307 
1589.000000	1.981306 
1588.000000	1.979923 
1587.000000	1.978325 
1586.000000	1.976513 
1585.000000	1.974511 
1584.000000	1.972293 
1583.000000	1.969885 
1582.000000	1.967287 
1581.000000	1.964545 
1580.000000	1.961731 
1579.000000	1.959013 
1578.000000	1.956558 
1577.000000	1.954460 
1576.000000	1.952767 
1575.000000	1.951527 
1574.000000	1.950645 
1573.000000	1.950001 
1572.000000	1.949405 
1571.000000	1.948571 
1570.000000	1.947355 
1569.000000	1.945447 
1568.000000	1.942586 
1567.000000	1.938676 
1566.000000	1.933646 
1565.000000	1.927614 
1564.000000	1.920843 
1563.000000	1.913762 
1562.000000	1.906895 
1561.000000	1.900839 
1560.000000	1.896190 
1559.000000	1.893424 
1558.000000	1.892733 
1557.000000	1.894092 
1556.000000	1.897239 
1555.000000	1.901698 
1554.000000	1.906776 
1553.000000	1.911950 
1552.000000	1.916646 
1551.000000	1.920390 
1550.000000	1.922965 
1549.000000	1.924371 
1548.000000	1.924705 
1547.000000	1.924300 
1546.000000	1.923632 
1545.000000	1.923227 
1544.000000	1.923799 
1543.000000	1.925897 
1542.000000	1.930093 
1541.000000	1.936626 
1540.000000	1.945590 
1539.000000	1.956725 
1538.000000	1.969671 
1537.000000	1.983761 
1536.000000	1.998281 
1535.000000	2.012515 
1534.000000	2.025914 
1533.000000	2.037906 
1532.000000	2.048206 
1531.000000	2.056741 
1530.000000	2.063584 
1529.000000	2.068734 
1528.000000	2.072381 
1527.000000	2.074790 
1526.000000	2.076220 
1525.000000	2.076816 
1524.000000	2.076792 
1523.000000	2.076315 
1522.000000	2.075529 
1521.000000	2.074503 
1520.000000	2.073311 
1519.000000	2.071928 
1518.000000	2.070379 
1517.000000	2.068662 
1516.000000	2.066683 
1515.000000	2.064347 
1514.000000	2.061605 
1513.000000	2.058434 
1512.000000	2.054715 
1511.000000	2.050232 
1510.000000	2.044844 
1509.000000	2.038240 
1508.000000	2.029871 
1507.000000	2.019071 
1506.000000	2.005004 
1505.000000	1.986765 
1504.000000	1.963710 
1503.000000	1.935291 
1502.000000	1.901555 
1501.000000	1.863312 
1500.000000	1.822090 
1499.000000	1.780033 
1498.000000	1.739716 
1497.000000	1.703906 
1496.000000	1.675224 
1495.000000	1.655626 
1494.000000	1.646232 
1493.000000	1.647233 
1492.000000	1.658010 
1491.000000	1.676917 
1490.000000	1.702094 
1489.000000	1.731109 
1488.000000	1.762032 
1487.000000	1.792788 
1486.000000	1.821923 
1485.000000	1.848268 
1484.000000	1.871275 
1483.000000	1.890587 
1482.000000	1.906228 
1481.000000	1.918363 
1480.000000	1.927351 
1479.000000	1.933765 
1478.000000	1.938009 
1477.000000	1.940560 
1476.000000	1.941823 
1475.000000	1.942276 
1474.000000	1.942133 
1473.000000	1.941514 
1472.000000	1.940488 
1471.000000	1.939034 
1470.000000	1.937174 
1469.000000	1.934623 
1468.000000	1.931238 
1467.000000	1.926875 
1466.000000	1.921367 
1465.000000	1.914358 
1464.000000	1.905608 
1463.000000	1.894927 
1462.000000	1.882243 
1461.000000	1.867532 
1460.000000	1.850891 
1459.000000	1.832818 
1458.000000	1.813840 
1457.000000	1.794910 
1456.000000	1.776885 
1455.000000	1.760816 
1454.000000	1.747679 
1453.000000	1.738405 
1452.000000	1.733446 
1451.000000	1.733064 
1450.000000	1.737022 
1449.000000	1.744818 
1448.000000	1.755499 
1447.000000	1.767921 
1446.000000	1.780986 
1445.000000	1.793527 
1444.000000	1.804733 
1443.000000	1.814055 
1442.000000	1.821279 
1441.000000	1.826524 
1440.000000	1.830101 
1439.000000	1.832532 
1438.000000	1.834249 
1437.000000	1.835608 
1436.000000	1.836872 
1435.000000	1.838088 
1434.000000	1.839232 
1433.000000	1.840305 
1432.000000	1.841139 
1431.000000	1.841688 
1430.000000	1.841855 
1429.000000	1.841640 
1428.000000	1.841092 
1427.000000	1.840162 
1426.000000	1.838874 
1425.000000	1.837277 
1424.000000	1.835441 
1423.000000	1.833391 
1422.000000	1.831197 
1421.000000	1.828956 
1420.000000	1.826691 
1419.000000	1.824426 
1418.000000	1.821994 
1417.000000	1.819181 
1416.000000	1.815772 
1415.000000	1.811337 
1414.000000	1.805591 
1413.000000	1.798272 
1412.000000	1.789212 
1411.000000	1.778531 
1410.000000	1.766490 
1409.000000	1.753616 
1408.000000	1.740598 
1407.000000	1.728200 
1406.000000	1.717138 
1405.000000	1.708149 
1404.000000	1.701712 
1403.000000	1.698207 
1402.000000	1.697587 
1401.000000	1.699757 
1400.000000	1.704311 
1399.000000	1.710820 
1398.000000	1.718640 
1397.000000	1.727175 
1396.000000	1.735782 
1395.000000	1.743912 
1394.000000	1.751065 
1393.000000	1.756834 
1392.000000	1.760959 
1391.000000	1.763343 
1390.000000	1.764130 
1389.000000	1.763606 
1388.000000	1.762199 
1387.000000	1.760482 
1386.000000	1.758909 
1385.000000	1.758003 
1384.000000	1.758027 
1383.000000	1.759076 
1382.000000	1.761150 
1381.000000	1.763939 
1380.000000	1.767134 
1379.000000	1.770401 
1378.000000	1.773524 
1377.000000	1.776266 
1376.000000	1.778554 
1375.000000	1.780414 
1374.000000	1.781940 
1373.000000	1.783227 
1372.000000	1.784324 
1371.000000	1.785349 
1370.000000	1.786255 
1369.000000	1.787137 
1368.000000	1.787877 
1367.000000	1.788425 
1366.000000	1.788878 
1365.000000	1.789188 
1364.000000	1.789402 
1363.000000	1.789522 
1362.000000	1.789522 
1361.000000	1.789474 
1360.000000	1.789355 
1359.000000	1.789164 
1358.000000	1.788902 
1357.000000	1.788568 
1356.000000	1.788210 
1355.000000	1.787829 
1354.000000	1.787424 
1353.000000	1.787042 
1352.000000	1.786708 
1351.000000	1.786398 
1350.000000	1.786184 
1349.000000	1.785993 
1348.000000	1.785826 
1347.000000	1.785707 
1346.000000	1.785588 
1345.000000	1.785564 
1344.000000	1.785659 
1343.000000	1.785922 
1342.000000	1.786422 
1341.000000	1.787281 
1340.000000	1.788520 
1339.000000	1.790165 
1338.000000	1.792216 
1337.000000	1.794672 
1336.000000	1.797366 
1335.000000	1.800179 
1334.000000	1.803016 
1333.000000	1.805686 
1332.000000	1.808166 
1331.000000	1.810312 
1330.000000	1.812148 
1329.000000	1.813673 
1328.000000	1.814913 
1327.000000	1.815986 
1326.000000	1.816892 
1325.000000	1.817679 
1324.000000	1.818490 
1323.000000	1.819276 
1322.000000	1.820063 
1321.000000	1.820826 
1320.000000	1.821565 
1319.000000	1.822233 
1318.000000	1.822805 
1317.000000	1.823258 
1316.000000	1.823544 
1315.000000	1.823663 
1314.000000	1.823639 
1313.000000	1.823520 
1312.000000	1.823329 
1311.000000	1.823115 
1310.000000	1.822948 
1309.000000	1.822876 
1308.000000	1.822900 
1307.000000	1.823043 
1306.000000	1.823306 
1305.000000	1.823639 
1304.000000	1.823997 
1303.000000	1.824355 
1302.000000	1.824688 
1301.000000	1.824951 
1300.000000	1.825141 
1299.000000	1.825308 
1298.000000	1.825475 
1297.000000	1.825571 
1296.000000	1.825714 
1295.000000	1.825857 
1294.000000	1.826047 
1293.000000	1.826167 
1292.000000	1.826214 
1291.000000	1.826214 
1290.000000	1.826095 
1289.000000	1.825857 
1288.000000	1.825571 
1287.000000	1.825165 
1286.000000	1.824665 
1285.000000	1.824116 
1284.000000	1.823425 
1283.000000	1.822566 
1282.000000	1.821470 
1281.000000	1.820063 
1280.000000	1.818251 
1279.000000	1.815915 
1278.000000	1.812958 
1277.000000	1.809334 
1276.000000	1.804924 
1275.000000	1.799631 
1274.000000	1.793313 
1273.000000	1.786017 
1272.000000	1.777553 
1271.000000	1.768016 
1270.000000	1.757574 
1269.000000	1.746392 
1268.000000	1.734900 
1267.000000	1.723575 
1266.000000	1.713013 
1265.000000	1.703786 
1264.000000	1.696515 
1263.000000	1.691699 
1262.000000	1.689648 
1261.000000	1.690554 
1260.000000	1.694369 
1259.000000	1.700758 
1258.000000	1.709318 
1257.000000	1.719450 
1256.000000	1.730513 
1255.000000	1.741766 
1254.000000	1.752686 
1253.000000	1.762795 
1252.000000	1.771807 
1251.000000	1.779508 
1250.000000	1.785945 
1249.000000	1.791143 
1248.000000	1.795315 
1247.000000	1.798629 
1246.000000	1.801228 
1245.000000	1.803278 
1244.000000	1.804852 
1243.000000	1.805996 
1242.000000	1.806831 
1241.000000	1.807284 
1240.000000	1.807451 
1239.000000	1.807403 
1238.000000	1.807117 
1237.000000	1.806664 
1236.000000	1.806044 
1235.000000	1.805305 
1234.000000	1.804375 
1233.000000	1.803302 
1232.000000	1.802110 
1231.000000	1.800727 
1230.000000	1.799225 
1229.000000	1.797580 
1228.000000	1.795816 
1227.000000	1.793909 
1226.000000	1.791834 
1225.000000	1.789593 
1224.000000	1.787090 
1223.000000	1.784229 
1222.000000	1.781034 
1221.000000	1.777458 
1220.000000	1.773428 
1219.000000	1.769018 
1218.000000	1.764297 
1217.000000	1.759362 
1216.000000	1.754307 
1215.000000	1.749253 
1214.000000	1.744389 
1213.000000	1.739788 
1212.000000	1.735591 
1211.000000	1.731801 
1210.000000	1.728487 
1209.000000	1.725769 
1208.000000	1.723599 
1207.000000	1.721906 
1206.000000	1.720714 
1205.000000	1.720023 
1204.000000	1.719689 
1203.000000	1.719665 
1202.000000	1.719903 
1201.000000	1.720285 
1200.000000	1.720714 
1199.000000	1.721143 
1198.000000	1.721429 
1197.000000	1.721477 
1196.000000	1.721215 
1195.000000	1.720571 
1194.000000	1.719594 
1193.000000	1.718235 
1192.000000	1.716613 
1191.000000	1.714682 
1190.000000	1.712584 
1189.000000	1.710295 
1188.000000	1.707887 
1187.000000	1.705384 
1186.000000	1.702857 
1185.000000	1.700305 
1184.000000	1.697778 
1183.000000	1.695251 
1182.000000	1.692724 
1181.000000	1.690220 
1180.000000	1.687669 
1179.000000	1.685023 
1178.000000	1.682281 
1177.000000	1.679396 
1176.000000	1.676321 
1175.000000	1.673054 
1174.000000	1.669573 
1173.000000	1.665878 
1172.000000	1.662015 
1171.000000	1.657986 
1170.000000	1.653814 
1169.000000	1.649546 
1168.000000	1.645135 
1167.000000	1.640653 
1166.000000	1.636028 
1165.000000	1.631307 
1164.000000	1.626467 
1163.000000	1.621603 
1162.000000	1.616740 
1161.000000	1.612091 
1160.000000	1.607704 
1159.000000	1.603722 
1158.000000	1.600170 
1157.000000	1.597166 
1156.000000	1.594662 
1155.000000	1.592564 
1154.000000	1.590871 
1153.000000	1.589441 
1152.000000	1.588177 
1151.000000	1.586985 
1150.000000	1.585769 
1149.000000	1.584506 
1148.000000	1.583123 
1147.000000	1.581645 
1146.000000	1.579976 
1145.000000	1.578187 
1144.000000	1.576232 
1143.000000	1.574110 
1142.000000	1.571822 
1141.000000	1.569318 
1140.000000	1.566600 
1139.000000	1.563644 
1138.000000	1.560425 
1137.000000	1.556968 
1136.000000	1.553249 
1135.000000	1.549339 
1134.000000	1.545238 
1133.000000	1.540923 
1132.000000	1.536512 
1131.000000	1.532006 
1130.000000	1.527404 
1129.000000	1.522731 
1128.000000	1.518058 
1127.000000	1.513361 
1126.000000	1.508593 
1125.000000	1.503801 
1124.000000	1.498937 
1123.000000	1.494026 
1122.000000	1.489019 
1121.000000	1.483941 
1120.000000	1.478838 
1119.000000	1.473665 
1118.000000	1.468420 
1117.000000	1.463127 
1116.000000	1.457810 
1115.000000	1.452493 
1114.000000	1.447200 
1113.000000	1.442003 
1112.000000	1.437020 
1111.000000	1.432204 
1110.000000	1.427745 
1109.000000	1.423668 
1108.000000	1.420116 
1107.000000	1.416993 
1106.000000	1.414418 
1105.000000	1.412320 
1104.000000	1.410675 
1103.000000	1.409387 
1102.000000	1.408386 
1101.000000	1.407575 
1100.000000	1.406860 
1099.000000	1.406192 
1098.000000	1.405572 
1097.000000	1.404929 
1096.000000	1.404356 
1095.000000	1.403856 
1094.000000	1.403450 
1093.000000	1.403236 
1092.000000	1.403236 
1091.000000	1.403427 
1090.000000	1.403808 
1089.000000	1.404309 
1088.000000	1.404881 
1087.000000	1.405405 
1086.000000	1.405835 
1085.000000	1.406049 
1084.000000	1.406025 
1083.000000	1.405835 
1082.000000	1.405501 
1081.000000	1.405072 
1080.000000	1.404762 
1079.000000	1.404547 
1078.000000	1.404619 
1077.000000	1.405024 
1076.000000	1.405715 
1075.000000	1.406717 
1074.000000	1.408004 
1073.000000	1.409459 
1072.000000	1.410984 
1071.000000	1.412463 
1070.000000	1.413822 
1069.000000	1.414990 
1068.000000	1.415872 
1067.000000	1.416468 
1066.000000	1.416659 
1065.000000	1.416397 
1064.000000	1.415443 
1063.000000	1.413631 
1062.000000	1.410603 
1061.000000	1.405930 
1060.000000	1.399230 
1059.000000	1.390242 
1058.000000	1.378798 
1057.000000	1.365137 
1056.000000	1.349782 
1055.000000	1.333618 
1054.000000	1.317715 
1053.000000	1.303458 
1052.000000	1.291990 
1051.000000	1.284313 
1050.000000	1.281046 
1049.000000	1.282238 
1048.000000	1.287508 
1047.000000	1.295995 
1046.000000	1.306605 
1045.000000	1.318097 
1044.000000	1.329374 
1043.000000	1.339554 
1042.000000	1.347994 
1041.000000	1.354479 
1040.000000	1.359033 
1039.000000	1.361846 
1038.000000	1.363205 
1037.000000	1.363492 
1036.000000	1.362991 
1035.000000	1.361989 
1034.000000	1.360654 
1033.000000	1.359128 
1032.000000	1.357436 
1031.000000	1.355695 
1030.000000	1.353859 
1029.000000	1.352000 
1028.000000	1.350092 
1027.000000	1.348209 
1026.000000	1.346373 
1025.000000	1.344609 
1024.000000	1.343059 
1023.000000	1.341772 
1022.000000	1.340866 
1021.000000	1.340389 
1020.000000	1.340436 
1019.000000	1.341032 
1018.000000	1.342105 
1017.000000	1.343679 
1016.000000	1.345610 
1015.000000	1.347851 
1014.000000	1.350378 
1013.000000	1.353073 
1012.000000	1.355838 
1011.000000	1.358604 
1010.000000	1.361370 
1009.000000	1.364040 
1008.000000	1.366519 
1007.000000	1.368880 
1006.000000	1.371026 
1005.000000	1.372957 
1004.000000	1.374673 
1003.000000	1.376104 
1002.000000	1.377296 
1001.000000	1.378297 
1000.000000	1.379013 
999.000000	 1.379489 
998.000000	 1.379680 
997.000000	 1.379585 
996.000000	 1.379203 
995.000000	 1.378512 
994.000000	 1.377558 
993.000000	 1.376390 
992.000000	 1.375031 
991.000000	 1.373577 
990.000000	 1.372003 
989.000000	 1.370358 
988.000000	 1.368594 
987.000000	 1.366758 
986.000000	 1.364803 
985.000000	 1.362752 
984.000000	 1.360559 
983.000000	 1.358342 
982.000000	 1.356124 
981.000000	 1.353931 
980.000000	 1.351833 
979.000000	 1.349902 
978.000000	 1.348042 
977.000000	 1.346230 
976.000000	 1.344418 
975.000000	 1.342535 
974.000000	 1.340508 
973.000000	 1.338291 
972.000000	 1.335811 
971.000000	 1.333141 
970.000000	 1.330280 
969.000000	 1.327228 
968.000000	 1.324009 
967.000000	 1.320672 
966.000000	 1.317191 
965.000000	 1.313567 
964.000000	 1.309823 
963.000000	 1.306009 
962.000000	 1.302123 
961.000000	 1.298213 
960.000000	 1.294326 
959.000000	 1.290488 
958.000000	 1.286768 
957.000000	 1.283192 
956.000000	 1.279759 
955.000000	 1.276469 
954.000000	 1.273393 
953.000000	 1.270484 
952.000000	 1.267743 
951.000000	 1.265168 
950.000000	 1.262760 
949.000000	 1.260423 
948.000000	 1.258182 
947.000000	 1.255941 
946.000000	 1.253724 
945.000000	 1.251482 
944.000000	 1.249194 
943.000000	 1.246976 
942.000000	 1.244783 
941.000000	 1.242685 
940.000000	 1.240682 
939.000000	 1.238822 
938.000000	 1.237010 
937.000000	 1.235198 
936.000000	 1.233410 
935.000000	 1.231551 
934.000000	 1.229596 
933.000000	 1.227521 
932.000000	 1.225376 
931.000000	 1.223182 
930.000000	 1.220989 
929.000000	 1.218748 
928.000000	 1.216530 
927.000000	 1.214313 
926.000000	 1.212143 
925.000000	 1.209974 
924.000000	 1.207804 
923.000000	 1.205635 
922.000000	 1.203370 
921.000000	 1.201033 
920.000000	 1.198577 
919.000000	 1.195883 
918.000000	 1.192975 
917.000000	 1.189756 
916.000000	 1.186227 
915.000000	 1.182413 
914.000000	 1.178407 
913.000000	 1.174330 
912.000000	 1.170229 
911.000000	 1.166272 
910.000000	 1.162505 
909.000000	 1.159071 
908.000000	 1.155948 
907.000000	 1.153111 
906.000000	 1.150584 
905.000000	 1.148295 
904.000000	 1.146197 
903.000000	 1.144289 
902.000000	 1.142477 
901.000000	 1.140809 
900.000000	 1.139235 
899.000000	 1.137709 
898.000000	 1.136183 
897.000000	 1.134657 
896.000000	 1.133036 
895.000000	 1.131224 
894.000000	 1.129078 
893.000000	 1.126551 
892.000000	 1.123476 
891.000000	 1.119804 
890.000000	 1.115345 
889.000000	 1.110100 
888.000000	 1.103997 
887.000000	 1.097059 
886.000000	 1.089286 
885.000000	 1.080846 
884.000000	 1.071906 
883.000000	 1.062703 
882.000000	 1.053452 
881.000000	 1.044559 
880.000000	 1.036357 
879.000000	 1.029181 
878.000000	 1.023316 
877.000000	 1.019048 
876.000000	 1.016569 
875.000000	 1.015925 
874.000000	 1.017093 
873.000000	 1.019978 
872.000000	 1.024222 
871.000000	 1.029586 
870.000000	 1.035618 
869.000000	 1.041960 
868.000000	 1.048254 
867.000000	 1.054215 
866.000000	 1.059603 
865.000000	 1.064252 
864.000000	 1.068139 
863.000000	 1.071286 
862.000000	 1.073718 
861.000000	 1.075482 
860.000000	 1.076698 
859.000000	 1.077461 
858.000000	 1.077795 
857.000000	 1.077747 
856.000000	 1.077413 
855.000000	 1.076817 
854.000000	 1.075983 
853.000000	 1.074981 
852.000000	 1.073837 
851.000000	 1.072573 
850.000000	 1.071214 
849.000000	 1.069831 
848.000000	 1.068401 
847.000000	 1.066780 
846.000000	 1.065039 
845.000000	 1.063060 
844.000000	 1.060748 
843.000000	 1.058006 
842.000000	 1.054716 
841.000000	 1.050710 
840.000000	 1.045799 
839.000000	 1.039814 
838.000000	 1.032423 
837.000000	 1.023459 
836.000000	 1.012682 
835.000000	 0.999879 
834.000000	 0.985026 
833.000000	 0.968265 
832.000000	 0.949883 
831.000000	 0.930356 
830.000000	 0.910496 
829.000000	 0.891113 
828.000000	 0.873303 
827.000000	 0.858068 
826.000000	 0.846290 
825.000000	 0.838613 
824.000000	 0.835371 
823.000000	 0.836491 
822.000000	 0.841569 
821.000000	 0.849843 
820.000000	 0.860381 
819.000000	 0.872111 
818.000000	 0.884151 
817.000000	 0.895547 
816.000000	 0.905728 
815.000000	 0.914359 
814.000000	 0.921225 
813.000000	 0.926375 
812.000000	 0.930023 
811.000000	 0.932359 
810.000000	 0.933718 
809.000000	 0.934243 
808.000000	 0.934219 
807.000000	 0.933837 
806.000000	 0.933265 
805.000000	 0.932526 
804.000000	 0.931835 
803.000000	 0.931262 
802.000000	 0.930881 
801.000000	 0.930809 
800.000000	 0.931119 
799.000000	 0.931835 
798.000000	 0.932979 
797.000000	 0.934481 
796.000000	 0.936341 
795.000000	 0.938534 
794.000000	 0.940942 
793.000000	 0.943517 
792.000000	 0.946164 
791.000000	 0.948810 
790.000000	 0.951409 
789.000000	 0.953960 
788.000000	 0.956296 
787.000000	 0.958442 
786.000000	 0.960350 
785.000000	 0.961971 
784.000000	 0.963282 
783.000000	 0.964212 
782.000000	 0.964832 
781.000000	 0.965166 
780.000000	 0.965213 
779.000000	 0.965023 
778.000000	 0.964689 
777.000000	 0.964283 
776.000000	 0.963783 
775.000000	 0.963234 
774.000000	 0.962638 
773.000000	 0.961995 
772.000000	 0.961279 
771.000000	 0.960516 
770.000000	 0.959682 
769.000000	 0.958800 
768.000000	 0.957870 
767.000000	 0.956988 
766.000000	 0.956106 
765.000000	 0.955224 
764.000000	 0.954461 
763.000000	 0.953722 
762.000000	 0.952959 
761.000000	 0.952196 
760.000000	 0.951337 
759.000000	 0.950407 
758.000000	 0.949382 
757.000000	 0.948190 
756.000000	 0.946903 
755.000000	 0.945520 
754.000000	 0.944066 
753.000000	 0.942540 
752.000000	 0.940966 
751.000000	 0.939440 
750.000000	 0.937914 
749.000000	 0.936460 
748.000000	 0.935029 
747.000000	 0.933670 
746.000000	 0.932288 
745.000000	 0.930881 
744.000000	 0.929450 
743.000000	 0.927829 
742.000000	 0.926041 
741.000000	 0.924110 
740.000000	 0.922060 
739.000000	 0.919818 
738.000000	 0.917458 
737.000000	 0.914955 
736.000000	 0.912404 
735.000000	 0.909709 
734.000000	 0.906920 
733.000000	 0.904083 
732.000000	 0.901150 
731.000000	 0.898122 
730.000000	 0.895023 
729.000000	 0.891923 
728.000000	 0.888872 
727.000000	 0.885868 
726.000000	 0.882959 
725.000000	 0.880169 
724.000000	 0.877523 
723.000000	 0.874948 
722.000000	 0.872421 
721.000000	 0.869846 
720.000000	 0.867223 
719.000000	 0.864553 
718.000000	 0.861763 
717.000000	 0.858855 
716.000000	 0.855898 
715.000000	 0.852870 
714.000000	 0.849866 
713.000000	 0.846862 
712.000000	 0.843930 
711.000000	 0.840973 
710.000000	 0.838065 
709.000000	 0.835084 
708.000000	 0.832056 
707.000000	 0.828838 
706.000000	 0.825500 
705.000000	 0.821924 
704.000000	 0.818228 
703.000000	 0.814318 
702.000000	 0.810217 
701.000000	 0.805854 
700.000000	 0.801229 
699.000000	 0.796246 
698.000000	 0.790834 
697.000000	 0.784873 
696.000000	 0.778341 
695.000000	 0.771236 
694.000000	 0.763678 
693.000000	 0.755906 
692.000000	 0.748157 
691.000000	 0.740790 
690.000000	 0.734210 
689.000000	 0.728678 
688.000000	 0.724458 
687.000000	 0.721597 
686.000000	 0.720047 
685.000000	 0.719618 
684.000000	 0.720071 
683.000000	 0.720953 
682.000000	 0.722026 
681.000000	 0.722980 
680.000000	 0.723600 
679.000000	 0.723767 
678.000000	 0.723457 
677.000000	 0.722742 
676.000000	 0.721573 
675.000000	 0.720143 
674.000000	 0.718498 
673.000000	 0.716686 
672.000000	 0.714707 
671.000000	 0.712656 
670.000000	 0.710511 
669.000000	 0.708270 
668.000000	 0.705885 
667.000000	 0.703430 
666.000000	 0.700926 
665.000000	 0.698447 
664.000000	 0.696015 
663.000000	 0.693655 
662.000000	 0.691366 
661.000000	 0.689196 
660.000000	 0.687122 
659.000000	 0.685071 
658.000000	 0.683021 
657.000000	 0.680851 
656.000000	 0.678586 
655.000000	 0.676131 
654.000000	 0.673460 
653.000000	 0.670695 
652.000000	 0.667810 
651.000000	 0.664925 
650.000000	 0.662016 
649.000000	 0.659203 
648.000000	 0.656461 
647.000000	 0.653767 
646.000000	 0.651097 
645.000000	 0.648379 
644.000000	 0.645637 
643.000000	 0.642848 
642.000000	 0.640010 
641.000000	 0.637078 
640.000000	 0.634193 
639.000000	 0.631308 
638.000000	 0.628447 
637.000000	 0.625658 
636.000000	 0.622916 
635.000000	 0.620222 
634.000000	 0.617551 
633.000000	 0.614953 
632.000000	 0.612378 
631.000000	 0.609850 
630.000000	 0.607419 
629.000000	 0.605010 
628.000000	 0.602722 
627.000000	 0.600457 
626.000000	 0.598239 
625.000000	 0.595998 
624.000000	 0.593733 
623.000000	 0.591421 
622.000000	 0.588989 
621.000000	 0.586390 
620.000000	 0.583553 
619.000000	 0.580501 
618.000000	 0.577211 
617.000000	 0.573611 
616.000000	 0.569677 
615.000000	 0.565409 
614.000000	 0.560808 
613.000000	 0.555896 
612.000000	 0.550746 
611.000000	 0.545501 
610.000000	 0.540280 
609.000000	 0.535249 
608.000000	 0.530576 
607.000000	 0.526452 
606.000000	 0.522994 
605.000000	 0.520205 
604.000000	 0.518155 
603.000000	 0.516700 
602.000000	 0.515770 
601.000000	 0.515174 
600.000000	 0.514793 
599.000000	 0.514459 
598.000000	 0.514101 
597.000000	 0.513625 
596.000000	 0.513052 
595.000000	 0.512313 
594.000000	 0.511479 
593.000000	 0.510549 
592.000000	 0.509595 
591.000000	 0.508546 
590.000000	 0.507426 
589.000000	 0.506210 
588.000000	 0.504970 
587.000000	 0.503611 
586.000000	 0.502252 
585.000000	 0.500798 
584.000000	 0.499367 
583.000000	 0.497984 
582.000000	 0.496673 
581.000000	 0.495505 
580.000000	 0.494503 
579.000000	 0.493645 
578.000000	 0.492930 
577.000000	 0.492334 
576.000000	 0.491809 
575.000000	 0.491285 
574.000000	 0.490713 
573.000000	 0.490093 
572.000000	 0.489282 
571.000000	 0.488305 
570.000000	 0.487089 
569.000000	 0.485730 
568.000000	 0.484204 
567.000000	 0.482535 
566.000000	 0.480842 
565.000000	 0.479102 
564.000000	 0.477409 
563.000000	 0.475764 
562.000000	 0.474190 
561.000000	 0.472688 
560.000000	 0.471210 
559.000000	 0.469756 
558.000000	 0.468277 
557.000000	 0.466823 
556.000000	 0.465321 
555.000000	 0.463819 
554.000000	 0.462269 
553.000000	 0.460696 
552.000000	 0.459098 
551.000000	 0.457453 
550.000000	 0.455689 
549.000000	 0.453805 
548.000000	 0.451874 
547.000000	 0.449872 
546.000000	 0.447845 
545.000000	 0.445842 
544.000000	 0.443887 
543.000000	 0.442051 
542.000000	 0.440335 
541.000000	 0.438785 
540.000000	 0.437283 
539.000000	 0.435876 
538.000000	 0.434446 
537.000000	 0.432991 
536.000000	 0.431418 
535.000000	 0.429725 
534.000000	 0.427937 
533.000000	 0.425982 
532.000000	 0.423908 
531.000000	 0.421714 
530.000000	 0.419425 
529.000000	 0.417017 
528.000000	 0.414490 
527.000000	 0.411915 
526.000000	 0.409269 
525.000000	 0.406599 
524.000000	 0.403952 
523.000000	 0.401353 
522.000000	 0.398826 
521.000000	 0.396370 
520.000000	 0.394010 
519.000000	 0.391745 
518.000000	 0.389504 
517.000000	 0.387334 
516.000000	 0.385212 
515.000000	 0.383114 
514.000000	 0.380969 
513.000000	 0.378775 
512.000000	 0.376510 
511.000000	 0.374126 
510.000000	 0.371623 
509.000000	 0.368976 
508.000000	 0.366234 
507.000000	 0.363445 
506.000000	 0.360584 
505.000000	 0.357723 
504.000000	 0.354862 
503.000000	 0.352001 
502.000000	 0.349092 
501.000000	 0.346159 
500.000000	 0.343084 
499.000000	 0.339889 
498.000000	 0.336575 
497.000000	 0.333118 
496.000000	 0.329542 
495.000000	 0.325942 
494.000000	 0.322294 
493.000000	 0.318670 
492.000000	 0.315022 
491.000000	 0.311446 
490.000000	 0.307846 
489.000000	 0.304269 
488.000000	 0.300717 
487.000000	 0.297188 
486.000000	 0.293636 
485.000000	 0.290107 
484.000000	 0.286579 
483.000000	 0.283074 
482.000000	 0.279569 
481.000000	 0.276088 
480.000000	 0.272607 
479.000000	 0.269174 
478.000000	 0.265741 
477.000000	 0.262379 
476.000000	 0.259089 
475.000000	 0.255918 
474.000000	 0.252890 
473.000000	 0.249981 
472.000000	 0.247192 
471.000000	 0.244498 
470.000000	 0.241899 
469.000000	 0.239324 
468.000000	 0.236725 
467.000000	 0.234127 
466.000000	 0.231432 
465.000000	 0.228595 
464.000000	 0.225639 
463.000000	 0.222492 
462.000000	 0.219082 
461.000000	 0.215506 
460.000000	 0.211668 
459.000000	 0.207686 
458.000000	 0.203490 
457.000000	 0.199222 
456.000000	 0.194907 
455.000000	 0.190639 
454.000000	 0.186538 
453.000000	 0.182604 
452.000000	 0.178956 
451.000000	 0.175595 
450.000000	 0.172519 
449.000000	 0.169754 
448.000000	 0.167202 
447.000000	 0.164842 
446.000000	 0.162553 
445.000000	 0.160288 
444.000000	 0.158023 
443.000000	 0.155735 
442.000000	 0.153374 
441.000000	 0.150918 
440.000000	 0.148320 
439.000000	 0.145697 
438.000000	 0.142931 
437.000000	 0.140094 
436.000000	 0.137209 
435.000000	 0.134253 
434.000000	 0.131249 
433.000000	 0.128197 
432.000000	 0.125098 
431.000000	 0.121974 
430.000000	 0.118803 
429.000000	 0.115609 
428.000000	 0.112342 
427.000000	 0.109052 
426.000000	 0.105762 
425.000000	 0.102472 
424.000000	 0.099205 
423.000000	 0.095987 
422.000000	 0.092864 
421.000000	 0.089812 
420.000000	 0.086879 
419.000000	 0.084066 
418.000000	 0.081348 
417.000000	 0.078701 
416.000000	 0.076055 
415.000000	 0.073480 
414.000000	 0.070881 
413.000000	 0.068235 
412.000000	 0.065588 
411.000000	 0.062894 
410.000000	 0.060176 
409.000000	 0.057435 
408.000000	 0.054717 
407.000000	 0.052165 
406.000000	 0.049734 
405.000000	 0.047516 
404.000000	 0.045585 
403.000000	 0.043940 
402.000000	 0.042581 
401.000000	 0.041484 
400.000000	 0.040555 
399.000000	 0.039672 
398.000000	 0.038814 
397.000000	 0.037789 
396.000000	 0.036549 
395.000000	 0.035047 
394.000000	 0.033354 
393.000000	 0.031471 
392.000000	 0.029468 
391.000000	 0.027489 
390.000000	 0.025582 
389.000000	 0.023794 
388.000000	 0.022196 
387.000000	 0.020766 
386.000000	 0.019502 
385.000000	 0.018358 
384.000000	 0.017309 
383.000000	 0.016355 
382.000000	 0.015449 
381.000000	 0.014638 
380.000000	 0.013923 
379.000000	 0.013256 
378.000000	 0.012683 
377.000000	 0.012159 
376.000000	 0.011682 
375.000000	 0.011253 
374.000000	 0.010824 
373.000000	 0.010418 
372.000000	 0.010061 
371.000000	 0.009751 
370.000000	 0.009417 

