PE IR       SPECTRUM    SPECTRUM    ASCII       PEDS        1.60        
  -1
LP07BB~1.ASC
17/05/16
18:00:33.00
17/05/16
18:00:33.00
tln
$LPE453_e0124$<ebV0>[-23.3,12.1,10.0,0.0,27,1,0]
370.000000
64









2002,4.07    
MIRTGS : RIGHTBACK : INTERNAL 2
MIR : ON : INTERNAL 2
OPTKBR

0.200000
8
8.000000
FILLER
SINGLE
SPECTRUM
UNLOCKED 256

DOUBLE

COMBINED
1
0
0


1.000000
BACKG


1
0
TRUE
51149
0
LEFT NOT FITTED RIGHT NOT FITTED 0
NONE
NONE
15600
12.000000
4.427000
51148
TRUE
1 0 8 72 0 0 0 0 

15798.010000






#HDR
-1
-1
#GR
CM-1
EGY
0.00002384185791015625
0.0
5000.000000
-1.000000
4631
8
2.420949
0.008201
#DATA
5000.000000	0.763392 
4999.000000	0.763964 
4998.000000	0.764513 
4997.000000	0.765085 
4996.000000	0.765657 
4995.000000	0.766205 
4994.000000	0.766730 
4993.000000	0.767254 
4992.000000	0.767850 
4991.000000	0.768470 
4990.000000	0.769186 
4989.000000	0.769948 
4988.000000	0.770759 
4987.000000	0.771594 
4986.000000	0.772404 
4985.000000	0.773143 
4984.000000	0.773787 
4983.000000	0.774288 
4982.000000	0.774621 
4981.000000	0.774812 
4980.000000	0.774836 
4979.000000	0.774741 
4978.000000	0.774669 
4977.000000	0.774621 
4976.000000	0.774669 
4975.000000	0.774860 
4974.000000	0.775289 
4973.000000	0.775933 
4972.000000	0.776791 
4971.000000	0.777792 
4970.000000	0.778889 
4969.000000	0.780034 
4968.000000	0.781106 
4967.000000	0.782036 
4966.000000	0.782871 
4965.000000	0.783467 
4964.000000	0.783920 
4963.000000	0.784230 
4962.000000	0.784516 
4961.000000	0.784802 
4960.000000	0.785160 
4959.000000	0.785589 
4958.000000	0.786185 
4957.000000	0.786805 
4956.000000	0.787472 
4955.000000	0.788044 
4954.000000	0.788521 
4953.000000	0.788807 
4952.000000	0.788950 
4951.000000	0.788927 
4950.000000	0.788784 
4949.000000	0.788640 
4948.000000	0.788521 
4947.000000	0.788474 
4946.000000	0.788545 
4945.000000	0.788712 
4944.000000	0.788998 
4943.000000	0.789356 
4942.000000	0.789785 
4941.000000	0.790238 
4940.000000	0.790691 
4939.000000	0.791168 
4938.000000	0.791668 
4937.000000	0.792169 
4936.000000	0.792741 
4935.000000	0.793409 
4934.000000	0.794148 
4933.000000	0.794982 
4932.000000	0.795841 
4931.000000	0.796747 
4930.000000	0.797629 
4929.000000	0.798416 
4928.000000	0.799107 
4927.000000	0.799679 
4926.000000	0.800132 
4925.000000	0.800466 
4924.000000	0.800776 
4923.000000	0.801038 
4922.000000	0.801324 
4921.000000	0.801658 
4920.000000	0.802040 
4919.000000	0.802469 
4918.000000	0.802874 
4917.000000	0.803256 
4916.000000	0.803589 
4915.000000	0.803852 
4914.000000	0.804090 
4913.000000	0.804233 
4912.000000	0.804376 
4911.000000	0.804495 
4910.000000	0.804710 
4909.000000	0.804972 
4908.000000	0.805377 
4907.000000	0.805902 
4906.000000	0.806474 
4905.000000	0.807142 
4904.000000	0.807833 
4903.000000	0.808548 
4902.000000	0.809216 
4901.000000	0.809860 
4900.000000	0.810408 
4899.000000	0.810861 
4898.000000	0.811195 
4897.000000	0.811433 
4896.000000	0.811576 
4895.000000	0.811600 
4894.000000	0.811624 
4893.000000	0.811648 
4892.000000	0.811743 
4891.000000	0.811958 
4890.000000	0.812315 
4889.000000	0.812768 
4888.000000	0.813317 
4887.000000	0.813961 
4886.000000	0.814580 
4885.000000	0.815105 
4884.000000	0.815534 
4883.000000	0.815820 
4882.000000	0.815987 
4881.000000	0.816082 
4880.000000	0.816106 
4879.000000	0.816154 
4878.000000	0.816273 
4877.000000	0.816535 
4876.000000	0.816941 
4875.000000	0.817465 
4874.000000	0.818085 
4873.000000	0.818777 
4872.000000	0.819444 
4871.000000	0.819993 
4870.000000	0.820422 
4869.000000	0.820732 
4868.000000	0.820922 
4867.000000	0.821065 
4866.000000	0.821208 
4865.000000	0.821423 
4864.000000	0.821757 
4863.000000	0.822234 
4862.000000	0.822925 
4861.000000	0.823736 
4860.000000	0.824618 
4859.000000	0.825524 
4858.000000	0.826382 
4857.000000	0.827240 
4856.000000	0.828003 
4855.000000	0.828671 
4854.000000	0.829267 
4853.000000	0.829815 
4852.000000	0.830340 
4851.000000	0.830841 
4850.000000	0.831317 
4849.000000	0.831818 
4848.000000	0.832390 
4847.000000	0.832962 
4846.000000	0.833606 
4845.000000	0.834274 
4844.000000	0.835013 
4843.000000	0.835847 
4842.000000	0.836706 
4841.000000	0.837635 
4840.000000	0.838565 
4839.000000	0.839543 
4838.000000	0.840497 
4837.000000	0.841403 
4836.000000	0.842237 
4835.000000	0.843024 
4834.000000	0.843739 
4833.000000	0.844383 
4832.000000	0.844931 
4831.000000	0.845432 
4830.000000	0.845861 
4829.000000	0.846219 
4828.000000	0.846576 
4827.000000	0.846934 
4826.000000	0.847291 
4825.000000	0.847625 
4824.000000	0.848007 
4823.000000	0.848388 
4822.000000	0.848746 
4821.000000	0.849175 
4820.000000	0.849604 
4819.000000	0.850033 
4818.000000	0.850534 
4817.000000	0.851035 
4816.000000	0.851655 
4815.000000	0.852370 
4814.000000	0.853157 
4813.000000	0.853991 
4812.000000	0.854849 
4811.000000	0.855708 
4810.000000	0.856590 
4809.000000	0.857400 
4808.000000	0.858116 
4807.000000	0.858759 
4806.000000	0.859332 
4805.000000	0.859785 
4804.000000	0.860190 
4803.000000	0.860571 
4802.000000	0.860881 
4801.000000	0.861191 
4800.000000	0.861549 
4799.000000	0.861954 
4798.000000	0.862407 
4797.000000	0.862932 
4796.000000	0.863480 
4795.000000	0.864005 
4794.000000	0.864434 
4793.000000	0.864839 
4792.000000	0.865149 
4791.000000	0.865387 
4790.000000	0.865626 
4789.000000	0.865888 
4788.000000	0.866270 
4787.000000	0.866794 
4786.000000	0.867533 
4785.000000	0.868439 
4784.000000	0.869488 
4783.000000	0.870609 
4782.000000	0.871801 
4781.000000	0.872945 
4780.000000	0.874042 
4779.000000	0.875020 
4778.000000	0.875854 
4777.000000	0.876498 
4776.000000	0.876975 
4775.000000	0.877356 
4774.000000	0.877642 
4773.000000	0.877833 
4772.000000	0.878047 
4771.000000	0.878286 
4770.000000	0.878572 
4769.000000	0.878930 
4768.000000	0.879383 
4767.000000	0.879883 
4766.000000	0.880384 
4765.000000	0.880932 
4764.000000	0.881505 
4763.000000	0.882148 
4762.000000	0.882768 
4761.000000	0.883460 
4760.000000	0.884199 
4759.000000	0.884914 
4758.000000	0.885558 
4757.000000	0.886106 
4756.000000	0.886487 
4755.000000	0.886654 
4754.000000	0.886654 
4753.000000	0.886511 
4752.000000	0.886273 
4751.000000	0.886058 
4750.000000	0.885987 
4749.000000	0.886034 
4748.000000	0.886273 
4747.000000	0.886678 
4746.000000	0.887155 
4745.000000	0.887727 
4744.000000	0.888323 
4743.000000	0.888943 
4742.000000	0.889611 
4741.000000	0.890350 
4740.000000	0.891160 
4739.000000	0.892090 
4738.000000	0.893115 
4737.000000	0.894236 
4736.000000	0.895380 
4735.000000	0.896453 
4734.000000	0.897359 
4733.000000	0.898051 
4732.000000	0.898551 
4731.000000	0.898838 
4730.000000	0.898933 
4729.000000	0.898909 
4728.000000	0.898814 
4727.000000	0.898671 
4726.000000	0.898504 
4725.000000	0.898337 
4724.000000	0.898170 
4723.000000	0.898003 
4722.000000	0.897860 
4721.000000	0.897717 
4720.000000	0.897693 
4719.000000	0.897741 
4718.000000	0.897932 
4717.000000	0.898289 
4716.000000	0.898718 
4715.000000	0.899219 
4714.000000	0.899744 
4713.000000	0.900149 
4712.000000	0.900483 
4711.000000	0.900626 
4710.000000	0.900530 
4709.000000	0.900316 
4708.000000	0.899887 
4707.000000	0.899386 
4706.000000	0.898909 
4705.000000	0.898528 
4704.000000	0.898289 
4703.000000	0.898337 
4702.000000	0.898551 
4701.000000	0.898957 
4700.000000	0.899529 
4699.000000	0.900149 
4698.000000	0.900793 
4697.000000	0.901365 
4696.000000	0.901818 
4695.000000	0.902152 
4694.000000	0.902414 
4693.000000	0.902581 
4692.000000	0.902724 
4691.000000	0.902819 
4690.000000	0.902915 
4689.000000	0.902962 
4688.000000	0.902986 
4687.000000	0.902938 
4686.000000	0.902771 
4685.000000	0.902462 
4684.000000	0.902032 
4683.000000	0.901556 
4682.000000	0.901079 
4681.000000	0.900602 
4680.000000	0.900268 
4679.000000	0.900125 
4678.000000	0.900197 
4677.000000	0.900483 
4676.000000	0.901007 
4675.000000	0.901699 
4674.000000	0.902462 
4673.000000	0.903272 
4672.000000	0.904083 
4671.000000	0.904822 
4670.000000	0.905466 
4669.000000	0.905942 
4668.000000	0.906252 
4667.000000	0.906419 
4666.000000	0.906443 
4665.000000	0.906395 
4664.000000	0.906324 
4663.000000	0.906300 
4662.000000	0.906372 
4661.000000	0.906538 
4660.000000	0.906848 
4659.000000	0.907254 
4658.000000	0.907707 
4657.000000	0.908088 
4656.000000	0.908422 
4655.000000	0.908613 
4654.000000	0.908660 
4653.000000	0.908613 
4652.000000	0.908446 
4651.000000	0.908255 
4650.000000	0.908160 
4649.000000	0.908160 
4648.000000	0.908350 
4647.000000	0.908756 
4646.000000	0.909352 
4645.000000	0.910091 
4644.000000	0.910949 
4643.000000	0.911784 
4642.000000	0.912523 
4641.000000	0.913143 
4640.000000	0.913548 
4639.000000	0.913739 
4638.000000	0.913763 
4637.000000	0.913691 
4636.000000	0.913524 
4635.000000	0.913429 
4634.000000	0.913453 
4633.000000	0.913596 
4632.000000	0.913906 
4631.000000	0.914335 
4630.000000	0.914835 
4629.000000	0.915336 
4628.000000	0.915861 
4627.000000	0.916337 
4626.000000	0.916814 
4625.000000	0.917291 
4624.000000	0.917816 
4623.000000	0.918436 
4622.000000	0.919198 
4621.000000	0.920057 
4620.000000	0.921010 
4619.000000	0.922083 
4618.000000	0.923228 
4617.000000	0.924372 
4616.000000	0.925445 
4615.000000	0.926375 
4614.000000	0.927138 
4613.000000	0.927662 
4612.000000	0.927877 
4611.000000	0.927877 
4610.000000	0.927662 
4609.000000	0.927305 
4608.000000	0.926971 
4607.000000	0.926756 
4606.000000	0.926756 
4605.000000	0.927019 
4604.000000	0.927543 
4603.000000	0.928306 
4602.000000	0.929164 
4601.000000	0.929999 
4600.000000	0.930809 
4599.000000	0.931453 
4598.000000	0.931954 
4597.000000	0.932335 
4596.000000	0.932526 
4595.000000	0.932621 
4594.000000	0.932598 
4593.000000	0.932526 
4592.000000	0.932478 
4591.000000	0.932455 
4590.000000	0.932502 
4589.000000	0.932669 
4588.000000	0.932955 
4587.000000	0.933432 
4586.000000	0.934123 
4585.000000	0.935029 
4584.000000	0.936222 
4583.000000	0.937652 
4582.000000	0.939273 
4581.000000	0.941014 
4580.000000	0.942707 
4579.000000	0.944256 
4578.000000	0.945496 
4577.000000	0.946426 
4576.000000	0.947046 
4575.000000	0.947451 
4574.000000	0.947761 
4573.000000	0.948047 
4572.000000	0.948381 
4571.000000	0.948786 
4570.000000	0.949263 
4569.000000	0.949788 
4568.000000	0.950336 
4567.000000	0.950860 
4566.000000	0.951433 
4565.000000	0.952100 
4564.000000	0.952911 
4563.000000	0.953841 
4562.000000	0.954914 
4561.000000	0.956034 
4560.000000	0.957155 
4559.000000	0.958228 
4558.000000	0.959205 
4557.000000	0.960087 
4556.000000	0.960922 
4555.000000	0.961685 
4554.000000	0.962352 
4553.000000	0.962901 
4552.000000	0.963306 
4551.000000	0.963640 
4550.000000	0.963997 
4549.000000	0.964570 
4548.000000	0.965404 
4547.000000	0.966405 
4546.000000	0.967454 
4545.000000	0.968337 
4544.000000	0.968742 
4543.000000	0.968480 
4542.000000	0.967502 
4541.000000	0.965952 
4540.000000	0.964117 
4539.000000	0.962424 
4538.000000	0.961208 
4537.000000	0.960683 
4536.000000	0.960969 
4535.000000	0.961971 
4534.000000	0.963592 
4533.000000	0.965738 
4532.000000	0.968480 
4531.000000	0.971746 
4530.000000	0.975561 
4529.000000	0.979638 
4528.000000	0.983262 
4527.000000	0.985360 
4526.000000	0.984764 
4525.000000	0.980663 
4524.000000	0.972867 
4523.000000	0.962352 
4522.000000	0.951051 
4521.000000	0.941777 
4520.000000	0.937438 
4519.000000	0.940370 
4518.000000	0.951600 
4517.000000	0.970411 
4516.000000	0.994253 
4515.000000	1.019263 
4514.000000	1.041126 
4513.000000	1.056146 
4512.000000	1.061844 
4511.000000	1.057839 
4510.000000	1.045656 
4509.000000	1.028203 
4508.000000	1.009058 
4507.000000	0.991582 
4506.000000	0.978112 
4505.000000	0.969719 
4504.000000	0.966119 
4503.000000	0.966191 
4502.000000	0.968360 
4501.000000	0.971293 
4500.000000	0.974082 
4499.000000	0.976538 
4498.000000	0.979042 
4497.000000	0.982117 
4496.000000	0.986170 
4495.000000	0.991177 
4494.000000	0.996804 
4493.000000	1.002168 
4492.000000	1.006412 
4491.000000	1.008677 
4490.000000	1.008605 
4489.000000	1.006174 
4488.000000	1.001954 
4487.000000	0.996708 
4486.000000	0.991439 
4485.000000	0.987005 
4484.000000	0.983977 
4483.000000	0.982642 
4482.000000	0.982952 
4481.000000	0.984573 
4480.000000	0.987076 
4479.000000	0.989818 
4478.000000	0.992345 
4477.000000	0.994420 
4476.000000	0.995969 
4475.000000	0.997066 
4474.000000	0.997877 
4473.000000	0.998497 
4472.000000	0.999069 
4471.000000	0.999641 
4470.000000	1.000142 
4469.000000	1.000595 
4468.000000	1.000905 
4467.000000	1.000976 
4466.000000	1.000881 
4465.000000	1.000738 
4464.000000	1.000595 
4463.000000	1.000595 
4462.000000	1.000785 
4461.000000	1.001214 
4460.000000	1.001834 
4459.000000	1.002550 
4458.000000	1.003336 
4457.000000	1.004076 
4456.000000	1.004767 
4455.000000	1.005363 
4454.000000	1.005840 
4453.000000	1.006174 
4452.000000	1.006460 
4451.000000	1.006650 
4450.000000	1.006865 
4449.000000	1.007151 
4448.000000	1.007485 
4447.000000	1.007986 
4446.000000	1.008534 
4445.000000	1.009082 
4444.000000	1.009535 
4443.000000	1.009821 
4442.000000	1.009845 
4441.000000	1.009607 
4440.000000	1.009082 
4439.000000	1.008415 
4438.000000	1.007676 
4437.000000	1.006937 
4436.000000	1.006317 
4435.000000	1.005864 
4434.000000	1.005601 
4433.000000	1.005578 
4432.000000	1.005697 
4431.000000	1.005935 
4430.000000	1.006221 
4429.000000	1.006531 
4428.000000	1.006865 
4427.000000	1.007127 
4426.000000	1.007342 
4425.000000	1.007461 
4424.000000	1.007485 
4423.000000	1.007437 
4422.000000	1.007437 
4421.000000	1.007485 
4420.000000	1.007652 
4419.000000	1.008033 
4418.000000	1.008605 
4417.000000	1.009368 
4416.000000	1.010322 
4415.000000	1.011300 
4414.000000	1.012277 
4413.000000	1.013135 
4412.000000	1.013827 
4411.000000	1.014351 
4410.000000	1.014709 
4409.000000	1.014947 
4408.000000	1.015186 
4407.000000	1.015448 
4406.000000	1.015782 
4405.000000	1.016283 
4404.000000	1.016831 
4403.000000	1.017427 
4402.000000	1.018023 
4401.000000	1.018500 
4400.000000	1.018857 
4399.000000	1.019144 
4398.000000	1.019334 
4397.000000	1.019454 
4396.000000	1.019620 
4395.000000	1.019883 
4394.000000	1.020264 
4393.000000	1.020836 
4392.000000	1.021528 
4391.000000	1.022315 
4390.000000	1.023173 
4389.000000	1.024079 
4388.000000	1.024937 
4387.000000	1.025676 
4386.000000	1.026272 
4385.000000	1.026654 
4384.000000	1.026892 
4383.000000	1.027011 
4382.000000	1.026964 
4381.000000	1.026916 
4380.000000	1.026892 
4379.000000	1.026988 
4378.000000	1.027202 
4377.000000	1.027631 
4376.000000	1.028251 
4375.000000	1.029062 
4374.000000	1.030039 
4373.000000	1.031160 
4372.000000	1.032376 
4371.000000	1.033687 
4370.000000	1.034998 
4369.000000	1.036262 
4368.000000	1.037430 
4367.000000	1.038408 
4366.000000	1.039147 
4365.000000	1.039600 
4364.000000	1.039838 
4363.000000	1.039910 
4362.000000	1.039886 
4361.000000	1.039910 
4360.000000	1.040077 
4359.000000	1.040482 
4358.000000	1.041197 
4357.000000	1.042175 
4356.000000	1.043438 
4355.000000	1.044893 
4354.000000	1.046514 
4353.000000	1.048135 
4352.000000	1.049780 
4351.000000	1.051306 
4350.000000	1.052761 
4349.000000	1.054072 
4348.000000	1.055240 
4347.000000	1.056241 
4346.000000	1.057100 
4345.000000	1.057815 
4344.000000	1.058506 
4343.000000	1.059174 
4342.000000	1.059913 
4341.000000	1.060652 
4340.000000	1.061511 
4339.000000	1.062417 
4338.000000	1.063394 
4337.000000	1.064443 
4336.000000	1.065564 
4335.000000	1.066708 
4334.000000	1.067948 
4333.000000	1.069235 
4332.000000	1.070594 
4331.000000	1.071977 
4330.000000	1.073360 
4329.000000	1.074719 
4328.000000	1.076006 
4327.000000	1.077270 
4326.000000	1.078438 
4325.000000	1.079535 
4324.000000	1.080608 
4323.000000	1.081609 
4322.000000	1.082658 
4321.000000	1.083660 
4320.000000	1.084709 
4319.000000	1.085758 
4318.000000	1.086783 
4317.000000	1.087808 
4316.000000	1.088833 
4315.000000	1.089882 
4314.000000	1.091003 
4313.000000	1.092147 
4312.000000	1.093339 
4311.000000	1.094579 
4310.000000	1.095819 
4309.000000	1.097011 
4308.000000	1.098084 
4307.000000	1.099061 
4306.000000	1.099896 
4305.000000	1.100635 
4304.000000	1.101374 
4303.000000	1.102137 
4302.000000	1.103091 
4301.000000	1.104187 
4300.000000	1.105475 
4299.000000	1.106953 
4298.000000	1.108527 
4297.000000	1.110076 
4296.000000	1.111602 
4295.000000	1.113033 
4294.000000	1.114368 
4293.000000	1.115655 
4292.000000	1.116871 
4291.000000	1.118111 
4290.000000	1.119399 
4289.000000	1.120734 
4288.000000	1.122093 
4287.000000	1.123523 
4286.000000	1.125001 
4285.000000	1.126551 
4284.000000	1.128101 
4283.000000	1.129651 
4282.000000	1.131153 
4281.000000	1.132512 
4280.000000	1.133704 
4279.000000	1.134657 
4278.000000	1.135349 
4277.000000	1.135778 
4276.000000	1.136016 
4275.000000	1.136112 
4274.000000	1.136207 
4273.000000	1.136350 
4272.000000	1.136684 
4271.000000	1.137256 
4270.000000	1.138043 
4269.000000	1.139044 
4268.000000	1.140260 
4267.000000	1.141643 
4266.000000	1.143074 
4265.000000	1.144528 
4264.000000	1.145911 
4263.000000	1.147103 
4262.000000	1.148176 
4261.000000	1.149034 
4260.000000	1.149749 
4259.000000	1.150393 
4258.000000	1.151061 
4257.000000	1.151823 
4256.000000	1.152706 
4255.000000	1.153755 
4254.000000	1.154899 
4253.000000	1.156067 
4252.000000	1.157188 
4251.000000	1.158142 
4250.000000	1.158905 
4249.000000	1.159501 
4248.000000	1.159954 
4247.000000	1.160311 
4246.000000	1.160669 
4245.000000	1.161074 
4244.000000	1.161623 
4243.000000	1.162242 
4242.000000	1.162958 
4241.000000	1.163792 
4240.000000	1.164650 
4239.000000	1.165556 
4238.000000	1.166415 
4237.000000	1.167225 
4236.000000	1.168012 
4235.000000	1.168775 
4234.000000	1.169490 
4233.000000	1.170229 
4232.000000	1.170921 
4231.000000	1.171612 
4230.000000	1.172351 
4229.000000	1.173067 
4228.000000	1.173758 
4227.000000	1.174449 
4226.000000	1.175069 
4225.000000	1.175642 
4224.000000	1.176166 
4223.000000	1.176595 
4222.000000	1.177000 
4221.000000	1.177406 
4220.000000	1.177835 
4219.000000	1.178312 
4218.000000	1.178884 
4217.000000	1.179504 
4216.000000	1.180195 
4215.000000	1.180934 
4214.000000	1.181650 
4213.000000	1.182317 
4212.000000	1.182913 
4211.000000	1.183390 
4210.000000	1.183748 
4209.000000	1.184010 
4208.000000	1.184177 
4207.000000	1.184296 
4206.000000	1.184320 
4205.000000	1.184391 
4204.000000	1.184511 
4203.000000	1.184725 
4202.000000	1.185059 
4201.000000	1.185536 
4200.000000	1.186156 
4199.000000	1.186943 
4198.000000	1.187825 
4197.000000	1.188778 
4196.000000	1.189708 
4195.000000	1.190590 
4194.000000	1.191377 
4193.000000	1.192021 
4192.000000	1.192498 
4191.000000	1.192927 
4190.000000	1.193261 
4189.000000	1.193594 
4188.000000	1.193928 
4187.000000	1.194381 
4186.000000	1.194953 
4185.000000	1.195669 
4184.000000	1.196527 
4183.000000	1.197504 
4182.000000	1.198554 
4181.000000	1.199579 
4180.000000	1.200604 
4179.000000	1.201558 
4178.000000	1.202416 
4177.000000	1.203179 
4176.000000	1.203846 
4175.000000	1.204395 
4174.000000	1.204848 
4173.000000	1.205205 
4172.000000	1.205420 
4171.000000	1.205492 
4170.000000	1.205420 
4169.000000	1.205205 
4168.000000	1.204991 
4167.000000	1.204752 
4166.000000	1.204586 
4165.000000	1.204633 
4164.000000	1.204872 
4163.000000	1.205420 
4162.000000	1.206135 
4161.000000	1.207017 
4160.000000	1.207971 
4159.000000	1.208949 
4158.000000	1.209902 
4157.000000	1.210761 
4156.000000	1.211524 
4155.000000	1.212286 
4154.000000	1.213049 
4153.000000	1.213812 
4152.000000	1.214623 
4151.000000	1.215529 
4150.000000	1.216411 
4149.000000	1.217293 
4148.000000	1.218104 
4147.000000	1.218819 
4146.000000	1.219391 
4145.000000	1.219820 
4144.000000	1.220107 
4143.000000	1.220273 
4142.000000	1.220393 
4141.000000	1.220512 
4140.000000	1.220750 
4139.000000	1.221132 
4138.000000	1.221728 
4137.000000	1.222538 
4136.000000	1.223587 
4135.000000	1.224803 
4134.000000	1.226139 
4133.000000	1.227521 
4132.000000	1.228833 
4131.000000	1.229977 
4130.000000	1.230978 
4129.000000	1.231741 
4128.000000	1.232314 
4127.000000	1.232767 
4126.000000	1.233148 
4125.000000	1.233577 
4124.000000	1.234078 
4123.000000	1.234698 
4122.000000	1.235508 
4121.000000	1.236462 
4120.000000	1.237535 
4119.000000	1.238632 
4118.000000	1.239728 
4117.000000	1.240706 
4116.000000	1.241540 
4115.000000	1.242184 
4114.000000	1.242685 
4113.000000	1.243042 
4112.000000	1.243376 
4111.000000	1.243710 
4110.000000	1.244211 
4109.000000	1.244854 
4108.000000	1.245641 
4107.000000	1.246619 
4106.000000	1.247787 
4105.000000	1.249074 
4104.000000	1.250410 
4103.000000	1.251816 
4102.000000	1.253318 
4101.000000	1.254844 
4100.000000	1.256418 
4099.000000	1.258039 
4098.000000	1.259660 
4097.000000	1.261210 
4096.000000	1.262664 
4095.000000	1.263999 
4094.000000	1.265168 
4093.000000	1.266241 
4092.000000	1.267218 
4091.000000	1.268172 
4090.000000	1.269125 
4089.000000	1.270127 
4088.000000	1.271152 
4087.000000	1.272273 
4086.000000	1.273441 
4085.000000	1.274657 
4084.000000	1.275897 
4083.000000	1.277136 
4082.000000	1.278424 
4081.000000	1.279783 
4080.000000	1.281166 
4079.000000	1.282572 
4078.000000	1.284050 
4077.000000	1.285576 
4076.000000	1.287174 
4075.000000	1.288771 
4074.000000	1.290392 
4073.000000	1.291918 
4072.000000	1.293444 
4071.000000	1.294898 
4070.000000	1.296234 
4069.000000	1.297402 
4068.000000	1.298499 
4067.000000	1.299476 
4066.000000	1.300382 
4065.000000	1.301288 
4064.000000	1.302194 
4063.000000	1.303100 
4062.000000	1.304125 
4061.000000	1.305174 
4060.000000	1.306343 
4059.000000	1.307511 
4058.000000	1.308703 
4057.000000	1.309895 
4056.000000	1.311087 
4055.000000	1.312279 
4054.000000	1.313495 
4053.000000	1.314735 
4052.000000	1.316046 
4051.000000	1.317381 
4050.000000	1.318788 
4049.000000	1.320219 
4048.000000	1.321721 
4047.000000	1.323223 
4046.000000	1.324725 
4045.000000	1.326227 
4044.000000	1.327729 
4043.000000	1.329231 
4042.000000	1.330709 
4041.000000	1.332211 
4040.000000	1.333689 
4039.000000	1.335215 
4038.000000	1.336741 
4037.000000	1.338291 
4036.000000	1.339817 
4035.000000	1.341295 
4034.000000	1.342749 
4033.000000	1.344132 
4032.000000	1.345419 
4031.000000	1.346588 
4030.000000	1.347708 
4029.000000	1.348686 
4028.000000	1.349592 
4027.000000	1.350402 
4026.000000	1.351165 
4025.000000	1.351857 
4024.000000	1.352524 
4023.000000	1.353240 
4022.000000	1.353979 
4021.000000	1.354813 
4020.000000	1.355814 
4019.000000	1.356983 
4018.000000	1.358389 
4017.000000	1.359915 
4016.000000	1.361584 
4015.000000	1.363325 
4014.000000	1.365017 
4013.000000	1.366639 
4012.000000	1.368117 
4011.000000	1.369404 
4010.000000	1.370596 
4009.000000	1.371693 
4008.000000	1.372742 
4007.000000	1.373744 
4006.000000	1.374721 
4005.000000	1.375627 
4004.000000	1.376509 
4003.000000	1.377272 
4002.000000	1.377916 
4001.000000	1.378464 
4000.000000	1.378941 
3999.000000	1.379442 
3998.000000	1.379990 
3997.000000	1.380658 
3996.000000	1.381468 
3995.000000	1.382422 
3994.000000	1.383495 
3993.000000	1.384639 
3992.000000	1.385760 
3991.000000	1.386809 
3990.000000	1.387763 
3989.000000	1.388621 
3988.000000	1.389384 
3987.000000	1.390075 
3986.000000	1.390719 
3985.000000	1.391363 
3984.000000	1.392054 
3983.000000	1.392745 
3982.000000	1.393437 
3981.000000	1.394104 
3980.000000	1.394748 
3979.000000	1.395320 
3978.000000	1.395845 
3977.000000	1.396322 
3976.000000	1.396751 
3975.000000	1.397180 
3974.000000	1.397633 
3973.000000	1.398158 
3972.000000	1.398777 
3971.000000	1.399517 
3970.000000	1.400303 
3969.000000	1.401162 
3968.000000	1.402044 
3967.000000	1.402831 
3966.000000	1.403570 
3965.000000	1.404142 
3964.000000	1.404571 
3963.000000	1.404881 
3962.000000	1.405143 
3961.000000	1.405286 
3960.000000	1.405501 
3959.000000	1.405763 
3958.000000	1.406097 
3957.000000	1.406502 
3956.000000	1.407027 
3955.000000	1.407551 
3954.000000	1.408100 
3953.000000	1.408648 
3952.000000	1.409173 
3951.000000	1.409626 
3950.000000	1.409959 
3949.000000	1.410198 
3948.000000	1.410365 
3947.000000	1.410484 
3946.000000	1.410579 
3945.000000	1.410675 
3944.000000	1.410794 
3943.000000	1.410984 
3942.000000	1.411271 
3941.000000	1.411628 
3940.000000	1.412057 
3939.000000	1.412510 
3938.000000	1.413011 
3937.000000	1.413559 
3936.000000	1.414084 
3935.000000	1.414585 
3934.000000	1.415085 
3933.000000	1.415538 
3932.000000	1.415967 
3931.000000	1.416349 
3930.000000	1.416707 
3929.000000	1.417040 
3928.000000	1.417303 
3927.000000	1.417541 
3926.000000	1.417779 
3925.000000	1.417994 
3924.000000	1.418232 
3923.000000	1.418471 
3922.000000	1.418733 
3921.000000	1.418995 
3920.000000	1.419305 
3919.000000	1.419591 
3918.000000	1.419878 
3917.000000	1.420235 
3916.000000	1.420569 
3915.000000	1.420950 
3914.000000	1.421308 
3913.000000	1.421642 
3912.000000	1.421880 
3911.000000	1.421976 
3910.000000	1.421904 
3909.000000	1.421666 
3908.000000	1.421260 
3907.000000	1.420783 
3906.000000	1.420283 
3905.000000	1.419901 
3904.000000	1.419734 
3903.000000	1.419806 
3902.000000	1.420187 
3901.000000	1.420831 
3900.000000	1.421642 
3899.000000	1.422476 
3898.000000	1.423263 
3897.000000	1.423835 
3896.000000	1.424217 
3895.000000	1.424360 
3894.000000	1.424336 
3893.000000	1.424288 
3892.000000	1.424264 
3891.000000	1.424384 
3890.000000	1.424694 
3889.000000	1.425242 
3888.000000	1.425981 
3887.000000	1.426911 
3886.000000	1.427960 
3885.000000	1.429104 
3884.000000	1.430344 
3883.000000	1.431560 
3882.000000	1.432752 
3881.000000	1.433849 
3880.000000	1.434803 
3879.000000	1.435518 
3878.000000	1.435947 
3877.000000	1.436114 
3876.000000	1.436042 
3875.000000	1.435804 
3874.000000	1.435470 
3873.000000	1.435184 
3872.000000	1.435017 
3871.000000	1.435112 
3870.000000	1.435518 
3869.000000	1.436281 
3868.000000	1.437306 
3867.000000	1.438641 
3866.000000	1.440119 
3865.000000	1.441574 
3864.000000	1.442909 
3863.000000	1.443934 
3862.000000	1.444458 
3861.000000	1.444411 
3860.000000	1.443767 
3859.000000	1.442599 
3858.000000	1.441144 
3857.000000	1.439690 
3856.000000	1.438546 
3855.000000	1.438069 
3854.000000	1.438426 
3853.000000	1.439738 
3852.000000	1.441931 
3851.000000	1.444840 
3850.000000	1.448130 
3849.000000	1.451420 
3848.000000	1.454377 
3847.000000	1.456785 
3846.000000	1.458477 
3845.000000	1.459479 
3844.000000	1.459836 
3843.000000	1.459693 
3842.000000	1.459336 
3841.000000	1.458907 
3840.000000	1.458668 
3839.000000	1.458716 
3838.000000	1.459193 
3837.000000	1.460170 
3836.000000	1.461529 
3835.000000	1.463246 
3834.000000	1.465225 
3833.000000	1.467299 
3832.000000	1.469373 
3831.000000	1.471281 
3830.000000	1.472902 
3829.000000	1.474213 
3828.000000	1.475214 
3827.000000	1.475930 
3826.000000	1.476359 
3825.000000	1.476597 
3824.000000	1.476716 
3823.000000	1.476812 
3822.000000	1.477003 
3821.000000	1.477289 
3820.000000	1.477885 
3819.000000	1.478815 
3818.000000	1.480102 
3817.000000	1.481795 
3816.000000	1.483821 
3815.000000	1.486086 
3814.000000	1.488423 
3813.000000	1.490712 
3812.000000	1.492762 
3811.000000	1.494503 
3810.000000	1.495814 
3809.000000	1.496744 
3808.000000	1.497244 
3807.000000	1.497435 
3806.000000	1.497435 
3805.000000	1.497364 
3804.000000	1.497316 
3803.000000	1.497507 
3802.000000	1.497983 
3801.000000	1.498770 
3800.000000	1.499986 
3799.000000	1.501584 
3798.000000	1.503515 
3797.000000	1.505684 
3796.000000	1.507997 
3795.000000	1.510381 
3794.000000	1.512742 
3793.000000	1.514983 
3792.000000	1.517128 
3791.000000	1.519083 
3790.000000	1.520824 
3789.000000	1.522374 
3788.000000	1.523709 
3787.000000	1.524829 
3786.000000	1.525783 
3785.000000	1.526618 
3784.000000	1.527357 
3783.000000	1.528120 
3782.000000	1.528906 
3781.000000	1.529741 
3780.000000	1.530647 
3779.000000	1.531624 
3778.000000	1.532626 
3777.000000	1.533555 
3776.000000	1.534318 
3775.000000	1.534914 
3774.000000	1.535320 
3773.000000	1.535558 
3772.000000	1.535701 
3771.000000	1.535797 
3770.000000	1.535940 
3769.000000	1.536202 
3768.000000	1.536631 
3767.000000	1.537227 
3766.000000	1.537966 
3765.000000	1.538801 
3764.000000	1.539635 
3763.000000	1.540422 
3762.000000	1.541066 
3761.000000	1.541352 
3760.000000	1.541280 
3759.000000	1.540780 
3758.000000	1.539921 
3757.000000	1.538681 
3756.000000	1.537227 
3755.000000	1.535630 
3754.000000	1.534032 
3753.000000	1.532578 
3752.000000	1.531386 
3751.000000	1.530551 
3750.000000	1.530098 
3749.000000	1.530051 
3748.000000	1.530408 
3747.000000	1.531219 
3746.000000	1.532435 
3745.000000	1.533985 
3744.000000	1.535844 
3743.000000	1.537871 
3742.000000	1.539969 
3741.000000	1.541948 
3740.000000	1.543712 
3739.000000	1.545190 
3738.000000	1.546406 
3737.000000	1.547360 
3736.000000	1.548147 
3735.000000	1.548910 
3734.000000	1.549696 
3733.000000	1.550650 
3732.000000	1.551699 
3731.000000	1.552867 
3730.000000	1.554131 
3729.000000	1.555418 
3728.000000	1.556706 
3727.000000	1.557970 
3726.000000	1.559233 
3725.000000	1.560473 
3724.000000	1.561665 
3723.000000	1.562786 
3722.000000	1.563739 
3721.000000	1.564455 
3720.000000	1.564836 
3719.000000	1.564836 
3718.000000	1.564455 
3717.000000	1.563715 
3716.000000	1.562714 
3715.000000	1.561617 
3714.000000	1.560592 
3713.000000	1.559782 
3712.000000	1.559305 
3711.000000	1.559257 
3710.000000	1.559638 
3709.000000	1.560354 
3708.000000	1.561307 
3707.000000	1.562356 
3706.000000	1.563358 
3705.000000	1.564264 
3704.000000	1.565003 
3703.000000	1.565623 
3702.000000	1.566100 
3701.000000	1.566505 
3700.000000	1.566791 
3699.000000	1.566910 
3698.000000	1.566839 
3697.000000	1.566457 
3696.000000	1.565718 
3695.000000	1.564598 
3694.000000	1.563167 
3693.000000	1.561570 
3692.000000	1.559996 
3691.000000	1.558637 
3690.000000	1.557731 
3689.000000	1.557397 
3688.000000	1.557588 
3687.000000	1.558256 
3686.000000	1.559209 
3685.000000	1.560211 
3684.000000	1.561069 
3683.000000	1.561570 
3682.000000	1.561617 
3681.000000	1.561188 
3680.000000	1.560354 
3679.000000	1.559233 
3678.000000	1.557946 
3677.000000	1.556730 
3676.000000	1.555657 
3675.000000	1.554918 
3674.000000	1.554560 
3673.000000	1.554608 
3672.000000	1.555109 
3671.000000	1.555967 
3670.000000	1.557254 
3669.000000	1.558804 
3668.000000	1.560521 
3667.000000	1.562261 
3666.000000	1.563882 
3665.000000	1.565289 
3664.000000	1.566338 
3663.000000	1.566982 
3662.000000	1.567268 
3661.000000	1.567125 
3660.000000	1.566672 
3659.000000	1.565957 
3658.000000	1.565003 
3657.000000	1.563906 
3656.000000	1.562690 
3655.000000	1.561450 
3654.000000	1.560258 
3653.000000	1.559162 
3652.000000	1.558327 
3651.000000	1.557779 
3650.000000	1.557683 
3649.000000	1.558041 
3648.000000	1.558828 
3647.000000	1.560020 
3646.000000	1.561427 
3645.000000	1.563000 
3644.000000	1.564550 
3643.000000	1.566004 
3642.000000	1.567268 
3641.000000	1.568388 
3640.000000	1.569271 
3639.000000	1.569914 
3638.000000	1.570248 
3637.000000	1.570272 
3636.000000	1.569890 
3635.000000	1.569175 
3634.000000	1.568150 
3633.000000	1.566910 
3632.000000	1.565670 
3631.000000	1.564645 
3630.000000	1.563954 
3629.000000	1.563739 
3628.000000	1.564073 
3627.000000	1.564860 
3626.000000	1.565933 
3625.000000	1.567125 
3624.000000	1.568269 
3623.000000	1.569223 
3622.000000	1.569890 
3621.000000	1.570272 
3620.000000	1.570415 
3619.000000	1.570367 
3618.000000	1.570272 
3617.000000	1.570177 
3616.000000	1.570129 
3615.000000	1.570248 
3614.000000	1.570510 
3613.000000	1.570963 
3612.000000	1.571655 
3611.000000	1.572513 
3610.000000	1.573562 
3609.000000	1.574754 
3608.000000	1.576066 
3607.000000	1.577401 
3606.000000	1.578688 
3605.000000	1.579833 
3604.000000	1.580834 
3603.000000	1.581645 
3602.000000	1.582288 
3601.000000	1.582741 
3600.000000	1.583123 
3599.000000	1.583361 
3598.000000	1.583552 
3597.000000	1.583671 
3596.000000	1.583719 
3595.000000	1.583623 
3594.000000	1.583433 
3593.000000	1.583194 
3592.000000	1.582908 
3591.000000	1.582646 
3590.000000	1.582527 
3589.000000	1.582670 
3588.000000	1.583123 
3587.000000	1.583862 
3586.000000	1.584887 
3585.000000	1.586103 
3584.000000	1.587414 
3583.000000	1.588630 
3582.000000	1.589775 
3581.000000	1.590752 
3580.000000	1.591563 
3579.000000	1.592254 
3578.000000	1.592779 
3577.000000	1.593255 
3576.000000	1.593661 
3575.000000	1.593995 
3574.000000	1.594257 
3573.000000	1.594424 
3572.000000	1.594543 
3571.000000	1.594591 
3570.000000	1.594638 
3569.000000	1.594710 
3568.000000	1.594877 
3567.000000	1.595211 
3566.000000	1.595759 
3565.000000	1.596426 
3564.000000	1.597261 
3563.000000	1.598191 
3562.000000	1.599144 
3561.000000	1.600074 
3560.000000	1.600933 
3559.000000	1.601743 
3558.000000	1.602435 
3557.000000	1.603055 
3556.000000	1.603603 
3555.000000	1.604127 
3554.000000	1.604652 
3553.000000	1.605153 
3552.000000	1.605653 
3551.000000	1.606130 
3550.000000	1.606583 
3549.000000	1.607012 
3548.000000	1.607394 
3547.000000	1.607704 
3546.000000	1.607966 
3545.000000	1.608157 
3544.000000	1.608228 
3543.000000	1.608276 
3542.000000	1.608228 
3541.000000	1.608180 
3540.000000	1.608133 
3539.000000	1.608061 
3538.000000	1.607990 
3537.000000	1.607966 
3536.000000	1.607966 
3535.000000	1.607966 
3534.000000	1.607990 
3533.000000	1.608014 
3532.000000	1.608037 
3531.000000	1.608133 
3530.000000	1.608276 
3529.000000	1.608467 
3528.000000	1.608729 
3527.000000	1.609063 
3526.000000	1.609492 
3525.000000	1.609969 
3524.000000	1.610469 
3523.000000	1.610922 
3522.000000	1.611351 
3521.000000	1.611757 
3520.000000	1.612043 
3519.000000	1.612186 
3518.000000	1.612234 
3517.000000	1.612186 
3516.000000	1.611995 
3515.000000	1.611733 
3514.000000	1.611351 
3513.000000	1.610946 
3512.000000	1.610493 
3511.000000	1.610040 
3510.000000	1.609587 
3509.000000	1.609134 
3508.000000	1.608705 
3507.000000	1.608252 
3506.000000	1.607823 
3505.000000	1.607394 
3504.000000	1.606941 
3503.000000	1.606464 
3502.000000	1.606035 
3501.000000	1.605629 
3500.000000	1.605272 
3499.000000	1.604938 
3498.000000	1.604700 
3497.000000	1.604509 
3496.000000	1.604413 
3495.000000	1.604342 
3494.000000	1.604294 
3493.000000	1.604199 
3492.000000	1.603984 
3491.000000	1.603746 
3490.000000	1.603269 
3489.000000	1.602721 
3488.000000	1.602029 
3487.000000	1.601266 
3486.000000	1.600503 
3485.000000	1.599812 
3484.000000	1.599240 
3483.000000	1.598811 
3482.000000	1.598525 
3481.000000	1.598453 
3480.000000	1.598429 
3479.000000	1.598453 
3478.000000	1.598477 
3477.000000	1.598429 
3476.000000	1.598238 
3475.000000	1.597952 
3474.000000	1.597476 
3473.000000	1.596832 
3472.000000	1.596093 
3471.000000	1.595211 
3470.000000	1.594281 
3469.000000	1.593351 
3468.000000	1.592421 
3467.000000	1.591491 
3466.000000	1.590657 
3465.000000	1.589918 
3464.000000	1.589274 
3463.000000	1.588702 
3462.000000	1.588225 
3461.000000	1.587796 
3460.000000	1.587390 
3459.000000	1.587057 
3458.000000	1.586651 
3457.000000	1.586270 
3456.000000	1.585841 
3455.000000	1.585364 
3454.000000	1.584792 
3453.000000	1.584124 
3452.000000	1.583361 
3451.000000	1.582479 
3450.000000	1.581454 
3449.000000	1.580309 
3448.000000	1.579141 
3447.000000	1.577901 
3446.000000	1.576733 
3445.000000	1.575636 
3444.000000	1.574683 
3443.000000	1.573872 
3442.000000	1.573276 
3441.000000	1.572799 
3440.000000	1.572442 
3439.000000	1.572179 
3438.000000	1.571941 
3437.000000	1.571750 
3436.000000	1.571536 
3435.000000	1.571345 
3434.000000	1.571178 
3433.000000	1.571011 
3432.000000	1.570868 
3431.000000	1.570796 
3430.000000	1.570773 
3429.000000	1.570725 
3428.000000	1.570749 
3427.000000	1.570749 
3426.000000	1.570844 
3425.000000	1.570940 
3424.000000	1.571083 
3423.000000	1.571273 
3422.000000	1.571488 
3421.000000	1.571655 
3420.000000	1.571846 
3419.000000	1.572012 
3418.000000	1.572132 
3417.000000	1.572275 
3416.000000	1.572418 
3415.000000	1.572608 
3414.000000	1.572871 
3413.000000	1.573157 
3412.000000	1.573538 
3411.000000	1.573944 
3410.000000	1.574468 
3409.000000	1.575016 
3408.000000	1.575613 
3407.000000	1.576280 
3406.000000	1.577043 
3405.000000	1.577877 
3404.000000	1.578831 
3403.000000	1.579880 
3402.000000	1.581001 
3401.000000	1.582074 
3400.000000	1.583123 
3399.000000	1.584100 
3398.000000	1.584959 
3397.000000	1.585650 
3396.000000	1.586198 
3395.000000	1.586651 
3394.000000	1.587057 
3393.000000	1.587438 
3392.000000	1.587891 
3391.000000	1.588392 
3390.000000	1.588964 
3389.000000	1.589608 
3388.000000	1.590275 
3387.000000	1.590943 
3386.000000	1.591634 
3385.000000	1.592230 
3384.000000	1.592803 
3383.000000	1.593303 
3382.000000	1.593756 
3381.000000	1.594161 
3380.000000	1.594543 
3379.000000	1.594948 
3378.000000	1.595401 
3377.000000	1.595878 
3376.000000	1.596426 
3375.000000	1.597046 
3374.000000	1.597762 
3373.000000	1.598548 
3372.000000	1.599478 
3371.000000	1.600503 
3370.000000	1.601648 
3369.000000	1.602911 
3368.000000	1.604270 
3367.000000	1.605796 
3366.000000	1.607346 
3365.000000	1.608967 
3364.000000	1.610541 
3363.000000	1.612043 
3362.000000	1.613450 
3361.000000	1.614713 
3360.000000	1.615858 
3359.000000	1.616978 
3358.000000	1.618075 
3357.000000	1.619243 
3356.000000	1.620531 
3355.000000	1.621985 
3354.000000	1.623678 
3353.000000	1.625561 
3352.000000	1.627588 
3351.000000	1.629686 
3350.000000	1.631808 
3349.000000	1.633834 
3348.000000	1.635718 
3347.000000	1.637458 
3346.000000	1.639008 
3345.000000	1.640391 
3344.000000	1.641631 
3343.000000	1.642751 
3342.000000	1.643800 
3341.000000	1.644849 
3340.000000	1.645946 
3339.000000	1.647114 
3338.000000	1.648354 
3337.000000	1.649689 
3336.000000	1.651144 
3335.000000	1.652669 
3334.000000	1.654243 
3333.000000	1.655864 
3332.000000	1.657462 
3331.000000	1.659011 
3330.000000	1.660466 
3329.000000	1.661872 
3328.000000	1.663184 
3327.000000	1.664471 
3326.000000	1.665711 
3325.000000	1.666998 
3324.000000	1.668357 
3323.000000	1.669788 
3322.000000	1.671290 
3321.000000	1.672792 
3320.000000	1.674342 
3319.000000	1.675891 
3318.000000	1.677393 
3317.000000	1.678824 
3316.000000	1.680183 
3315.000000	1.681423 
3314.000000	1.682639 
3313.000000	1.683735 
3312.000000	1.684808 
3311.000000	1.685881 
3310.000000	1.686954 
3309.000000	1.688075 
3308.000000	1.689171 
3307.000000	1.690268 
3306.000000	1.691436 
3305.000000	1.692605 
3304.000000	1.693820 
3303.000000	1.695060 
3302.000000	1.696348 
3301.000000	1.697611 
3300.000000	1.698923 
3299.000000	1.700258 
3298.000000	1.701617 
3297.000000	1.702976 
3296.000000	1.704359 
3295.000000	1.705741 
3294.000000	1.707124 
3293.000000	1.708436 
3292.000000	1.709651 
3291.000000	1.710796 
3290.000000	1.711821 
3289.000000	1.712775 
3288.000000	1.713681 
3287.000000	1.714611 
3286.000000	1.715564 
3285.000000	1.716709 
3284.000000	1.717996 
3283.000000	1.719474 
3282.000000	1.721072 
3281.000000	1.722764 
3280.000000	1.724457 
3279.000000	1.726126 
3278.000000	1.727676 
3277.000000	1.729059 
3276.000000	1.730275 
3275.000000	1.731348 
3274.000000	1.732277 
3273.000000	1.733136 
3272.000000	1.733899 
3271.000000	1.734638 
3270.000000	1.735377 
3269.000000	1.736140 
3268.000000	1.736927 
3267.000000	1.737713 
3266.000000	1.738452 
3265.000000	1.739239 
3264.000000	1.740002 
3263.000000	1.740765 
3262.000000	1.741528 
3261.000000	1.742291 
3260.000000	1.743078 
3259.000000	1.743912 
3258.000000	1.744818 
3257.000000	1.745772 
3256.000000	1.746797 
3255.000000	1.747870 
3254.000000	1.748991 
3253.000000	1.750040 
3252.000000	1.751065 
3251.000000	1.751971 
3250.000000	1.752758 
3249.000000	1.753377 
3248.000000	1.753878 
3247.000000	1.754331 
3246.000000	1.754760 
3245.000000	1.755237 
3244.000000	1.755738 
3243.000000	1.756334 
3242.000000	1.756954 
3241.000000	1.757574 
3240.000000	1.758193 
3239.000000	1.758766 
3238.000000	1.759266 
3237.000000	1.759696 
3236.000000	1.760101 
3235.000000	1.760530 
3234.000000	1.761031 
3233.000000	1.761555 
3232.000000	1.762175 
3231.000000	1.762914 
3230.000000	1.763701 
3229.000000	1.764512 
3228.000000	1.765298 
3227.000000	1.766037 
3226.000000	1.766657 
3225.000000	1.767206 
3224.000000	1.767635 
3223.000000	1.767945 
3222.000000	1.768231 
3221.000000	1.768493 
3220.000000	1.768708 
3219.000000	1.768946 
3218.000000	1.769232 
3217.000000	1.769495 
3216.000000	1.769733 
3215.000000	1.769948 
3214.000000	1.770067 
3213.000000	1.770138 
3212.000000	1.770114 
3211.000000	1.769995 
3210.000000	1.769804 
3209.000000	1.769590 
3208.000000	1.769375 
3207.000000	1.769161 
3206.000000	1.769065 
3205.000000	1.769018 
3204.000000	1.769065 
3203.000000	1.769256 
3202.000000	1.769566 
3201.000000	1.769948 
3200.000000	1.770448 
3199.000000	1.771020 
3198.000000	1.771616 
3197.000000	1.772212 
3196.000000	1.772737 
3195.000000	1.773238 
3194.000000	1.773595 
3193.000000	1.773834 
3192.000000	1.773977 
3191.000000	1.774072 
3190.000000	1.774144 
3189.000000	1.774239 
3188.000000	1.774358 
3187.000000	1.774525 
3186.000000	1.774716 
3185.000000	1.774930 
3184.000000	1.775121 
3183.000000	1.775264 
3182.000000	1.775360 
3181.000000	1.775407 
3180.000000	1.775479 
3179.000000	1.775574 
3178.000000	1.775741 
3177.000000	1.776027 
3176.000000	1.776456 
3175.000000	1.777005 
3174.000000	1.777625 
3173.000000	1.778292 
3172.000000	1.778960 
3171.000000	1.779603 
3170.000000	1.780152 
3169.000000	1.780557 
3168.000000	1.780843 
3167.000000	1.781058 
3166.000000	1.781225 
3165.000000	1.781368 
3164.000000	1.781582 
3163.000000	1.781892 
3162.000000	1.782345 
3161.000000	1.782917 
3160.000000	1.783585 
3159.000000	1.784348 
3158.000000	1.785111 
3157.000000	1.785826 
3156.000000	1.786470 
3155.000000	1.787018 
3154.000000	1.787495 
3153.000000	1.787877 
3152.000000	1.788306 
3151.000000	1.788830 
3150.000000	1.789474 
3149.000000	1.790285 
3148.000000	1.791262 
3147.000000	1.792430 
3146.000000	1.793718 
3145.000000	1.795005 
3144.000000	1.796269 
3143.000000	1.797413 
3142.000000	1.798439 
3141.000000	1.799321 
3140.000000	1.800036 
3139.000000	1.800680 
3138.000000	1.801300 
3137.000000	1.801919 
3136.000000	1.802587 
3135.000000	1.803374 
3134.000000	1.804280 
3133.000000	1.805329 
3132.000000	1.806449 
3131.000000	1.807689 
3130.000000	1.808977 
3129.000000	1.810264 
3128.000000	1.811552 
3127.000000	1.812839 
3126.000000	1.814055 
3125.000000	1.815223 
3124.000000	1.816296 
3123.000000	1.817369 
3122.000000	1.818490 
3121.000000	1.819682 
3120.000000	1.820945 
3119.000000	1.822400 
3118.000000	1.823949 
3117.000000	1.825690 
3116.000000	1.827526 
3115.000000	1.829457 
3114.000000	1.831388 
3113.000000	1.833271 
3112.000000	1.835107 
3111.000000	1.836800 
3110.000000	1.838421 
3109.000000	1.839923 
3108.000000	1.841378 
3107.000000	1.842761 
3106.000000	1.844167 
3105.000000	1.845622 
3104.000000	1.847147 
3103.000000	1.848769 
3102.000000	1.850509 
3101.000000	1.852321 
3100.000000	1.854228 
3099.000000	1.856184 
3098.000000	1.858186 
3097.000000	1.860213 
3096.000000	1.862239 
3095.000000	1.864266 
3094.000000	1.866269 
3093.000000	1.868295 
3092.000000	1.870298 
3091.000000	1.872324 
3090.000000	1.874399 
3089.000000	1.876497 
3088.000000	1.878643 
3087.000000	1.880812 
3086.000000	1.883029 
3085.000000	1.885247 
3084.000000	1.887369 
3083.000000	1.889395 
3082.000000	1.891303 
3081.000000	1.893043 
3080.000000	1.894593 
3079.000000	1.895952 
3078.000000	1.897144 
3077.000000	1.898264 
3076.000000	1.899266 
3075.000000	1.900196 
3074.000000	1.901102 
3073.000000	1.901960 
3072.000000	1.902794 
3071.000000	1.903629 
3070.000000	1.904439 
3069.000000	1.905298 
3068.000000	1.906156 
3067.000000	1.907110 
3066.000000	1.908183 
3065.000000	1.909422 
3064.000000	1.910805 
3063.000000	1.912379 
3062.000000	1.914119 
3061.000000	1.915979 
3060.000000	1.917934 
3059.000000	1.920008 
3058.000000	1.922082 
3057.000000	1.924109 
3056.000000	1.926088 
3055.000000	1.927971 
3054.000000	1.929759 
3053.000000	1.931428 
3052.000000	1.933026 
3051.000000	1.934504 
3050.000000	1.935935 
3049.000000	1.937341 
3048.000000	1.938748 
3047.000000	1.940155 
3046.000000	1.941561 
3045.000000	1.942944 
3044.000000	1.944303 
3043.000000	1.945614 
3042.000000	1.946806 
3041.000000	1.947879 
3040.000000	1.948881 
3039.000000	1.949810 
3038.000000	1.950669 
3037.000000	1.951456 
3036.000000	1.952195 
3035.000000	1.952862 
3034.000000	1.953458 
3033.000000	1.953887 
3032.000000	1.954150 
3031.000000	1.954126 
3030.000000	1.953768 
3029.000000	1.953005 
3028.000000	1.951861 
3027.000000	1.950263 
3026.000000	1.948308 
3025.000000	1.946043 
3024.000000	1.943635 
3023.000000	1.941251 
3022.000000	1.939010 
3021.000000	1.937222 
3020.000000	1.936006 
3019.000000	1.935577 
3018.000000	1.936078 
3017.000000	1.937508 
3016.000000	1.939892 
3015.000000	1.943182 
3014.000000	1.947188 
3013.000000	1.951742 
3012.000000	1.956653 
3011.000000	1.961779 
3010.000000	1.966929 
3009.000000	1.971912 
3008.000000	1.976633 
3007.000000	1.981019 
3006.000000	1.984977 
3005.000000	1.988554 
3004.000000	1.991724 
3003.000000	1.994538 
3002.000000	1.997041 
3001.000000	1.999211 
3000.000000	2.001214 
2999.000000	2.003049 
2998.000000	2.004694 
2997.000000	2.006220 
2996.000000	2.007579 
2995.000000	2.008771 
2994.000000	2.009749 
2993.000000	2.010464 
2992.000000	2.010917 
2991.000000	2.011036 
2990.000000	2.010774 
2989.000000	2.010178 
2988.000000	2.009224 
2987.000000	2.007961 
2986.000000	2.006459 
2985.000000	2.004742 
2984.000000	2.002930 
2983.000000	2.000951 
2982.000000	1.998949 
2981.000000	1.996803 
2980.000000	1.994514 
2979.000000	1.991891 
2978.000000	1.988863 
2977.000000	1.985335 
2976.000000	1.981282 
2975.000000	1.976633 
2974.000000	1.971459 
2973.000000	1.965832 
2972.000000	1.959896 
2971.000000	1.953744 
2970.000000	1.947641 
2969.000000	1.941657 
2968.000000	1.935935 
2967.000000	1.930594 
2966.000000	1.925683 
2965.000000	1.921319 
2964.000000	1.917433 
2963.000000	1.914119 
2962.000000	1.911330 
2961.000000	1.909041 
2960.000000	1.907157 
2959.000000	1.905655 
2958.000000	1.904487 
2957.000000	1.903510 
2956.000000	1.902651 
2955.000000	1.901817 
2954.000000	1.900935 
2953.000000	1.899862 
2952.000000	1.898503 
2951.000000	1.896715 
2950.000000	1.894426 
2949.000000	1.891422 
2948.000000	1.887702 
2947.000000	1.883220 
2946.000000	1.877856 
2945.000000	1.871681 
2944.000000	1.864743 
2943.000000	1.857137 
2942.000000	1.848912 
2941.000000	1.840305 
2940.000000	1.831459 
2939.000000	1.822590 
2938.000000	1.813745 
2937.000000	1.805090 
2936.000000	1.796817 
2935.000000	1.788949 
2934.000000	1.781439 
2933.000000	1.774406 
2932.000000	1.767897 
2931.000000	1.761913 
2930.000000	1.756668 
2929.000000	1.752281 
2928.000000	1.748943 
2927.000000	1.747012 
2926.000000	1.746654 
2925.000000	1.748156 
2924.000000	1.751661 
2923.000000	1.757216 
2922.000000	1.764702 
2921.000000	1.774024 
2920.000000	1.784825 
2919.000000	1.796722 
2918.000000	1.809310 
2917.000000	1.822113 
2916.000000	1.834845 
2915.000000	1.847052 
2914.000000	1.858520 
2913.000000	1.869130 
2912.000000	1.878690 
2911.000000	1.887273 
2910.000000	1.894927 
2909.000000	1.901745 
2908.000000	1.907849 
2907.000000	1.913332 
2906.000000	1.918339 
2905.000000	1.922988 
2904.000000	1.927375 
2903.000000	1.931548 
2902.000000	1.935505 
2901.000000	1.939272 
2900.000000	1.942825 
2899.000000	1.946210 
2898.000000	1.949357 
2897.000000	1.952338 
2896.000000	1.955223 
2895.000000	1.958012 
2894.000000	1.960706 
2893.000000	1.963353 
2892.000000	1.965999 
2891.000000	1.968574 
2890.000000	1.971101 
2889.000000	1.973533 
2888.000000	1.975798 
2887.000000	1.977920 
2886.000000	1.979851 
2885.000000	1.981544 
2884.000000	1.982975 
2883.000000	1.984190 
2882.000000	1.985096 
2881.000000	1.985621 
2880.000000	1.985716 
2879.000000	1.985311 
2878.000000	1.984262 
2877.000000	1.982569 
2876.000000	1.980090 
2875.000000	1.976847 
2874.000000	1.972746 
2873.000000	1.967763 
2872.000000	1.961874 
2871.000000	1.955127 
2870.000000	1.947522 
2869.000000	1.939201 
2868.000000	1.930308 
2867.000000	1.921129 
2866.000000	1.912045 
2865.000000	1.903486 
2864.000000	1.895928 
2863.000000	1.889824 
2862.000000	1.885485 
2861.000000	1.883268 
2860.000000	1.883244 
2859.000000	1.885414 
2858.000000	1.889657 
2857.000000	1.895737 
2856.000000	1.903295 
2855.000000	1.912117 
2854.000000	1.921772 
2853.000000	1.932072 
2852.000000	1.942682 
2851.000000	1.953387 
2850.000000	1.963973 
2849.000000	1.974272 
2848.000000	1.984214 
2847.000000	1.993608 
2846.000000	2.002453 
2845.000000	2.010703 
2844.000000	2.018356 
2843.000000	2.025437 
2842.000000	2.032017 
2841.000000	2.038145 
2840.000000	2.043867 
2839.000000	2.049255 
2838.000000	2.054262 
2837.000000	2.058959 
2836.000000	2.063369 
2835.000000	2.067470 
2834.000000	2.071261 
2833.000000	2.074790 
2832.000000	2.078127 
2831.000000	2.081346 
2830.000000	2.084469 
2829.000000	2.087545 
2828.000000	2.090620 
2827.000000	2.093720 
2826.000000	2.096915 
2825.000000	2.100133 
2824.000000	2.103328 
2823.000000	2.106499 
2822.000000	2.109551 
2821.000000	2.112460 
2820.000000	2.115130 
2819.000000	2.117657 
2818.000000	2.119994 
2817.000000	2.122211 
2816.000000	2.124261 
2815.000000	2.126312 
2814.000000	2.128410 
2813.000000	2.130532 
2812.000000	2.132678 
2811.000000	2.134871 
2810.000000	2.137088 
2809.000000	2.139258 
2808.000000	2.141380 
2807.000000	2.143430 
2806.000000	2.145409 
2805.000000	2.147293 
2804.000000	2.149128 
2803.000000	2.150893 
2802.000000	2.152585 
2801.000000	2.154207 
2800.000000	2.155733 
2799.000000	2.157235 
2798.000000	2.158689 
2797.000000	2.160143 
2796.000000	2.161669 
2795.000000	2.163314 
2794.000000	2.165079 
2793.000000	2.167010 
2792.000000	2.169084 
2791.000000	2.171325 
2790.000000	2.173566 
2789.000000	2.175855 
2788.000000	2.178120 
2787.000000	2.180290 
2786.000000	2.182364 
2785.000000	2.184367 
2784.000000	2.186298 
2783.000000	2.188181 
2782.000000	2.190065 
2781.000000	2.191948 
2780.000000	2.193808 
2779.000000	2.195668 
2778.000000	2.197504 
2777.000000	2.199268 
2776.000000	2.200961 
2775.000000	2.202558 
2774.000000	2.204036 
2773.000000	2.205395 
2772.000000	2.206611 
2771.000000	2.207732 
2770.000000	2.208685 
2769.000000	2.209520 
2768.000000	2.210259 
2767.000000	2.210974 
2766.000000	2.211642 
2765.000000	2.212285 
2764.000000	2.212953 
2763.000000	2.213621 
2762.000000	2.214336 
2761.000000	2.215075 
2760.000000	2.215838 
2759.000000	2.216625 
2758.000000	2.217459 
2757.000000	2.218341 
2756.000000	2.219200 
2755.000000	2.220106 
2754.000000	2.221107 
2753.000000	2.222084 
2752.000000	2.223086 
2751.000000	2.224016 
2750.000000	2.224946 
2749.000000	2.225780 
2748.000000	2.226567 
2747.000000	2.227234 
2746.000000	2.227902 
2745.000000	2.228522 
2744.000000	2.229118 
2743.000000	2.229690 
2742.000000	2.230310 
2741.000000	2.230906 
2740.000000	2.231431 
2739.000000	2.231907 
2738.000000	2.232313 
2737.000000	2.232575 
2736.000000	2.232718 
2735.000000	2.232742 
2734.000000	2.232694 
2733.000000	2.232623 
2732.000000	2.232551 
2731.000000	2.232432 
2730.000000	2.232384 
2729.000000	2.232336 
2728.000000	2.232336 
2727.000000	2.232360 
2726.000000	2.232384 
2725.000000	2.232456 
2724.000000	2.232575 
2723.000000	2.232766 
2722.000000	2.232980 
2721.000000	2.233219 
2720.000000	2.233481 
2719.000000	2.233719 
2718.000000	2.233886 
2717.000000	2.233958 
2716.000000	2.233839 
2715.000000	2.233505 
2714.000000	2.232980 
2713.000000	2.232265 
2712.000000	2.231431 
2711.000000	2.230525 
2710.000000	2.229571 
2709.000000	2.228617 
2708.000000	2.227783 
2707.000000	2.227020 
2706.000000	2.226376 
2705.000000	2.225732 
2704.000000	2.225136 
2703.000000	2.224564 
2702.000000	2.223968 
2701.000000	2.223372 
2700.000000	2.222776 
2699.000000	2.222228 
2698.000000	2.221798 
2697.000000	2.221488 
2696.000000	2.221322 
2695.000000	2.221274 
2694.000000	2.221345 
2693.000000	2.221441 
2692.000000	2.221465 
2691.000000	2.221417 
2690.000000	2.221155 
2689.000000	2.220678 
2688.000000	2.220010 
2687.000000	2.219128 
2686.000000	2.218151 
2685.000000	2.217125 
2684.000000	2.216148 
2683.000000	2.215313 
2682.000000	2.214646 
2681.000000	2.214193 
2680.000000	2.213907 
2679.000000	2.213811 
2678.000000	2.213764 
2677.000000	2.213764 
2676.000000	2.213716 
2675.000000	2.213573 
2674.000000	2.213335 
2673.000000	2.213001 
2672.000000	2.212548 
2671.000000	2.211999 
2670.000000	2.211403 
2669.000000	2.210688 
2668.000000	2.209949 
2667.000000	2.209115 
2666.000000	2.208256 
2665.000000	2.207374 
2664.000000	2.206468 
2663.000000	2.205586 
2662.000000	2.204680 
2661.000000	2.203822 
2660.000000	2.203035 
2659.000000	2.202272 
2658.000000	2.201604 
2657.000000	2.201056 
2656.000000	2.200627 
2655.000000	2.200317 
2654.000000	2.200126 
2653.000000	2.200031 
2652.000000	2.199983 
2651.000000	2.199935 
2650.000000	2.199888 
2649.000000	2.199721 
2648.000000	2.199435 
2647.000000	2.199006 
2646.000000	2.198481 
2645.000000	2.197885 
2644.000000	2.197289 
2643.000000	2.196788 
2642.000000	2.196431 
2641.000000	2.196216 
2640.000000	2.196168 
2639.000000	2.196288 
2638.000000	2.196502 
2637.000000	2.196788 
2636.000000	2.197098 
2635.000000	2.197384 
2634.000000	2.197599 
2633.000000	2.197790 
2632.000000	2.197933 
2631.000000	2.198100 
2630.000000	2.198219 
2629.000000	2.198362 
2628.000000	2.198529 
2627.000000	2.198719 
2626.000000	2.198886 
2625.000000	2.199125 
2624.000000	2.199363 
2623.000000	2.199578 
2622.000000	2.199769 
2621.000000	2.199983 
2620.000000	2.200150 
2619.000000	2.200269 
2618.000000	2.200365 
2617.000000	2.200508 
2616.000000	2.200627 
2615.000000	2.200722 
2614.000000	2.200841 
2613.000000	2.200984 
2612.000000	2.201151 
2611.000000	2.201342 
2610.000000	2.201533 
2609.000000	2.201676 
2608.000000	2.201771 
2607.000000	2.201795 
2606.000000	2.201747 
2605.000000	2.201676 
2604.000000	2.201533 
2603.000000	2.201414 
2602.000000	2.201318 
2601.000000	2.201318 
2600.000000	2.201366 
2599.000000	2.201533 
2598.000000	2.201819 
2597.000000	2.202129 
2596.000000	2.202486 
2595.000000	2.202868 
2594.000000	2.203297 
2593.000000	2.203822 
2592.000000	2.204418 
2591.000000	2.205181 
2590.000000	2.206015 
2589.000000	2.207040 
2588.000000	2.208232 
2587.000000	2.209520 
2586.000000	2.210903 
2585.000000	2.212357 
2584.000000	2.213883 
2583.000000	2.215409 
2582.000000	2.217006 
2581.000000	2.218604 
2580.000000	2.220249 
2579.000000	2.221965 
2578.000000	2.223682 
2577.000000	2.225446 
2576.000000	2.227187 
2575.000000	2.228879 
2574.000000	2.230525 
2573.000000	2.232050 
2572.000000	2.233457 
2571.000000	2.234745 
2570.000000	2.235889 
2569.000000	2.236986 
2568.000000	2.237963 
2567.000000	2.238917 
2566.000000	2.239894 
2565.000000	2.240896 
2564.000000	2.241969 
2563.000000	2.243161 
2562.000000	2.244448 
2561.000000	2.245879 
2560.000000	2.247381 
2559.000000	2.248907 
2558.000000	2.250456 
2557.000000	2.252006 
2556.000000	2.253508 
2555.000000	2.254962 
2554.000000	2.256393 
2553.000000	2.257752 
2552.000000	2.259063 
2551.000000	2.260327 
2550.000000	2.261567 
2549.000000	2.262783 
2548.000000	2.263903 
2547.000000	2.265000 
2546.000000	2.266073 
2545.000000	2.267146 
2544.000000	2.268195 
2543.000000	2.269291 
2542.000000	2.270412 
2541.000000	2.271556 
2540.000000	2.272748 
2539.000000	2.273917 
2538.000000	2.275133 
2537.000000	2.276349 
2536.000000	2.277493 
2535.000000	2.278637 
2534.000000	2.279710 
2533.000000	2.280735 
2532.000000	2.281737 
2531.000000	2.282691 
2530.000000	2.283620 
2529.000000	2.284550 
2528.000000	2.285456 
2527.000000	2.286362 
2526.000000	2.287244 
2525.000000	2.288103 
2524.000000	2.288913 
2523.000000	2.289652 
2522.000000	2.290320 
2521.000000	2.290916 
2520.000000	2.291464 
2519.000000	2.291941 
2518.000000	2.292370 
2517.000000	2.292799 
2516.000000	2.293205 
2515.000000	2.293562 
2514.000000	2.293944 
2513.000000	2.294301 
2512.000000	2.294611 
2511.000000	2.294921 
2510.000000	2.295231 
2509.000000	2.295589 
2508.000000	2.296018 
2507.000000	2.296471 
2506.000000	2.297043 
2505.000000	2.297711 
2504.000000	2.298402 
2503.000000	2.299094 
2502.000000	2.299690 
2501.000000	2.300262 
2500.000000	2.300643 
2499.000000	2.300858 
2498.000000	2.300930 
2497.000000	2.300810 
2496.000000	2.300548 
2495.000000	2.300190 
2494.000000	2.299690 
2493.000000	2.299118 
2492.000000	2.298521 
2491.000000	2.297925 
2490.000000	2.297329 
2489.000000	2.296805 
2488.000000	2.296352 
2487.000000	2.295994 
2486.000000	2.295660 
2485.000000	2.295446 
2484.000000	2.295207 
2483.000000	2.294993 
2482.000000	2.294802 
2481.000000	2.294611 
2480.000000	2.294421 
2479.000000	2.294230 
2478.000000	2.294039 
2477.000000	2.293777 
2476.000000	2.293491 
2475.000000	2.293133 
2474.000000	2.292799 
2473.000000	2.292394 
2472.000000	2.291941 
2471.000000	2.291512 
2470.000000	2.291083 
2469.000000	2.290678 
2468.000000	2.290272 
2467.000000	2.289795 
2466.000000	2.289295 
2465.000000	2.288675 
2464.000000	2.287936 
2463.000000	2.287077 
2462.000000	2.286124 
2461.000000	2.285122 
2460.000000	2.284097 
2459.000000	2.283143 
2458.000000	2.282214 
2457.000000	2.281379 
2456.000000	2.280569 
2455.000000	2.279758 
2454.000000	2.278947 
2453.000000	2.278089 
2452.000000	2.277135 
2451.000000	2.276134 
2450.000000	2.275085 
2449.000000	2.274012 
2448.000000	2.272939 
2447.000000	2.271866 
2446.000000	2.270841 
2445.000000	2.269816 
2444.000000	2.268743 
2443.000000	2.267622 
2442.000000	2.266383 
2441.000000	2.265024 
2440.000000	2.263569 
2439.000000	2.262020 
2438.000000	2.260446 
2437.000000	2.258872 
2436.000000	2.257394 
2435.000000	2.256059 
2434.000000	2.254891 
2433.000000	2.254009 
2432.000000	2.253317 
2431.000000	2.252864 
2430.000000	2.252602 
2429.000000	2.252459 
2428.000000	2.252388 
2427.000000	2.252268 
2426.000000	2.252101 
2425.000000	2.251744 
2424.000000	2.251172 
2423.000000	2.250361 
2422.000000	2.249336 
2421.000000	2.248072 
2420.000000	2.246689 
2419.000000	2.245235 
2418.000000	2.243828 
2417.000000	2.242517 
2416.000000	2.241396 
2415.000000	2.240490 
2414.000000	2.239751 
2413.000000	2.239179 
2412.000000	2.238702 
2411.000000	2.238202 
2410.000000	2.237701 
2409.000000	2.237105 
2408.000000	2.236461 
2407.000000	2.235698 
2406.000000	2.234935 
2405.000000	2.234196 
2404.000000	2.233576 
2403.000000	2.233076 
2402.000000	2.232742 
2401.000000	2.232551 
2400.000000	2.232432 
2399.000000	2.232241 
2398.000000	2.232003 
2397.000000	2.231597 
2396.000000	2.231001 
2395.000000	2.230310 
2394.000000	2.229475 
2393.000000	2.228569 
2392.000000	2.227663 
2391.000000	2.226829 
2390.000000	2.226018 
2389.000000	2.225303 
2388.000000	2.224636 
2387.000000	2.223968 
2386.000000	2.223300 
2385.000000	2.222633 
2384.000000	2.221965 
2383.000000	2.221322 
2382.000000	2.220702 
2381.000000	2.220106 
2380.000000	2.219629 
2379.000000	2.219176 
2378.000000	2.218770 
2377.000000	2.218341 
2376.000000	2.217936 
2375.000000	2.217459 
2374.000000	2.216982 
2373.000000	2.216410 
2372.000000	2.215790 
2371.000000	2.215075 
2370.000000	2.214336 
2369.000000	2.213501 
2368.000000	2.212595 
2367.000000	2.211666 
2366.000000	2.210736 
2365.000000	2.209901 
2364.000000	2.209234 
2363.000000	2.208828 
2362.000000	2.208757 
2361.000000	2.209115 
2360.000000	2.209925 
2359.000000	2.211213 
2358.000000	2.212929 
2357.000000	2.215027 
2356.000000	2.217435 
2355.000000	2.220082 
2354.000000	2.222752 
2353.000000	2.225422 
2352.000000	2.227997 
2351.000000	2.230310 
2350.000000	2.232336 
2349.000000	2.233958 
2348.000000	2.235221 
2347.000000	2.236127 
2346.000000	2.236723 
2345.000000	2.237033 
2344.000000	2.237200 
2343.000000	2.237343 
2342.000000	2.237534 
2341.000000	2.237892 
2340.000000	2.238488 
2339.000000	2.239298 
2338.000000	2.240347 
2337.000000	2.241635 
2336.000000	2.243089 
2335.000000	2.244639 
2334.000000	2.246284 
2333.000000	2.247953 
2332.000000	2.249622 
2331.000000	2.251315 
2330.000000	2.253007 
2329.000000	2.254772 
2328.000000	2.256584 
2327.000000	2.258443 
2326.000000	2.260375 
2325.000000	2.262330 
2324.000000	2.264356 
2323.000000	2.266383 
2322.000000	2.268409 
2321.000000	2.270436 
2320.000000	2.272462 
2319.000000	2.274465 
2318.000000	2.276468 
2317.000000	2.278494 
2316.000000	2.280569 
2315.000000	2.282691 
2314.000000	2.284836 
2313.000000	2.287030 
2312.000000	2.289199 
2311.000000	2.291417 
2310.000000	2.293610 
2309.000000	2.295708 
2308.000000	2.297782 
2307.000000	2.299761 
2306.000000	2.301692 
2305.000000	2.303481 
2304.000000	2.305173 
2303.000000	2.306747 
2302.000000	2.308177 
2301.000000	2.309513 
2300.000000	2.310729 
2299.000000	2.311778 
2298.000000	2.312755 
2297.000000	2.313685 
2296.000000	2.314567 
2295.000000	2.315449 
2294.000000	2.316427 
2293.000000	2.317452 
2292.000000	2.318549 
2291.000000	2.319717 
2290.000000	2.320933 
2289.000000	2.322220 
2288.000000	2.323484 
2287.000000	2.324700 
2286.000000	2.325868 
2285.000000	2.327013 
2284.000000	2.328133 
2283.000000	2.329254 
2282.000000	2.330350 
2281.000000	2.331447 
2280.000000	2.332544 
2279.000000	2.333664 
2278.000000	2.334785 
2277.000000	2.335858 
2276.000000	2.336883 
2275.000000	2.337861 
2274.000000	2.338743 
2273.000000	2.339506 
2272.000000	2.340269 
2271.000000	2.340936 
2270.000000	2.341580 
2269.000000	2.342200 
2268.000000	2.342796 
2267.000000	2.343368 
2266.000000	2.343893 
2265.000000	2.344393 
2264.000000	2.344918 
2263.000000	2.345347 
2262.000000	2.345752 
2261.000000	2.346110 
2260.000000	2.346420 
2259.000000	2.346682 
2258.000000	2.346873 
2257.000000	2.347040 
2256.000000	2.347111 
2255.000000	2.347111 
2254.000000	2.347064 
2253.000000	2.346992 
2252.000000	2.346873 
2251.000000	2.346801 
2250.000000	2.346754 
2249.000000	2.346706 
2248.000000	2.346801 
2247.000000	2.346968 
2246.000000	2.347278 
2245.000000	2.347683 
2244.000000	2.348184 
2243.000000	2.348732 
2242.000000	2.349328 
2241.000000	2.349877 
2240.000000	2.350306 
2239.000000	2.350568 
2238.000000	2.350616 
2237.000000	2.350401 
2236.000000	2.349948 
2235.000000	2.349352 
2234.000000	2.348613 
2233.000000	2.347898 
2232.000000	2.347207 
2231.000000	2.346682 
2230.000000	2.346277 
2229.000000	2.346038 
2228.000000	2.345871 
2227.000000	2.345752 
2226.000000	2.345609 
2225.000000	2.345371 
2224.000000	2.345037 
2223.000000	2.344536 
2222.000000	2.343869 
2221.000000	2.343058 
2220.000000	2.342200 
2219.000000	2.341270 
2218.000000	2.340388 
2217.000000	2.339529 
2216.000000	2.338743 
2215.000000	2.338004 
2214.000000	2.337312 
2213.000000	2.336668 
2212.000000	2.336049 
2211.000000	2.335453 
2210.000000	2.334880 
2209.000000	2.334284 
2208.000000	2.333688 
2207.000000	2.333092 
2206.000000	2.332496 
2205.000000	2.331876 
2204.000000	2.331233 
2203.000000	2.330517 
2202.000000	2.329707 
2201.000000	2.328824 
2200.000000	2.327847 
2199.000000	2.326822 
2198.000000	2.325725 
2197.000000	2.324652 
2196.000000	2.323579 
2195.000000	2.322578 
2194.000000	2.321672 
2193.000000	2.320814 
2192.000000	2.320051 
2191.000000	2.319288 
2190.000000	2.318572 
2189.000000	2.317833 
2188.000000	2.317094 
2187.000000	2.316355 
2186.000000	2.315616 
2185.000000	2.314805 
2184.000000	2.314019 
2183.000000	2.313232 
2182.000000	2.312517 
2181.000000	2.311825 
2180.000000	2.311205 
2179.000000	2.310705 
2178.000000	2.310252 
2177.000000	2.309870 
2176.000000	2.309536 
2175.000000	2.309179 
2174.000000	2.308869 
2173.000000	2.308559 
2172.000000	2.308225 
2171.000000	2.307915 
2170.000000	2.307605 
2169.000000	2.307319 
2168.000000	2.306938 
2167.000000	2.306509 
2166.000000	2.306008 
2165.000000	2.305388 
2164.000000	2.304649 
2163.000000	2.303838 
2162.000000	2.303004 
2161.000000	2.302145 
2160.000000	2.301383 
2159.000000	2.300739 
2158.000000	2.300262 
2157.000000	2.299976 
2156.000000	2.299857 
2155.000000	2.299904 
2154.000000	2.300119 
2153.000000	2.300405 
2152.000000	2.300763 
2151.000000	2.301168 
2150.000000	2.301597 
2149.000000	2.302002 
2148.000000	2.302408 
2147.000000	2.302742 
2146.000000	2.302980 
2145.000000	2.303099 
2144.000000	2.303171 
2143.000000	2.303147 
2142.000000	2.303075 
2141.000000	2.302980 
2140.000000	2.302908 
2139.000000	2.302837 
2138.000000	2.302742 
2137.000000	2.302598 
2136.000000	2.302336 
2135.000000	2.301955 
2134.000000	2.301430 
2133.000000	2.300810 
2132.000000	2.300119 
2131.000000	2.299427 
2130.000000	2.298784 
2129.000000	2.298307 
2128.000000	2.297925 
2127.000000	2.297735 
2126.000000	2.297711 
2125.000000	2.297830 
2124.000000	2.298116 
2123.000000	2.298569 
2122.000000	2.299141 
2121.000000	2.299833 
2120.000000	2.300620 
2119.000000	2.301454 
2118.000000	2.302289 
2117.000000	2.303051 
2116.000000	2.303719 
2115.000000	2.304267 
2114.000000	2.304697 
2113.000000	2.304983 
2112.000000	2.305197 
2111.000000	2.305340 
2110.000000	2.305436 
2109.000000	2.305531 
2108.000000	2.305579 
2107.000000	2.305650 
2106.000000	2.305722 
2105.000000	2.305793 
2104.000000	2.305817 
2103.000000	2.305793 
2102.000000	2.305793 
2101.000000	2.305746 
2100.000000	2.305698 
2099.000000	2.305650 
2098.000000	2.305603 
2097.000000	2.305555 
2096.000000	2.305436 
2095.000000	2.305340 
2094.000000	2.305150 
2093.000000	2.304983 
2092.000000	2.304840 
2091.000000	2.304720 
2090.000000	2.304625 
2089.000000	2.304649 
2088.000000	2.304768 
2087.000000	2.305030 
2086.000000	2.305412 
2085.000000	2.305912 
2084.000000	2.306580 
2083.000000	2.307343 
2082.000000	2.308273 
2081.000000	2.309370 
2080.000000	2.310657 
2079.000000	2.312088 
2078.000000	2.313709 
2077.000000	2.315449 
2076.000000	2.317261 
2075.000000	2.319121 
2074.000000	2.320957 
2073.000000	2.322793 
2072.000000	2.324509 
2071.000000	2.326130 
2070.000000	2.327680 
2069.000000	2.329182 
2068.000000	2.330684 
2067.000000	2.332234 
2066.000000	2.333807 
2065.000000	2.335476 
2064.000000	2.337217 
2063.000000	2.339029 
2062.000000	2.340984 
2061.000000	2.342939 
2060.000000	2.344965 
2059.000000	2.347016 
2058.000000	2.349090 
2057.000000	2.351188 
2056.000000	2.353310 
2055.000000	2.355480 
2054.000000	2.357697 
2053.000000	2.359938 
2052.000000	2.362155 
2051.000000	2.364373 
2050.000000	2.366495 
2049.000000	2.368569 
2048.000000	2.370548 
2047.000000	2.372479 
2046.000000	2.374339 
2045.000000	2.376198 
2044.000000	2.378034 
2043.000000	2.379870 
2042.000000	2.381706 
2041.000000	2.383518 
2040.000000	2.385306 
2039.000000	2.387022 
2038.000000	2.388668 
2037.000000	2.390170 
2036.000000	2.391600 
2035.000000	2.392911 
2034.000000	2.394080 
2033.000000	2.395200 
2032.000000	2.396178 
2031.000000	2.397084 
2030.000000	2.397894 
2029.000000	2.398610 
2028.000000	2.399230 
2027.000000	2.399826 
2026.000000	2.400445 
2025.000000	2.401065 
2024.000000	2.401757 
2023.000000	2.402567 
2022.000000	2.403497 
2021.000000	2.404499 
2020.000000	2.405595 
2019.000000	2.406716 
2018.000000	2.407860 
2017.000000	2.408933 
2016.000000	2.409934 
2015.000000	2.410817 
2014.000000	2.411532 
2013.000000	2.412104 
2012.000000	2.412533 
2011.000000	2.412915 
2010.000000	2.413296 
2009.000000	2.413725 
2008.000000	2.414250 
2007.000000	2.414917 
2006.000000	2.415704 
2005.000000	2.416634 
2004.000000	2.417564 
2003.000000	2.418470 
2002.000000	2.419352 
2001.000000	2.420067 
2000.000000	2.420592 
1999.000000	2.420902 
1998.000000	2.420949 
1997.000000	2.420783 
1996.000000	2.420401 
1995.000000	2.419877 
1994.000000	2.419209 
1993.000000	2.418494 
1992.000000	2.417778 
1991.000000	2.417063 
1990.000000	2.416372 
1989.000000	2.415776 
1988.000000	2.415251 
1987.000000	2.414798 
1986.000000	2.414417 
1985.000000	2.414107 
1984.000000	2.413845 
1983.000000	2.413678 
1982.000000	2.413535 
1981.000000	2.413392 
1980.000000	2.413201 
1979.000000	2.412939 
1978.000000	2.412509 
1977.000000	2.411866 
1976.000000	2.410960 
1975.000000	2.409768 
1974.000000	2.408361 
1973.000000	2.406811 
1972.000000	2.405166 
1971.000000	2.403569 
1970.000000	2.402091 
1969.000000	2.400875 
1968.000000	2.399873 
1967.000000	2.399086 
1966.000000	2.398443 
1965.000000	2.397942 
1964.000000	2.397394 
1963.000000	2.396750 
1962.000000	2.395987 
1961.000000	2.395057 
1960.000000	2.393960 
1959.000000	2.392768 
1958.000000	2.391481 
1957.000000	2.390217 
1956.000000	2.389073 
1955.000000	2.388024 
1954.000000	2.387142 
1953.000000	2.386355 
1952.000000	2.385687 
1951.000000	2.385067 
1950.000000	2.384424 
1949.000000	2.383756 
1948.000000	2.383041 
1947.000000	2.382254 
1946.000000	2.381443 
1945.000000	2.380609 
1944.000000	2.379775 
1943.000000	2.378916 
1942.000000	2.378082 
1941.000000	2.377271 
1940.000000	2.376484 
1939.000000	2.375721 
1938.000000	2.375006 
1937.000000	2.374339 
1936.000000	2.373743 
1935.000000	2.373147 
1934.000000	2.372550 
1933.000000	2.371931 
1932.000000	2.371239 
1931.000000	2.370357 
1930.000000	2.369379 
1929.000000	2.368283 
1928.000000	2.367067 
1927.000000	2.365803 
1926.000000	2.364516 
1925.000000	2.363276 
1924.000000	2.362132 
1923.000000	2.361011 
1922.000000	2.359914 
1921.000000	2.358889 
1920.000000	2.357816 
1919.000000	2.356791 
1918.000000	2.355694 
1917.000000	2.354598 
1916.000000	2.353429 
1915.000000	2.352213 
1914.000000	2.350950 
1913.000000	2.349615 
1912.000000	2.348256 
1911.000000	2.346897 
1910.000000	2.345585 
1909.000000	2.344393 
1908.000000	2.343273 
1907.000000	2.342319 
1906.000000	2.341461 
1905.000000	2.340698 
1904.000000	2.339935 
1903.000000	2.339076 
1902.000000	2.338171 
1901.000000	2.337169 
1900.000000	2.336072 
1899.000000	2.334976 
1898.000000	2.333974 
1897.000000	2.333116 
1896.000000	2.332496 
1895.000000	2.332091 
1894.000000	2.331972 
1893.000000	2.332019 
1892.000000	2.332258 
1891.000000	2.332615 
1890.000000	2.333021 
1889.000000	2.333426 
1888.000000	2.333831 
1887.000000	2.334213 
1886.000000	2.334547 
1885.000000	2.334856 
1884.000000	2.335166 
1883.000000	2.335476 
1882.000000	2.335834 
1881.000000	2.336192 
1880.000000	2.336621 
1879.000000	2.337074 
1878.000000	2.337551 
1877.000000	2.337956 
1876.000000	2.338337 
1875.000000	2.338647 
1874.000000	2.338838 
1873.000000	2.338981 
1872.000000	2.339100 
1871.000000	2.339291 
1870.000000	2.339553 
1869.000000	2.340006 
1868.000000	2.340579 
1867.000000	2.341365 
1866.000000	2.342271 
1865.000000	2.343201 
1864.000000	2.344179 
1863.000000	2.345085 
1862.000000	2.345943 
1861.000000	2.346730 
1860.000000	2.347469 
1859.000000	2.348184 
1858.000000	2.348899 
1857.000000	2.349662 
1856.000000	2.350449 
1855.000000	2.351212 
1854.000000	2.351927 
1853.000000	2.352523 
1852.000000	2.353024 
1851.000000	2.353334 
1850.000000	2.353501 
1849.000000	2.353572 
1848.000000	2.353644 
1847.000000	2.353787 
1846.000000	2.354097 
1845.000000	2.354645 
1844.000000	2.355480 
1843.000000	2.356672 
1842.000000	2.358031 
1841.000000	2.359557 
1840.000000	2.361154 
1839.000000	2.362632 
1838.000000	2.363920 
1837.000000	2.364945 
1836.000000	2.365636 
1835.000000	2.366042 
1834.000000	2.366256 
1833.000000	2.366304 
1832.000000	2.366328 
1831.000000	2.366447 
1830.000000	2.366733 
1829.000000	2.367258 
1828.000000	2.368044 
1827.000000	2.369117 
1826.000000	2.370476 
1825.000000	2.372026 
1824.000000	2.373743 
1823.000000	2.375531 
1822.000000	2.377295 
1821.000000	2.379012 
1820.000000	2.380609 
1819.000000	2.381992 
1818.000000	2.383208 
1817.000000	2.384257 
1816.000000	2.385139 
1815.000000	2.385973 
1814.000000	2.386736 
1813.000000	2.387499 
1812.000000	2.388286 
1811.000000	2.389097 
1810.000000	2.389836 
1809.000000	2.390503 
1808.000000	2.391004 
1807.000000	2.391314 
1806.000000	2.391386 
1805.000000	2.391266 
1804.000000	2.390980 
1803.000000	2.390623 
1802.000000	2.390193 
1801.000000	2.389812 
1800.000000	2.389454 
1799.000000	2.389144 
1798.000000	2.388882 
1797.000000	2.388644 
1796.000000	2.388453 
1795.000000	2.388310 
1794.000000	2.388238 
1793.000000	2.388262 
1792.000000	2.388453 
1791.000000	2.388739 
1790.000000	2.389168 
1789.000000	2.389645 
1788.000000	2.390098 
1787.000000	2.390503 
1786.000000	2.390766 
1785.000000	2.390885 
1784.000000	2.390813 
1783.000000	2.390527 
1782.000000	2.390003 
1781.000000	2.389216 
1780.000000	2.388095 
1779.000000	2.386617 
1778.000000	2.384757 
1777.000000	2.382588 
1776.000000	2.380251 
1775.000000	2.377820 
1774.000000	2.375602 
1773.000000	2.373719 
1772.000000	2.372312 
1771.000000	2.371501 
1770.000000	2.371239 
1769.000000	2.371430 
1768.000000	2.371883 
1767.000000	2.372431 
1766.000000	2.372956 
1765.000000	2.373266 
1764.000000	2.373313 
1763.000000	2.373075 
1762.000000	2.372479 
1761.000000	2.371597 
1760.000000	2.370381 
1759.000000	2.368831 
1758.000000	2.366876 
1757.000000	2.364492 
1756.000000	2.361774 
1755.000000	2.358698 
1754.000000	2.355432 
1753.000000	2.352094 
1752.000000	2.348828 
1751.000000	2.345681 
1750.000000	2.342724 
1749.000000	2.340006 
1748.000000	2.337360 
1747.000000	2.334713 
1746.000000	2.331924 
1745.000000	2.328872 
1744.000000	2.325510 
1743.000000	2.321767 
1742.000000	2.317619 
1741.000000	2.313184 
1740.000000	2.308511 
1739.000000	2.303743 
1738.000000	2.299165 
1737.000000	2.294969 
1736.000000	2.291393 
1735.000000	2.288675 
1734.000000	2.286911 
1733.000000	2.286171 
1732.000000	2.286410 
1731.000000	2.287411 
1730.000000	2.288866 
1729.000000	2.290415 
1728.000000	2.291631 
1727.000000	2.292156 
1726.000000	2.291774 
1725.000000	2.290320 
1724.000000	2.287793 
1723.000000	2.284336 
1722.000000	2.280259 
1721.000000	2.275943 
1720.000000	2.271771 
1719.000000	2.268123 
1718.000000	2.265310 
1717.000000	2.263426 
1716.000000	2.262473 
1715.000000	2.262282 
1714.000000	2.262544 
1713.000000	2.262902 
1712.000000	2.262997 
1711.000000	2.262520 
1710.000000	2.261209 
1709.000000	2.259016 
1708.000000	2.255892 
1707.000000	2.252006 
1706.000000	2.247476 
1705.000000	2.242469 
1704.000000	2.237248 
1703.000000	2.232050 
1702.000000	2.227163 
1701.000000	2.222800 
1700.000000	2.219319 
1699.000000	2.216815 
1698.000000	2.215433 
1697.000000	2.215194 
1696.000000	2.215933 
1695.000000	2.217316 
1694.000000	2.218914 
1693.000000	2.220225 
1692.000000	2.220845 
1691.000000	2.220463 
1690.000000	2.219009 
1689.000000	2.216529 
1688.000000	2.213406 
1687.000000	2.210068 
1686.000000	2.206945 
1685.000000	2.204465 
1684.000000	2.202916 
1683.000000	2.202272 
1682.000000	2.202439 
1681.000000	2.203059 
1680.000000	2.203750 
1679.000000	2.204155 
1678.000000	2.204012 
1677.000000	2.203154 
1676.000000	2.201652 
1675.000000	2.199649 
1674.000000	2.197337 
1673.000000	2.194976 
1672.000000	2.192664 
1671.000000	2.190566 
1670.000000	2.188754 
1669.000000	2.187156 
1668.000000	2.185702 
1667.000000	2.184391 
1666.000000	2.183175 
1665.000000	2.181887 
1664.000000	2.180385 
1663.000000	2.178502 
1662.000000	2.175998 
1661.000000	2.172732 
1660.000000	2.168488 
1659.000000	2.163290 
1658.000000	2.157235 
1657.000000	2.150702 
1656.000000	2.144122 
1655.000000	2.137923 
1654.000000	2.132582 
1653.000000	2.128410 
1652.000000	2.125549 
1651.000000	2.123999 
1650.000000	2.123665 
1649.000000	2.124142 
1648.000000	2.125215 
1647.000000	2.126431 
1646.000000	2.127599 
1645.000000	2.128362 
1644.000000	2.128505 
1643.000000	2.127909 
1642.000000	2.126455 
1641.000000	2.124166 
1640.000000	2.121138 
1639.000000	2.117657 
1638.000000	2.113962 
1637.000000	2.110362 
1636.000000	2.107167 
1635.000000	2.104544 
1634.000000	2.102422 
1633.000000	2.100753 
1632.000000	2.099227 
1631.000000	2.097606 
1630.000000	2.095580 
1629.000000	2.092981 
1628.000000	2.089738 
1627.000000	2.085781 
1626.000000	2.081108 
1625.000000	2.075862 
1624.000000	2.069950 
1623.000000	2.063488 
1622.000000	2.056407 
1621.000000	2.048826 
1620.000000	2.040743 
1619.000000	2.032160 
1618.000000	2.023100 
1617.000000	2.013731 
1616.000000	2.004075 
1615.000000	1.994323 
1614.000000	1.984572 
1613.000000	1.975059 
1612.000000	1.966047 
1611.000000	1.957869 
1610.000000	1.950836 
1609.000000	1.945257 
1608.000000	1.941418 
1607.000000	1.939487 
1606.000000	1.939463 
1605.000000	1.941108 
1604.000000	1.944136 
1603.000000	1.948142 
1602.000000	1.952695 
1601.000000	1.957345 
1600.000000	1.961827 
1599.000000	1.965928 
1598.000000	1.969528 
1597.000000	1.972579 
1596.000000	1.975131 
1595.000000	1.977181 
1594.000000	1.978802 
1593.000000	1.980066 
1592.000000	1.980900 
1591.000000	1.981306 
1590.000000	1.981329 
1589.000000	1.980948 
1588.000000	1.980161 
1587.000000	1.979017 
1586.000000	1.977515 
1585.000000	1.975607 
1584.000000	1.973271 
1583.000000	1.970601 
1582.000000	1.967597 
1581.000000	1.964306 
1580.000000	1.960921 
1579.000000	1.957631 
1578.000000	1.954603 
1577.000000	1.951956 
1576.000000	1.949858 
1575.000000	1.948285 
1574.000000	1.947188 
1573.000000	1.946425 
1572.000000	1.945829 
1571.000000	1.945185 
1570.000000	1.944184 
1569.000000	1.942586 
1568.000000	1.940131 
1567.000000	1.936650 
1566.000000	1.932048 
1565.000000	1.926398 
1564.000000	1.919937 
1563.000000	1.913094 
1562.000000	1.906394 
1561.000000	1.900482 
1560.000000	1.895928 
1559.000000	1.893258 
1558.000000	1.892662 
1557.000000	1.894164 
1556.000000	1.897430 
1555.000000	1.902008 
1554.000000	1.907253 
1553.000000	1.912522 
1552.000000	1.917219 
1551.000000	1.920914 
1550.000000	1.923346 
1549.000000	1.924443 
1548.000000	1.924371 
1547.000000	1.923489 
1546.000000	1.922273 
1545.000000	1.921391 
1544.000000	1.921534 
1543.000000	1.923346 
1542.000000	1.927351 
1541.000000	1.933789 
1540.000000	1.942753 
1539.000000	1.954007 
1538.000000	1.967096 
1537.000000	1.981353 
1536.000000	1.996016 
1535.000000	2.010416 
1534.000000	2.024006 
1533.000000	2.036213 
1532.000000	2.046799 
1531.000000	2.055668 
1530.000000	2.062892 
1529.000000	2.068400 
1528.000000	2.072429 
1527.000000	2.075171 
1526.000000	2.076745 
1525.000000	2.077364 
1524.000000	2.077245 
1523.000000	2.076601 
1522.000000	2.075672 
1521.000000	2.074551 
1520.000000	2.073407 
1519.000000	2.072238 
1518.000000	2.071046 
1517.000000	2.069735 
1516.000000	2.068209 
1515.000000	2.066159 
1514.000000	2.063465 
1513.000000	2.059984 
1512.000000	2.055597 
1511.000000	2.050137 
1510.000000	2.043628 
1509.000000	2.035784 
1508.000000	2.026367 
1507.000000	2.014684 
1506.000000	2.000069 
1505.000000	1.981663 
1504.000000	1.958775 
1503.000000	1.930809 
1502.000000	1.897764 
1501.000000	1.860260 
1500.000000	1.819705 
1499.000000	1.778149 
1498.000000	1.738166 
1497.000000	1.702475 
1496.000000	1.673793 
1495.000000	1.654028 
1494.000000	1.644444 
1493.000000	1.645207 
1492.000000	1.655817 
1491.000000	1.674771 
1490.000000	1.700043 
1489.000000	1.729416 
1488.000000	1.760792 
1487.000000	1.792120 
1486.000000	1.821827 
1485.000000	1.848745 
1484.000000	1.872229 
1483.000000	1.891899 
1482.000000	1.907753 
1481.000000	1.919984 
1480.000000	1.928877 
1479.000000	1.935100 
1478.000000	1.939129 
1477.000000	1.941466 
1476.000000	1.942515 
1475.000000	1.942801 
1474.000000	1.942610 
1473.000000	1.942014 
1472.000000	1.941037 
1471.000000	1.939702 
1470.000000	1.937913 
1469.000000	1.935362 
1468.000000	1.931881 
1467.000000	1.927328 
1466.000000	1.921463 
1465.000000	1.914072 
1464.000000	1.904940 
1463.000000	1.893925 
1462.000000	1.880979 
1461.000000	1.866197 
1460.000000	1.849651 
1459.000000	1.831746 
1458.000000	1.813077 
1457.000000	1.794552 
1456.000000	1.776981 
1455.000000	1.761364 
1454.000000	1.748633 
1453.000000	1.739764 
1452.000000	1.735162 
1451.000000	1.735091 
1450.000000	1.739287 
1449.000000	1.747202 
1448.000000	1.757812 
1447.000000	1.770091 
1446.000000	1.782822 
1445.000000	1.794934 
1444.000000	1.805639 
1443.000000	1.814413 
1442.000000	1.821136 
1441.000000	1.825952 
1440.000000	1.829195 
1439.000000	1.831364 
1438.000000	1.832938 
1437.000000	1.834249 
1436.000000	1.835513 
1435.000000	1.836800 
1434.000000	1.838064 
1433.000000	1.839256 
1432.000000	1.840257 
1431.000000	1.841020 
1430.000000	1.841425 
1429.000000	1.841473 
1428.000000	1.841163 
1427.000000	1.840496 
1426.000000	1.839399 
1425.000000	1.837849 
1424.000000	1.835966 
1423.000000	1.833772 
1422.000000	1.831269 
1421.000000	1.828551 
1420.000000	1.825761 
1419.000000	1.822924 
1418.000000	1.819968 
1417.000000	1.816725 
1416.000000	1.812934 
1415.000000	1.808309 
1414.000000	1.802492 
1413.000000	1.795196 
1412.000000	1.786255 
1411.000000	1.775741 
1410.000000	1.763939 
1409.000000	1.751279 
1408.000000	1.738452 
1407.000000	1.726245 
1406.000000	1.715397 
1405.000000	1.706647 
1404.000000	1.700496 
1403.000000	1.697301 
1402.000000	1.697039 
1401.000000	1.699590 
1400.000000	1.704525 
1399.000000	1.711344 
1398.000000	1.719498 
1397.000000	1.728296 
1396.000000	1.737141 
1395.000000	1.745414 
1394.000000	1.752662 
1393.000000	1.758432 
1392.000000	1.762485 
1391.000000	1.764750 
1390.000000	1.765394 
1389.000000	1.764750 
1388.000000	1.763248 
1387.000000	1.761507 
1386.000000	1.760053 
1385.000000	1.759409 
1384.000000	1.759839 
1383.000000	1.761364 
1382.000000	1.763963 
1381.000000	1.767277 
1380.000000	1.770949 
1379.000000	1.774573 
1378.000000	1.777887 
1377.000000	1.780676 
1376.000000	1.782894 
1375.000000	1.784515 
1374.000000	1.785707 
1373.000000	1.786518 
1372.000000	1.787161 
1371.000000	1.787662 
1370.000000	1.788043 
1369.000000	1.788377 
1368.000000	1.788663 
1367.000000	1.788854 
1366.000000	1.788997 
1365.000000	1.789045 
1364.000000	1.789093 
1363.000000	1.789140 
1362.000000	1.789164 
1361.000000	1.789212 
1360.000000	1.789212 
1359.000000	1.789188 
1358.000000	1.789069 
1357.000000	1.788806 
1356.000000	1.788520 
1355.000000	1.788139 
1354.000000	1.787710 
1353.000000	1.787281 
1352.000000	1.786899 
1351.000000	1.786541 
1350.000000	1.786231 
1349.000000	1.785969 
1348.000000	1.785755 
1347.000000	1.785564 
1346.000000	1.785397 
1345.000000	1.785302 
1344.000000	1.785302 
1343.000000	1.785540 
1342.000000	1.786041 
1341.000000	1.786947 
1340.000000	1.788282 
1339.000000	1.790070 
1338.000000	1.792287 
1337.000000	1.794862 
1336.000000	1.797652 
1335.000000	1.800560 
1334.000000	1.803445 
1333.000000	1.806187 
1332.000000	1.808738 
1331.000000	1.810979 
1330.000000	1.812934 
1329.000000	1.814627 
1328.000000	1.816058 
1327.000000	1.817321 
1326.000000	1.818394 
1325.000000	1.819372 
1324.000000	1.820254 
1323.000000	1.821136 
1322.000000	1.821923 
1321.000000	1.822638 
1320.000000	1.823258 
1319.000000	1.823782 
1318.000000	1.824188 
1317.000000	1.824450 
1316.000000	1.824593 
1315.000000	1.824593 
1314.000000	1.824498 
1313.000000	1.824331 
1312.000000	1.824164 
1311.000000	1.823949 
1310.000000	1.823782 
1309.000000	1.823711 
1308.000000	1.823663 
1307.000000	1.823735 
1306.000000	1.823902 
1305.000000	1.824116 
1304.000000	1.824426 
1303.000000	1.824784 
1302.000000	1.825118 
1301.000000	1.825451 
1300.000000	1.825714 
1299.000000	1.825952 
1298.000000	1.826143 
1297.000000	1.826286 
1296.000000	1.826381 
1295.000000	1.826500 
1294.000000	1.826643 
1293.000000	1.826786 
1292.000000	1.826882 
1291.000000	1.826930 
1290.000000	1.826906 
1289.000000	1.826786 
1288.000000	1.826548 
1287.000000	1.826143 
1286.000000	1.825618 
1285.000000	1.824975 
1284.000000	1.824140 
1283.000000	1.823115 
1282.000000	1.821851 
1281.000000	1.820254 
1280.000000	1.818251 
1279.000000	1.815772 
1278.000000	1.812696 
1277.000000	1.808905 
1276.000000	1.804280 
1275.000000	1.798772 
1274.000000	1.792263 
1273.000000	1.784729 
1272.000000	1.776099 
1271.000000	1.766419 
1270.000000	1.755809 
1269.000000	1.744484 
1268.000000	1.732826 
1267.000000	1.721262 
1266.000000	1.710438 
1265.000000	1.700901 
1264.000000	1.693344 
1263.000000	1.688289 
1262.000000	1.686072 
1261.000000	1.686906 
1260.000000	1.690721 
1259.000000	1.697206 
1258.000000	1.705861 
1257.000000	1.716041 
1256.000000	1.727151 
1255.000000	1.738476 
1254.000000	1.749467 
1253.000000	1.759696 
1252.000000	1.768803 
1251.000000	1.776719 
1250.000000	1.783275 
1249.000000	1.788663 
1248.000000	1.792979 
1247.000000	1.796436 
1246.000000	1.799178 
1245.000000	1.801371 
1244.000000	1.803207 
1243.000000	1.804757 
1242.000000	1.806020 
1241.000000	1.806974 
1240.000000	1.807665 
1239.000000	1.808023 
1238.000000	1.808071 
1237.000000	1.807761 
1236.000000	1.807069 
1235.000000	1.806163 
1234.000000	1.805019 
1233.000000	1.803779 
1232.000000	1.802468 
1231.000000	1.801156 
1230.000000	1.799869 
1229.000000	1.798534 
1228.000000	1.797080 
1227.000000	1.795458 
1226.000000	1.793575 
1225.000000	1.791286 
1224.000000	1.788568 
1223.000000	1.785373 
1222.000000	1.781725 
1221.000000	1.777625 
1220.000000	1.773142 
1219.000000	1.768374 
1218.000000	1.763367 
1217.000000	1.758313 
1216.000000	1.753258 
1215.000000	1.748299 
1214.000000	1.743555 
1213.000000	1.739192 
1212.000000	1.735138 
1211.000000	1.731538 
1210.000000	1.728439 
1209.000000	1.725792 
1208.000000	1.723647 
1207.000000	1.721954 
1206.000000	1.720714 
1205.000000	1.719903 
1204.000000	1.719450 
1203.000000	1.719260 
1202.000000	1.719284 
1201.000000	1.719403 
1200.000000	1.719522 
1199.000000	1.719641 
1198.000000	1.719641 
1197.000000	1.719450 
1196.000000	1.719069 
1195.000000	1.718449 
1194.000000	1.717615 
1193.000000	1.716518 
1192.000000	1.715135 
1191.000000	1.713490 
1190.000000	1.711606 
1189.000000	1.709508 
1188.000000	1.707243 
1187.000000	1.704812 
1186.000000	1.702237 
1185.000000	1.699614 
1184.000000	1.696872 
1183.000000	1.694107 
1182.000000	1.691341 
1181.000000	1.688551 
1180.000000	1.685762 
1179.000000	1.682949 
1178.000000	1.680088 
1177.000000	1.677155 
1176.000000	1.674103 
1175.000000	1.670908 
1174.000000	1.667523 
1173.000000	1.663875 
1172.000000	1.659965 
1171.000000	1.655840 
1170.000000	1.651501 
1169.000000	1.647019 
1168.000000	1.642370 
1167.000000	1.637673 
1166.000000	1.632952 
1165.000000	1.628232 
1164.000000	1.623630 
1163.000000	1.619148 
1162.000000	1.614809 
1161.000000	1.610684 
1160.000000	1.606774 
1159.000000	1.603198 
1158.000000	1.599884 
1157.000000	1.596903 
1156.000000	1.594257 
1155.000000	1.591920 
1154.000000	1.589870 
1153.000000	1.588058 
1152.000000	1.586413 
1151.000000	1.584863 
1150.000000	1.583361 
1149.000000	1.581859 
1148.000000	1.580309 
1147.000000	1.578736 
1146.000000	1.577091 
1145.000000	1.575398 
1144.000000	1.573610 
1143.000000	1.571798 
1142.000000	1.569843 
1141.000000	1.567769 
1140.000000	1.565527 
1139.000000	1.563096 
1138.000000	1.560330 
1137.000000	1.557230 
1136.000000	1.553821 
1135.000000	1.550054 
1134.000000	1.545977 
1133.000000	1.541590 
1132.000000	1.536965 
1131.000000	1.532244 
1130.000000	1.527428 
1129.000000	1.522588 
1128.000000	1.517701 
1127.000000	1.512837 
1126.000000	1.507973 
1125.000000	1.503038 
1124.000000	1.498031 
1123.000000	1.492929 
1122.000000	1.487731 
1121.000000	1.482462 
1120.000000	1.477122 
1119.000000	1.471781 
1118.000000	1.466464 
1117.000000	1.461148 
1116.000000	1.455974 
1115.000000	1.450943 
1114.000000	1.446080 
1113.000000	1.441431 
1112.000000	1.437020 
1111.000000	1.432824 
1110.000000	1.428890 
1109.000000	1.425266 
1108.000000	1.421928 
1107.000000	1.418948 
1106.000000	1.416301 
1105.000000	1.413989 
1104.000000	1.412010 
1103.000000	1.410388 
1102.000000	1.409006 
1101.000000	1.407837 
1100.000000	1.406884 
1099.000000	1.406073 
1098.000000	1.405405 
1097.000000	1.404809 
1096.000000	1.404380 
1095.000000	1.404094 
1094.000000	1.403903 
1093.000000	1.403856 
1092.000000	1.403927 
1091.000000	1.404118 
1090.000000	1.404404 
1089.000000	1.404738 
1088.000000	1.405072 
1087.000000	1.405405 
1086.000000	1.405668 
1085.000000	1.405811 
1084.000000	1.405763 
1083.000000	1.405596 
1082.000000	1.405286 
1081.000000	1.404881 
1080.000000	1.404500 
1079.000000	1.404190 
1078.000000	1.404094 
1077.000000	1.404333 
1076.000000	1.404976 
1075.000000	1.406049 
1074.000000	1.407456 
1073.000000	1.409220 
1072.000000	1.411151 
1071.000000	1.413106 
1070.000000	1.414942 
1069.000000	1.416492 
1068.000000	1.417636 
1067.000000	1.418328 
1066.000000	1.418447 
1065.000000	1.417970 
1064.000000	1.416707 
1063.000000	1.414489 
1062.000000	1.411008 
1061.000000	1.405930 
1060.000000	1.398873 
1059.000000	1.389575 
1058.000000	1.377940 
1057.000000	1.364159 
1056.000000	1.348733 
1055.000000	1.332569 
1054.000000	1.316738 
1053.000000	1.302552 
1052.000000	1.291227 
1051.000000	1.283740 
1050.000000	1.280617 
1049.000000	1.282024 
1048.000000	1.287508 
1047.000000	1.296234 
1046.000000	1.307082 
1045.000000	1.318788 
1044.000000	1.330232 
1043.000000	1.340484 
1042.000000	1.348972 
1041.000000	1.355433 
1040.000000	1.359868 
1039.000000	1.362490 
1038.000000	1.363706 
1037.000000	1.363873 
1036.000000	1.363253 
1035.000000	1.362133 
1034.000000	1.360654 
1033.000000	1.358890 
1032.000000	1.356911 
1031.000000	1.354694 
1030.000000	1.352381 
1029.000000	1.349949 
1028.000000	1.347541 
1027.000000	1.345229 
1026.000000	1.343131 
1025.000000	1.341342 
1024.000000	1.339983 
1023.000000	1.339077 
1022.000000	1.338672 
1021.000000	1.338720 
1020.000000	1.339221 
1019.000000	1.340150 
1018.000000	1.341438 
1017.000000	1.343011 
1016.000000	1.344895 
1015.000000	1.347041 
1014.000000	1.349425 
1013.000000	1.352024 
1012.000000	1.354789 
1011.000000	1.357626 
1010.000000	1.360487 
1009.000000	1.363229 
1008.000000	1.365804 
1007.000000	1.368188 
1006.000000	1.370334 
1005.000000	1.372146 
1004.000000	1.373672 
1003.000000	1.374936 
1002.000000	1.375913 
1001.000000	1.376652 
1000.000000	1.377177 
999.000000	 1.377463 
998.000000	 1.377534 
997.000000	 1.377367 
996.000000	 1.377010 
995.000000	 1.376438 
994.000000	 1.375651 
993.000000	 1.374745 
992.000000	 1.373672 
991.000000	 1.372456 
990.000000	 1.371097 
989.000000	 1.369619 
988.000000	 1.367998 
987.000000	 1.366257 
986.000000	 1.364445 
985.000000	 1.362514 
984.000000	 1.360535 
983.000000	 1.358532 
982.000000	 1.356530 
981.000000	 1.354527 
980.000000	 1.352548 
979.000000	 1.350593 
978.000000	 1.348614 
977.000000	 1.346611 
976.000000	 1.344561 
975.000000	 1.342391 
974.000000	 1.340150 
973.000000	 1.337790 
972.000000	 1.335334 
971.000000	 1.332736 
970.000000	 1.330041 
969.000000	 1.327180 
968.000000	 1.324129 
967.000000	 1.320981 
966.000000	 1.317691 
965.000000	 1.314282 
964.000000	 1.310801 
963.000000	 1.307272 
962.000000	 1.303672 
961.000000	 1.300048 
960.000000	 1.296353 
959.000000	 1.292610 
958.000000	 1.288795 
957.000000	 1.284956 
956.000000	 1.281070 
955.000000	 1.277184 
954.000000	 1.273393 
953.000000	 1.269698 
952.000000	 1.266217 
951.000000	 1.262998 
950.000000	 1.259970 
949.000000	 1.257252 
948.000000	 1.254796 
947.000000	 1.252436 
946.000000	 1.250290 
945.000000	 1.248264 
944.000000	 1.246333 
943.000000	 1.244473 
942.000000	 1.242709 
941.000000	 1.240968 
940.000000	 1.239275 
939.000000	 1.237607 
938.000000	 1.235914 
937.000000	 1.234197 
936.000000	 1.232409 
935.000000	 1.230525 
934.000000	 1.228570 
933.000000	 1.226496 
932.000000	 1.224374 
931.000000	 1.222229 
930.000000	 1.220059 
929.000000	 1.217889 
928.000000	 1.215744 
927.000000	 1.213598 
926.000000	 1.211428 
925.000000	 1.209235 
924.000000	 1.206970 
923.000000	 1.204657 
922.000000	 1.202201 
921.000000	 1.199626 
920.000000	 1.196932 
919.000000	 1.194071 
918.000000	 1.190972 
917.000000	 1.187682 
916.000000	 1.184153 
915.000000	 1.180434 
914.000000	 1.176595 
913.000000	 1.172709 
912.000000	 1.168823 
911.000000	 1.165032 
910.000000	 1.161432 
909.000000	 1.158094 
908.000000	 1.155066 
907.000000	 1.152372 
906.000000	 1.149988 
905.000000	 1.147866 
904.000000	 1.145982 
903.000000	 1.144266 
902.000000	 1.142668 
901.000000	 1.141166 
900.000000	 1.139664 
899.000000	 1.138186 
898.000000	 1.136660 
897.000000	 1.135063 
896.000000	 1.133322 
895.000000	 1.131343 
894.000000	 1.129031 
893.000000	 1.126337 
892.000000	 1.123142 
891.000000	 1.119375 
890.000000	 1.114940 
889.000000	 1.109743 
888.000000	 1.103806 
887.000000	 1.097035 
886.000000	 1.089549 
885.000000	 1.081395 
884.000000	 1.072740 
883.000000	 1.063799 
882.000000	 1.054811 
881.000000	 1.046085 
880.000000	 1.037955 
879.000000	 1.030707 
878.000000	 1.024603 
877.000000	 1.019930 
876.000000	 1.016879 
875.000000	 1.015543 
874.000000	 1.015949 
873.000000	 1.018023 
872.000000	 1.021552 
871.000000	 1.026320 
870.000000	 1.032066 
869.000000	 1.038336 
868.000000	 1.044774 
867.000000	 1.051139 
866.000000	 1.057052 
865.000000	 1.062250 
864.000000	 1.066732 
863.000000	 1.070380 
862.000000	 1.073169 
861.000000	 1.075124 
860.000000	 1.076412 
859.000000	 1.077103 
858.000000	 1.077270 
857.000000	 1.077055 
856.000000	 1.076507 
855.000000	 1.075744 
854.000000	 1.074814 
853.000000	 1.073741 
852.000000	 1.072597 
851.000000	 1.071333 
850.000000	 1.070046 
849.000000	 1.068663 
848.000000	 1.067161 
847.000000	 1.065540 
846.000000	 1.063823 
845.000000	 1.061868 
844.000000	 1.059651 
843.000000	 1.057028 
842.000000	 1.053905 
841.000000	 1.050114 
840.000000	 1.045393 
839.000000	 1.039552 
838.000000	 1.032304 
837.000000	 1.023387 
836.000000	 1.012635 
835.000000	 0.999832 
834.000000	 0.984978 
833.000000	 0.968217 
832.000000	 0.949835 
831.000000	 0.930333 
830.000000	 0.910449 
829.000000	 0.891113 
828.000000	 0.873303 
827.000000	 0.858068 
826.000000	 0.846242 
825.000000	 0.838518 
824.000000	 0.835299 
823.000000	 0.836467 
822.000000	 0.841617 
821.000000	 0.850081 
820.000000	 0.860810 
819.000000	 0.872850 
818.000000	 0.885105 
817.000000	 0.896811 
816.000000	 0.907230 
815.000000	 0.916028 
814.000000	 0.923061 
813.000000	 0.928258 
812.000000	 0.931859 
811.000000	 0.934100 
810.000000	 0.935268 
809.000000	 0.935602 
808.000000	 0.935435 
807.000000	 0.934910 
806.000000	 0.934243 
805.000000	 0.933527 
804.000000	 0.932884 
803.000000	 0.932455 
802.000000	 0.932192 
801.000000	 0.932168 
800.000000	 0.932431 
799.000000	 0.933003 
798.000000	 0.933861 
797.000000	 0.935053 
796.000000	 0.936579 
795.000000	 0.938463 
794.000000	 0.940680 
793.000000	 0.943183 
792.000000	 0.945925 
791.000000	 0.948834 
790.000000	 0.951766 
789.000000	 0.954651 
788.000000	 0.957322 
787.000000	 0.959753 
786.000000	 0.961875 
785.000000	 0.963592 
784.000000	 0.964951 
783.000000	 0.965929 
782.000000	 0.966596 
781.000000	 0.966978 
780.000000	 0.967073 
779.000000	 0.967001 
778.000000	 0.966715 
777.000000	 0.966334 
776.000000	 0.965785 
775.000000	 0.965142 
774.000000	 0.964403 
773.000000	 0.963544 
772.000000	 0.962567 
771.000000	 0.961518 
770.000000	 0.960373 
769.000000	 0.959181 
768.000000	 0.957942 
767.000000	 0.956726 
766.000000	 0.955557 
765.000000	 0.954413 
764.000000	 0.953412 
763.000000	 0.952553 
762.000000	 0.951766 
761.000000	 0.951051 
760.000000	 0.950384 
759.000000	 0.949740 
758.000000	 0.949072 
757.000000	 0.948309 
756.000000	 0.947451 
755.000000	 0.946450 
754.000000	 0.945353 
753.000000	 0.944066 
752.000000	 0.942707 
751.000000	 0.941205 
750.000000	 0.939583 
749.000000	 0.937938 
748.000000	 0.936198 
747.000000	 0.934457 
746.000000	 0.932669 
745.000000	 0.930809 
744.000000	 0.928854 
743.000000	 0.926828 
742.000000	 0.924730 
741.000000	 0.922608 
740.000000	 0.920414 
739.000000	 0.918173 
738.000000	 0.915837 
737.000000	 0.913476 
736.000000	 0.910997 
735.000000	 0.908422 
734.000000	 0.905752 
733.000000	 0.902938 
732.000000	 0.900077 
731.000000	 0.897121 
730.000000	 0.894141 
729.000000	 0.891137 
728.000000	 0.888156 
727.000000	 0.885200 
726.000000	 0.882244 
725.000000	 0.879359 
724.000000	 0.876498 
723.000000	 0.873661 
722.000000	 0.870823 
721.000000	 0.867986 
720.000000	 0.865125 
719.000000	 0.862264 
718.000000	 0.859355 
717.000000	 0.856447 
716.000000	 0.853514 
715.000000	 0.850558 
714.000000	 0.847601 
713.000000	 0.844669 
712.000000	 0.841712 
711.000000	 0.838756 
710.000000	 0.835800 
709.000000	 0.832843 
708.000000	 0.829839 
707.000000	 0.826811 
706.000000	 0.823712 
705.000000	 0.820469 
704.000000	 0.817084 
703.000000	 0.813484 
702.000000	 0.809621 
701.000000	 0.805425 
700.000000	 0.800871 
699.000000	 0.795888 
698.000000	 0.790381 
697.000000	 0.784301 
696.000000	 0.777673 
695.000000	 0.770568 
694.000000	 0.763106 
693.000000	 0.755500 
692.000000	 0.747966 
691.000000	 0.740885 
690.000000	 0.734567 
689.000000	 0.729227 
688.000000	 0.725054 
687.000000	 0.722169 
686.000000	 0.720524 
685.000000	 0.719904 
684.000000	 0.720047 
683.000000	 0.720667 
682.000000	 0.721454 
681.000000	 0.722122 
680.000000	 0.722503 
679.000000	 0.722360 
678.000000	 0.721764 
677.000000	 0.720739 
676.000000	 0.719261 
675.000000	 0.717449 
674.000000	 0.715422 
673.000000	 0.713229 
672.000000	 0.711011 
671.000000	 0.708842 
670.000000	 0.706791 
669.000000	 0.704836 
668.000000	 0.703048 
667.000000	 0.701332 
666.000000	 0.699687 
665.000000	 0.698041 
664.000000	 0.696301 
663.000000	 0.694417 
662.000000	 0.692367 
661.000000	 0.690078 
660.000000	 0.687623 
659.000000	 0.685000 
658.000000	 0.682258 
657.000000	 0.679445 
656.000000	 0.676584 
655.000000	 0.673723 
654.000000	 0.670838 
653.000000	 0.667929 
652.000000	 0.665092 
651.000000	 0.662255 
650.000000	 0.659441 
649.000000	 0.656652 
648.000000	 0.653886 
647.000000	 0.651168 
646.000000	 0.648450 
645.000000	 0.645780 
644.000000	 0.643110 
643.000000	 0.640463 
642.000000	 0.637888 
641.000000	 0.635313 
640.000000	 0.632786 
639.000000	 0.630307 
638.000000	 0.627899 
637.000000	 0.625538 
636.000000	 0.623250 
635.000000	 0.620985 
634.000000	 0.618696 
633.000000	 0.616407 
632.000000	 0.614023 
631.000000	 0.611567 
630.000000	 0.608992 
629.000000	 0.606298 
628.000000	 0.603485 
627.000000	 0.600647 
626.000000	 0.597763 
625.000000	 0.594830 
624.000000	 0.591897 
623.000000	 0.588965 
622.000000	 0.586032 
621.000000	 0.583076 
620.000000	 0.580000 
619.000000	 0.576853 
618.000000	 0.573539 
617.000000	 0.570011 
616.000000	 0.566196 
615.000000	 0.562071 
614.000000	 0.557589 
613.000000	 0.552797 
612.000000	 0.547742 
611.000000	 0.542497 
610.000000	 0.537228 
609.000000	 0.532150 
608.000000	 0.527453 
607.000000	 0.523328 
606.000000	 0.519967 
605.000000	 0.517439 
604.000000	 0.515723 
603.000000	 0.514793 
602.000000	 0.514483 
601.000000	 0.514698 
600.000000	 0.515079 
599.000000	 0.515556 
598.000000	 0.515890 
597.000000	 0.515937 
596.000000	 0.515651 
595.000000	 0.515031 
594.000000	 0.514006 
593.000000	 0.512647 
592.000000	 0.511050 
591.000000	 0.509262 
590.000000	 0.507426 
589.000000	 0.505542 
588.000000	 0.503778 
587.000000	 0.502157 
586.000000	 0.500798 
585.000000	 0.499677 
584.000000	 0.498843 
583.000000	 0.498247 
582.000000	 0.497841 
581.000000	 0.497579 
580.000000	 0.497364 
579.000000	 0.497126 
578.000000	 0.496864 
577.000000	 0.496482 
576.000000	 0.495982 
575.000000	 0.495290 
574.000000	 0.494432 
573.000000	 0.493454 
572.000000	 0.492286 
571.000000	 0.491023 
570.000000	 0.489521 
569.000000	 0.487923 
568.000000	 0.486207 
567.000000	 0.484395 
566.000000	 0.482559 
565.000000	 0.480699 
564.000000	 0.478863 
563.000000	 0.477123 
562.000000	 0.475430 
561.000000	 0.473737 
560.000000	 0.472116 
559.000000	 0.470495 
558.000000	 0.468850 
557.000000	 0.467228 
556.000000	 0.465583 
555.000000	 0.463867 
554.000000	 0.462150 
553.000000	 0.460457 
552.000000	 0.458717 
551.000000	 0.457000 
550.000000	 0.455307 
549.000000	 0.453615 
548.000000	 0.451946 
547.000000	 0.450301 
546.000000	 0.448703 
545.000000	 0.447082 
544.000000	 0.445437 
543.000000	 0.443768 
542.000000	 0.442028 
541.000000	 0.440192 
540.000000	 0.438261 
539.000000	 0.436258 
538.000000	 0.434184 
537.000000	 0.431990 
536.000000	 0.429797 
535.000000	 0.427532 
534.000000	 0.425291 
533.000000	 0.423002 
532.000000	 0.420784 
531.000000	 0.418543 
530.000000	 0.416254 
529.000000	 0.413966 
528.000000	 0.411653 
527.000000	 0.409317 
526.000000	 0.406980 
525.000000	 0.404644 
524.000000	 0.402307 
523.000000	 0.400090 
522.000000	 0.397920 
521.000000	 0.395870 
520.000000	 0.393843 
519.000000	 0.391793 
518.000000	 0.389742 
517.000000	 0.387597 
516.000000	 0.385332 
515.000000	 0.382876 
514.000000	 0.380301 
513.000000	 0.377607 
512.000000	 0.374841 
511.000000	 0.372052 
510.000000	 0.369262 
509.000000	 0.366520 
508.000000	 0.363826 
507.000000	 0.361204 
506.000000	 0.358605 
505.000000	 0.355982 
504.000000	 0.353360 
503.000000	 0.350666 
502.000000	 0.347876 
501.000000	 0.344967 
500.000000	 0.341939 
499.000000	 0.338768 
498.000000	 0.335478 
497.000000	 0.332069 
496.000000	 0.328588 
495.000000	 0.325059 
494.000000	 0.321507 
493.000000	 0.317978 
492.000000	 0.314450 
491.000000	 0.310921 
490.000000	 0.307488 
489.000000	 0.304102 
488.000000	 0.300741 
487.000000	 0.297403 
486.000000	 0.294089 
485.000000	 0.290799 
484.000000	 0.287461 
483.000000	 0.284123 
482.000000	 0.280737 
481.000000	 0.277328 
480.000000	 0.273871 
479.000000	 0.270414 
478.000000	 0.266933 
477.000000	 0.263524 
476.000000	 0.260162 
475.000000	 0.256848 
474.000000	 0.253701 
473.000000	 0.250625 
472.000000	 0.247645 
471.000000	 0.244784 
470.000000	 0.241947 
469.000000	 0.239109 
468.000000	 0.236248 
467.000000	 0.233340 
466.000000	 0.230312 
465.000000	 0.227141 
464.000000	 0.223851 
463.000000	 0.220370 
462.000000	 0.216746 
461.000000	 0.213003 
460.000000	 0.209164 
459.000000	 0.205230 
458.000000	 0.201272 
457.000000	 0.197339 
456.000000	 0.193476 
455.000000	 0.189733 
454.000000	 0.186133 
453.000000	 0.182723 
452.000000	 0.179529 
451.000000	 0.176501 
450.000000	 0.173664 
449.000000	 0.171017 
448.000000	 0.168490 
447.000000	 0.166082 
446.000000	 0.163698 
445.000000	 0.161266 
444.000000	 0.158786 
443.000000	 0.156164 
442.000000	 0.153446 
441.000000	 0.150561 
440.000000	 0.147581 
439.000000	 0.144529 
438.000000	 0.141453 
437.000000	 0.138354 
436.000000	 0.135326 
435.000000	 0.132369 
434.000000	 0.129556 
433.000000	 0.126767 
432.000000	 0.124025 
431.000000	 0.121259 
430.000000	 0.118374 
429.000000	 0.115346 
428.000000	 0.112104 
427.000000	 0.108599 
426.000000	 0.104999 
425.000000	 0.101232 
424.000000	 0.097537 
423.000000	 0.093913 
422.000000	 0.090503 
421.000000	 0.087332 
420.000000	 0.084424 
419.000000	 0.081729 
418.000000	 0.079226 
417.000000	 0.076746 
416.000000	 0.074243 
415.000000	 0.071692 
414.000000	 0.069069 
413.000000	 0.066423 
412.000000	 0.063800 
411.000000	 0.061249 
410.000000	 0.058865 
409.000000	 0.056576 
408.000000	 0.054359 
407.000000	 0.052213 
406.000000	 0.050067 
405.000000	 0.047826 
404.000000	 0.045561 
403.000000	 0.043225 
402.000000	 0.040984 
401.000000	 0.038814 
400.000000	 0.036811 
399.000000	 0.035095 
398.000000	 0.033593 
397.000000	 0.032305 
396.000000	 0.031137 
395.000000	 0.030040 
394.000000	 0.028991 
393.000000	 0.027918 
392.000000	 0.026798 
391.000000	 0.025653 
390.000000	 0.024533 
389.000000	 0.023436 
388.000000	 0.022363 
387.000000	 0.021362 
386.000000	 0.020408 
385.000000	 0.019454 
384.000000	 0.018477 
383.000000	 0.017452 
382.000000	 0.016450 
381.000000	 0.015449 
380.000000	 0.014448 
379.000000	 0.013518 
378.000000	 0.012660 
377.000000	 0.011897 
376.000000	 0.011229 
375.000000	 0.010633 
374.000000	 0.010108 
373.000000	 0.009608 
372.000000	 0.009107 
371.000000	 0.008654 
370.000000	 0.008201 

