PE IR       SPECTRUM    SPECTRUM    ASCII       PEDS        1.60        
  -1
LPE453~1.ASC
17/05/16
14:22:06.00
17/05/16
14:22:06.00
tln
$LPE453_e0122$<ebV0>[-23.3,12.1,10.0,0.0,27,1,0]
370.000000
64









2002,4.07    
MIRTGS : RIGHTBACK : INTERNAL 2
MIR : ON : INTERNAL 2
OPTKBR

0.200000
8
8.000000
FILLER
SINGLE
SPECTRUM
UNLOCKED 256

DOUBLE

COMBINED
1
0
0


1.000000
BACKG


1
0
TRUE
51149
0
LEFT NOT FITTED RIGHT NOT FITTED 0
NONE
NONE
15600
12.000000
4.427000
51148
TRUE
1 0 8 72 0 0 0 0 

15798.010000






#HDR
-1
-1
#GR
CM-1
EGY
0.00002384185791015625
0.0
5000.000000
-1.000000
4631
8
2.391576
0.011110
#DATA
5000.000000	0.749111 
4999.000000	0.750374 
4998.000000	0.751495 
4997.000000	0.752425 
4996.000000	0.753140 
4995.000000	0.753641 
4994.000000	0.753951 
4993.000000	0.754070 
4992.000000	0.754070 
4991.000000	0.753998 
4990.000000	0.753855 
4989.000000	0.753712 
4988.000000	0.753617 
4987.000000	0.753593 
4986.000000	0.753641 
4985.000000	0.753831 
4984.000000	0.754094 
4983.000000	0.754523 
4982.000000	0.755023 
4981.000000	0.755596 
4980.000000	0.756192 
4979.000000	0.756812 
4978.000000	0.757408 
4977.000000	0.757980 
4976.000000	0.758504 
4975.000000	0.759053 
4974.000000	0.759553 
4973.000000	0.760054 
4972.000000	0.760602 
4971.000000	0.761127 
4970.000000	0.761699 
4969.000000	0.762295 
4968.000000	0.762820 
4967.000000	0.763273 
4966.000000	0.763535 
4965.000000	0.763678 
4964.000000	0.763678 
4963.000000	0.763535 
4962.000000	0.763368 
4961.000000	0.763320 
4960.000000	0.763487 
4959.000000	0.763916 
4958.000000	0.764632 
4957.000000	0.765514 
4956.000000	0.766420 
4955.000000	0.767111 
4954.000000	0.767397 
4953.000000	0.767135 
4952.000000	0.766229 
4951.000000	0.764799 
4950.000000	0.763010 
4949.000000	0.761127 
4948.000000	0.759387 
4947.000000	0.758004 
4946.000000	0.757098 
4945.000000	0.756716 
4944.000000	0.756812 
4943.000000	0.757312 
4942.000000	0.758123 
4941.000000	0.759053 
4940.000000	0.760102 
4939.000000	0.761198 
4938.000000	0.762319 
4937.000000	0.763368 
4936.000000	0.764298 
4935.000000	0.765085 
4934.000000	0.765633 
4933.000000	0.765919 
4932.000000	0.765943 
4931.000000	0.765728 
4930.000000	0.765347 
4929.000000	0.764846 
4928.000000	0.764346 
4927.000000	0.763869 
4926.000000	0.763511 
4925.000000	0.763320 
4924.000000	0.763368 
4923.000000	0.763750 
4922.000000	0.764489 
4921.000000	0.765657 
4920.000000	0.767207 
4919.000000	0.769138 
4918.000000	0.771236 
4917.000000	0.773358 
4916.000000	0.775361 
4915.000000	0.777077 
4914.000000	0.778436 
4913.000000	0.779461 
4912.000000	0.780272 
4911.000000	0.781011 
4910.000000	0.781822 
4909.000000	0.782823 
4908.000000	0.784039 
4907.000000	0.785303 
4906.000000	0.786423 
4905.000000	0.787138 
4904.000000	0.787210 
4903.000000	0.786542 
4902.000000	0.785136 
4901.000000	0.783181 
4900.000000	0.781059 
4899.000000	0.779294 
4898.000000	0.778317 
4897.000000	0.778627 
4896.000000	0.780367 
4895.000000	0.783538 
4894.000000	0.787854 
4893.000000	0.792813 
4892.000000	0.797772 
4891.000000	0.802087 
4890.000000	0.805258 
4889.000000	0.806999 
4888.000000	0.807261 
4887.000000	0.806212 
4886.000000	0.804352 
4885.000000	0.802087 
4884.000000	0.799965 
4883.000000	0.798273 
4882.000000	0.797176 
4881.000000	0.796651 
4880.000000	0.796556 
4879.000000	0.796627 
4878.000000	0.796675 
4877.000000	0.796556 
4876.000000	0.796294 
4875.000000	0.795960 
4874.000000	0.795698 
4873.000000	0.795674 
4872.000000	0.795912 
4871.000000	0.796413 
4870.000000	0.797104 
4869.000000	0.797867 
4868.000000	0.798511 
4867.000000	0.799012 
4866.000000	0.799274 
4865.000000	0.799393 
4864.000000	0.799441 
4863.000000	0.799632 
4862.000000	0.800013 
4861.000000	0.800752 
4860.000000	0.801825 
4859.000000	0.803232 
4858.000000	0.804853 
4857.000000	0.806546 
4856.000000	0.808191 
4855.000000	0.809597 
4854.000000	0.810694 
4853.000000	0.811481 
4852.000000	0.811910 
4851.000000	0.812077 
4850.000000	0.812053 
4849.000000	0.811958 
4848.000000	0.811910 
4847.000000	0.812005 
4846.000000	0.812244 
4845.000000	0.812625 
4844.000000	0.813174 
4843.000000	0.813746 
4842.000000	0.814342 
4841.000000	0.814890 
4840.000000	0.815391 
4839.000000	0.815773 
4838.000000	0.816082 
4837.000000	0.816321 
4836.000000	0.816559 
4835.000000	0.816774 
4834.000000	0.816988 
4833.000000	0.817275 
4832.000000	0.817513 
4831.000000	0.817823 
4830.000000	0.818133 
4829.000000	0.818514 
4828.000000	0.819015 
4827.000000	0.819587 
4826.000000	0.820398 
4825.000000	0.821447 
4824.000000	0.822734 
4823.000000	0.824236 
4822.000000	0.825834 
4821.000000	0.827407 
4820.000000	0.828886 
4819.000000	0.830197 
4818.000000	0.831222 
4817.000000	0.831937 
4816.000000	0.832462 
4815.000000	0.832796 
4814.000000	0.833082 
4813.000000	0.833320 
4812.000000	0.833749 
4811.000000	0.834274 
4810.000000	0.834918 
4809.000000	0.835704 
4808.000000	0.836610 
4807.000000	0.837588 
4806.000000	0.838637 
4805.000000	0.839710 
4804.000000	0.840878 
4803.000000	0.842070 
4802.000000	0.843238 
4801.000000	0.844359 
4800.000000	0.845360 
4799.000000	0.846195 
4798.000000	0.846791 
4797.000000	0.847220 
4796.000000	0.847482 
4795.000000	0.847625 
4794.000000	0.847816 
4793.000000	0.848126 
4792.000000	0.848555 
4791.000000	0.849199 
4790.000000	0.849986 
4789.000000	0.850796 
4788.000000	0.851583 
4787.000000	0.852227 
4786.000000	0.852727 
4785.000000	0.853085 
4784.000000	0.853395 
4783.000000	0.853681 
4782.000000	0.854086 
4781.000000	0.854682 
4780.000000	0.855517 
4779.000000	0.856447 
4778.000000	0.857520 
4777.000000	0.858569 
4776.000000	0.859546 
4775.000000	0.860404 
4774.000000	0.861096 
4773.000000	0.861620 
4772.000000	0.862050 
4771.000000	0.862407 
4770.000000	0.862765 
4769.000000	0.863170 
4768.000000	0.863623 
4767.000000	0.864124 
4766.000000	0.864648 
4765.000000	0.865149 
4764.000000	0.865650 
4763.000000	0.866103 
4762.000000	0.866508 
4761.000000	0.866866 
4760.000000	0.867128 
4759.000000	0.867342 
4758.000000	0.867557 
4757.000000	0.867772 
4756.000000	0.868034 
4755.000000	0.868391 
4754.000000	0.868821 
4753.000000	0.869393 
4752.000000	0.870037 
4751.000000	0.870680 
4750.000000	0.871253 
4749.000000	0.871729 
4748.000000	0.872111 
4747.000000	0.872302 
4746.000000	0.872397 
4745.000000	0.872397 
4744.000000	0.872445 
4743.000000	0.872516 
4742.000000	0.872635 
4741.000000	0.872802 
4740.000000	0.872945 
4739.000000	0.873041 
4738.000000	0.873041 
4737.000000	0.872993 
4736.000000	0.872874 
4735.000000	0.872731 
4734.000000	0.872611 
4733.000000	0.872588 
4732.000000	0.872731 
4731.000000	0.872969 
4730.000000	0.873327 
4729.000000	0.873804 
4728.000000	0.874352 
4727.000000	0.874996 
4726.000000	0.875663 
4725.000000	0.876379 
4724.000000	0.877141 
4723.000000	0.877904 
4722.000000	0.878691 
4721.000000	0.879430 
4720.000000	0.880122 
4719.000000	0.880742 
4718.000000	0.881242 
4717.000000	0.881671 
4716.000000	0.881958 
4715.000000	0.882124 
4714.000000	0.882172 
4713.000000	0.882124 
4712.000000	0.882005 
4711.000000	0.881862 
4710.000000	0.881671 
4709.000000	0.881481 
4708.000000	0.881266 
4707.000000	0.881171 
4706.000000	0.881147 
4705.000000	0.881195 
4704.000000	0.881314 
4703.000000	0.881528 
4702.000000	0.881791 
4701.000000	0.882101 
4700.000000	0.882411 
4699.000000	0.882744 
4698.000000	0.883054 
4697.000000	0.883412 
4696.000000	0.883746 
4695.000000	0.884103 
4694.000000	0.884461 
4693.000000	0.884771 
4692.000000	0.885009 
4691.000000	0.885176 
4690.000000	0.885224 
4689.000000	0.885176 
4688.000000	0.885081 
4687.000000	0.885033 
4686.000000	0.885081 
4685.000000	0.885248 
4684.000000	0.885629 
4683.000000	0.886154 
4682.000000	0.886774 
4681.000000	0.887441 
4680.000000	0.888037 
4679.000000	0.888442 
4678.000000	0.888609 
4677.000000	0.888514 
4676.000000	0.888133 
4675.000000	0.887584 
4674.000000	0.886917 
4673.000000	0.886201 
4672.000000	0.885534 
4671.000000	0.884962 
4670.000000	0.884532 
4669.000000	0.884318 
4668.000000	0.884222 
4667.000000	0.884246 
4666.000000	0.884413 
4665.000000	0.884628 
4664.000000	0.884914 
4663.000000	0.885248 
4662.000000	0.885558 
4661.000000	0.885796 
4660.000000	0.886058 
4659.000000	0.886297 
4658.000000	0.886535 
4657.000000	0.886821 
4656.000000	0.887203 
4655.000000	0.887632 
4654.000000	0.888085 
4653.000000	0.888538 
4652.000000	0.888943 
4651.000000	0.889229 
4650.000000	0.889301 
4649.000000	0.889205 
4648.000000	0.888991 
4647.000000	0.888657 
4646.000000	0.888371 
4645.000000	0.888180 
4644.000000	0.888109 
4643.000000	0.888252 
4642.000000	0.888538 
4641.000000	0.889015 
4640.000000	0.889587 
4639.000000	0.890278 
4638.000000	0.891017 
4637.000000	0.891757 
4636.000000	0.892496 
4635.000000	0.893235 
4634.000000	0.893878 
4633.000000	0.894403 
4632.000000	0.894737 
4631.000000	0.894880 
4630.000000	0.894832 
4629.000000	0.894594 
4628.000000	0.894260 
4627.000000	0.893878 
4626.000000	0.893616 
4625.000000	0.893473 
4624.000000	0.893521 
4623.000000	0.893831 
4622.000000	0.894284 
4621.000000	0.894856 
4620.000000	0.895500 
4619.000000	0.896143 
4618.000000	0.896763 
4617.000000	0.897264 
4616.000000	0.897717 
4615.000000	0.898122 
4614.000000	0.898504 
4613.000000	0.898909 
4612.000000	0.899314 
4611.000000	0.899791 
4610.000000	0.900340 
4609.000000	0.900936 
4608.000000	0.901603 
4607.000000	0.902318 
4606.000000	0.902986 
4605.000000	0.903654 
4604.000000	0.904250 
4603.000000	0.904798 
4602.000000	0.905251 
4601.000000	0.905656 
4600.000000	0.906014 
4599.000000	0.906348 
4598.000000	0.906682 
4597.000000	0.907039 
4596.000000	0.907444 
4595.000000	0.907897 
4594.000000	0.908398 
4593.000000	0.908946 
4592.000000	0.909590 
4591.000000	0.910282 
4590.000000	0.910997 
4589.000000	0.911784 
4588.000000	0.912570 
4587.000000	0.913357 
4586.000000	0.914120 
4585.000000	0.914883 
4584.000000	0.915622 
4583.000000	0.916409 
4582.000000	0.917220 
4581.000000	0.918054 
4580.000000	0.918889 
4579.000000	0.919723 
4578.000000	0.920557 
4577.000000	0.921344 
4576.000000	0.922036 
4575.000000	0.922632 
4574.000000	0.923109 
4573.000000	0.923466 
4572.000000	0.923705 
4571.000000	0.923824 
4570.000000	0.923848 
4569.000000	0.923848 
4568.000000	0.923824 
4567.000000	0.923776 
4566.000000	0.923776 
4565.000000	0.923871 
4564.000000	0.924086 
4563.000000	0.924468 
4562.000000	0.925064 
4561.000000	0.925803 
4560.000000	0.926685 
4559.000000	0.927710 
4558.000000	0.928831 
4557.000000	0.930047 
4556.000000	0.931239 
4555.000000	0.932383 
4554.000000	0.933456 
4553.000000	0.934386 
4552.000000	0.935125 
4551.000000	0.935649 
4550.000000	0.935983 
4549.000000	0.936102 
4548.000000	0.936079 
4547.000000	0.936079 
4546.000000	0.936079 
4545.000000	0.936198 
4544.000000	0.936555 
4543.000000	0.937128 
4542.000000	0.937891 
4541.000000	0.938701 
4540.000000	0.939559 
4539.000000	0.940346 
4538.000000	0.941014 
4537.000000	0.941538 
4536.000000	0.941944 
4535.000000	0.942277 
4534.000000	0.942564 
4533.000000	0.942802 
4532.000000	0.943136 
4531.000000	0.943517 
4530.000000	0.943994 
4529.000000	0.944566 
4528.000000	0.945186 
4527.000000	0.945925 
4526.000000	0.946760 
4525.000000	0.947642 
4524.000000	0.948596 
4523.000000	0.949525 
4522.000000	0.950431 
4521.000000	0.951242 
4520.000000	0.951886 
4519.000000	0.952410 
4518.000000	0.952887 
4517.000000	0.953340 
4516.000000	0.953841 
4515.000000	0.954508 
4514.000000	0.955390 
4513.000000	0.956416 
4512.000000	0.957584 
4511.000000	0.958847 
4510.000000	0.960063 
4509.000000	0.961184 
4508.000000	0.962114 
4507.000000	0.962734 
4506.000000	0.963115 
4505.000000	0.963234 
4504.000000	0.963139 
4503.000000	0.962924 
4502.000000	0.962615 
4501.000000	0.962281 
4500.000000	0.961995 
4499.000000	0.961804 
4498.000000	0.961732 
4497.000000	0.961828 
4496.000000	0.962233 
4495.000000	0.962972 
4494.000000	0.964140 
4493.000000	0.965690 
4492.000000	0.967621 
4491.000000	0.969791 
4490.000000	0.971984 
4489.000000	0.973892 
4488.000000	0.975298 
4487.000000	0.976061 
4486.000000	0.976085 
4485.000000	0.975465 
4484.000000	0.974416 
4483.000000	0.973176 
4482.000000	0.972008 
4481.000000	0.971055 
4480.000000	0.970458 
4479.000000	0.970172 
4478.000000	0.970053 
4477.000000	0.970053 
4476.000000	0.970005 
4475.000000	0.969839 
4474.000000	0.969481 
4473.000000	0.968980 
4472.000000	0.968217 
4471.000000	0.967240 
4470.000000	0.966119 
4469.000000	0.964903 
4468.000000	0.963902 
4467.000000	0.963521 
4466.000000	0.964450 
4465.000000	0.967407 
4464.000000	0.973153 
4463.000000	0.982117 
4462.000000	0.994563 
4461.000000	1.010036 
4460.000000	1.027703 
4459.000000	1.046395 
4458.000000	1.064777 
4457.000000	1.081490 
4456.000000	1.095533 
4455.000000	1.106357 
4454.000000	1.113939 
4453.000000	1.118636 
4452.000000	1.121139 
4451.000000	1.122212 
4450.000000	1.122379 
4449.000000	1.121997 
4448.000000	1.120901 
4447.000000	1.118683 
4446.000000	1.114702 
4445.000000	1.108360 
4444.000000	1.099276 
4443.000000	1.087570 
4442.000000	1.073694 
4441.000000	1.058578 
4440.000000	1.043343 
4439.000000	1.029181 
4438.000000	1.016974 
4437.000000	1.007294 
4436.000000	1.000213 
4435.000000	0.995469 
4434.000000	0.992393 
4433.000000	0.990390 
4432.000000	0.988769 
4431.000000	0.987243 
4430.000000	0.985598 
4429.000000	0.983881 
4428.000000	0.982284 
4427.000000	0.980997 
4426.000000	0.979995 
4425.000000	0.979232 
4424.000000	0.978589 
4423.000000	0.977921 
4422.000000	0.977110 
4421.000000	0.976157 
4420.000000	0.975131 
4419.000000	0.974202 
4418.000000	0.973606 
4417.000000	0.973463 
4416.000000	0.973844 
4415.000000	0.974726 
4414.000000	0.975990 
4413.000000	0.977468 
4412.000000	0.978946 
4411.000000	0.980210 
4410.000000	0.981259 
4409.000000	0.982022 
4408.000000	0.982546 
4407.000000	0.982975 
4406.000000	0.983357 
4405.000000	0.983834 
4404.000000	0.984406 
4403.000000	0.985097 
4402.000000	0.985884 
4401.000000	0.986671 
4400.000000	0.987386 
4399.000000	0.987958 
4398.000000	0.988292 
4397.000000	0.988364 
4396.000000	0.988221 
4395.000000	0.987911 
4394.000000	0.987601 
4393.000000	0.987410 
4392.000000	0.987410 
4391.000000	0.987648 
4390.000000	0.988221 
4389.000000	0.989055 
4388.000000	0.990104 
4387.000000	0.991249 
4386.000000	0.992417 
4385.000000	0.993514 
4384.000000	0.994467 
4383.000000	0.995302 
4382.000000	0.995969 
4381.000000	0.996565 
4380.000000	0.997090 
4379.000000	0.997638 
4378.000000	0.998139 
4377.000000	0.998711 
4376.000000	0.999283 
4375.000000	0.999855 
4374.000000	1.000380 
4373.000000	1.000857 
4372.000000	1.001310 
4371.000000	1.001691 
4370.000000	1.002097 
4369.000000	1.002478 
4368.000000	1.002860 
4367.000000	1.003289 
4366.000000	1.003813 
4365.000000	1.004362 
4364.000000	1.004981 
4363.000000	1.005649 
4362.000000	1.006412 
4361.000000	1.007199 
4360.000000	1.008057 
4359.000000	1.008939 
4358.000000	1.009917 
4357.000000	1.010918 
4356.000000	1.012015 
4355.000000	1.013183 
4354.000000	1.014447 
4353.000000	1.015710 
4352.000000	1.017069 
4351.000000	1.018476 
4350.000000	1.019906 
4349.000000	1.021361 
4348.000000	1.022791 
4347.000000	1.024246 
4346.000000	1.025676 
4345.000000	1.027083 
4344.000000	1.028490 
4343.000000	1.029872 
4342.000000	1.031255 
4341.000000	1.032567 
4340.000000	1.033878 
4339.000000	1.035070 
4338.000000	1.036190 
4337.000000	1.037168 
4336.000000	1.038074 
4335.000000	1.038861 
4334.000000	1.039528 
4333.000000	1.040124 
4332.000000	1.040744 
4331.000000	1.041364 
4330.000000	1.042079 
4329.000000	1.042890 
4328.000000	1.043844 
4327.000000	1.044964 
4326.000000	1.046204 
4325.000000	1.047587 
4324.000000	1.049041 
4323.000000	1.050615 
4322.000000	1.052212 
4321.000000	1.053857 
4320.000000	1.055550 
4319.000000	1.057195 
4318.000000	1.058864 
4317.000000	1.060461 
4316.000000	1.061964 
4315.000000	1.063394 
4314.000000	1.064753 
4313.000000	1.066040 
4312.000000	1.067256 
4311.000000	1.068472 
4310.000000	1.069641 
4309.000000	1.070809 
4308.000000	1.071977 
4307.000000	1.073145 
4306.000000	1.074266 
4305.000000	1.075267 
4304.000000	1.076197 
4303.000000	1.077055 
4302.000000	1.077866 
4301.000000	1.078653 
4300.000000	1.079463 
4299.000000	1.080346 
4298.000000	1.081347 
4297.000000	1.082515 
4296.000000	1.083898 
4295.000000	1.085400 
4294.000000	1.087021 
4293.000000	1.088714 
4292.000000	1.090407 
4291.000000	1.092028 
4290.000000	1.093554 
4289.000000	1.094937 
4288.000000	1.096177 
4287.000000	1.097321 
4286.000000	1.098394 
4285.000000	1.099419 
4284.000000	1.100468 
4283.000000	1.101589 
4282.000000	1.102805 
4281.000000	1.104068 
4280.000000	1.105403 
4279.000000	1.106810 
4278.000000	1.108217 
4277.000000	1.109600 
4276.000000	1.110982 
4275.000000	1.112294 
4274.000000	1.113486 
4273.000000	1.114630 
4272.000000	1.115560 
4271.000000	1.116442 
4270.000000	1.117205 
4269.000000	1.117873 
4268.000000	1.118564 
4267.000000	1.119232 
4266.000000	1.119995 
4265.000000	1.120805 
4264.000000	1.121735 
4263.000000	1.122713 
4262.000000	1.123738 
4261.000000	1.124763 
4260.000000	1.125693 
4259.000000	1.126503 
4258.000000	1.127123 
4257.000000	1.127648 
4256.000000	1.128077 
4255.000000	1.128411 
4254.000000	1.128745 
4253.000000	1.129102 
4252.000000	1.129508 
4251.000000	1.130032 
4250.000000	1.130676 
4249.000000	1.131415 
4248.000000	1.132297 
4247.000000	1.133298 
4246.000000	1.134395 
4245.000000	1.135563 
4244.000000	1.136779 
4243.000000	1.138067 
4242.000000	1.139330 
4241.000000	1.140594 
4240.000000	1.141762 
4239.000000	1.142859 
4238.000000	1.143884 
4237.000000	1.144814 
4236.000000	1.145672 
4235.000000	1.146578 
4234.000000	1.147437 
4233.000000	1.148271 
4232.000000	1.149129 
4231.000000	1.149988 
4230.000000	1.150822 
4229.000000	1.151657 
4228.000000	1.152467 
4227.000000	1.153206 
4226.000000	1.153898 
4225.000000	1.154470 
4224.000000	1.154923 
4223.000000	1.155257 
4222.000000	1.155471 
4221.000000	1.155591 
4220.000000	1.155638 
4219.000000	1.155686 
4218.000000	1.155757 
4217.000000	1.155972 
4216.000000	1.156353 
4215.000000	1.156926 
4214.000000	1.157712 
4213.000000	1.158690 
4212.000000	1.159787 
4211.000000	1.160979 
4210.000000	1.162171 
4209.000000	1.163268 
4208.000000	1.164245 
4207.000000	1.165103 
4206.000000	1.165747 
4205.000000	1.166248 
4204.000000	1.166629 
4203.000000	1.166844 
4202.000000	1.166963 
4201.000000	1.166987 
4200.000000	1.166963 
4199.000000	1.166892 
4198.000000	1.166820 
4197.000000	1.166772 
4196.000000	1.166772 
4195.000000	1.166796 
4194.000000	1.167011 
4193.000000	1.167345 
4192.000000	1.167845 
4191.000000	1.168537 
4190.000000	1.169300 
4189.000000	1.170158 
4188.000000	1.171088 
4187.000000	1.171994 
4186.000000	1.172900 
4185.000000	1.173734 
4184.000000	1.174592 
4183.000000	1.175427 
4182.000000	1.176214 
4181.000000	1.177024 
4180.000000	1.177811 
4179.000000	1.178526 
4178.000000	1.179194 
4177.000000	1.179814 
4176.000000	1.180338 
4175.000000	1.180744 
4174.000000	1.181054 
4173.000000	1.181244 
4172.000000	1.181364 
4171.000000	1.181411 
4170.000000	1.181387 
4169.000000	1.181316 
4168.000000	1.181268 
4167.000000	1.181268 
4166.000000	1.181411 
4165.000000	1.181745 
4164.000000	1.182246 
4163.000000	1.182937 
4162.000000	1.183748 
4161.000000	1.184654 
4160.000000	1.185536 
4159.000000	1.186370 
4158.000000	1.187086 
4157.000000	1.187658 
4156.000000	1.188182 
4155.000000	1.188611 
4154.000000	1.188993 
4153.000000	1.189422 
4152.000000	1.189851 
4151.000000	1.190304 
4150.000000	1.190805 
4149.000000	1.191282 
4148.000000	1.191759 
4147.000000	1.192235 
4146.000000	1.192712 
4145.000000	1.193284 
4144.000000	1.193928 
4143.000000	1.194691 
4142.000000	1.195573 
4141.000000	1.196551 
4140.000000	1.197648 
4139.000000	1.198792 
4138.000000	1.199889 
4137.000000	1.201009 
4136.000000	1.202034 
4135.000000	1.203036 
4134.000000	1.203942 
4133.000000	1.204752 
4132.000000	1.205492 
4131.000000	1.206159 
4130.000000	1.206803 
4129.000000	1.207375 
4128.000000	1.207923 
4127.000000	1.208472 
4126.000000	1.209020 
4125.000000	1.209664 
4124.000000	1.210331 
4123.000000	1.211094 
4122.000000	1.211953 
4121.000000	1.212906 
4120.000000	1.213955 
4119.000000	1.215052 
4118.000000	1.216173 
4117.000000	1.217293 
4116.000000	1.218342 
4115.000000	1.219344 
4114.000000	1.220202 
4113.000000	1.220989 
4112.000000	1.221728 
4111.000000	1.222467 
4110.000000	1.223134 
4109.000000	1.223874 
4108.000000	1.224637 
4107.000000	1.225519 
4106.000000	1.226401 
4105.000000	1.227378 
4104.000000	1.228427 
4103.000000	1.229524 
4102.000000	1.230621 
4101.000000	1.231765 
4100.000000	1.232910 
4099.000000	1.234006 
4098.000000	1.235032 
4097.000000	1.236009 
4096.000000	1.236939 
4095.000000	1.237845 
4094.000000	1.238799 
4093.000000	1.239848 
4092.000000	1.240992 
4091.000000	1.242256 
4090.000000	1.243662 
4089.000000	1.245188 
4088.000000	1.246714 
4087.000000	1.248240 
4086.000000	1.249623 
4085.000000	1.250886 
4084.000000	1.252007 
4083.000000	1.252961 
4082.000000	1.253914 
4081.000000	1.254844 
4080.000000	1.255869 
4079.000000	1.257061 
4078.000000	1.258397 
4077.000000	1.259922 
4076.000000	1.261591 
4075.000000	1.263380 
4074.000000	1.265263 
4073.000000	1.267123 
4072.000000	1.268982 
4071.000000	1.270771 
4070.000000	1.272535 
4069.000000	1.274204 
4068.000000	1.275801 
4067.000000	1.277232 
4066.000000	1.278495 
4065.000000	1.279640 
4064.000000	1.280641 
4063.000000	1.281595 
4062.000000	1.282501 
4061.000000	1.283454 
4060.000000	1.284432 
4059.000000	1.285505 
4058.000000	1.286649 
4057.000000	1.287865 
4056.000000	1.289057 
4055.000000	1.290225 
4054.000000	1.291370 
4053.000000	1.292467 
4052.000000	1.293563 
4051.000000	1.294636 
4050.000000	1.295733 
4049.000000	1.296854 
4048.000000	1.298069 
4047.000000	1.299309 
4046.000000	1.300644 
4045.000000	1.302027 
4044.000000	1.303505 
4043.000000	1.305055 
4042.000000	1.306724 
4041.000000	1.308465 
4040.000000	1.310229 
4039.000000	1.311969 
4038.000000	1.313591 
4037.000000	1.315021 
4036.000000	1.316213 
4035.000000	1.317119 
4034.000000	1.317763 
4033.000000	1.318264 
4032.000000	1.318740 
4031.000000	1.319217 
4030.000000	1.319885 
4029.000000	1.320743 
4028.000000	1.321911 
4027.000000	1.323175 
4026.000000	1.324582 
4025.000000	1.325988 
4024.000000	1.327371 
4023.000000	1.328635 
4022.000000	1.329827 
4021.000000	1.330852 
4020.000000	1.331830 
4019.000000	1.332736 
4018.000000	1.333618 
4017.000000	1.334500 
4016.000000	1.335430 
4015.000000	1.336336 
4014.000000	1.337265 
4013.000000	1.338243 
4012.000000	1.339244 
4011.000000	1.340293 
4010.000000	1.341319 
4009.000000	1.342296 
4008.000000	1.343226 
4007.000000	1.344108 
4006.000000	1.344847 
4005.000000	1.345419 
4004.000000	1.345849 
4003.000000	1.346206 
4002.000000	1.346492 
4001.000000	1.346802 
4000.000000	1.347184 
3999.000000	1.347661 
3998.000000	1.348280 
3997.000000	1.349067 
3996.000000	1.350021 
3995.000000	1.351118 
3994.000000	1.352286 
3993.000000	1.353502 
3992.000000	1.354765 
3991.000000	1.355957 
3990.000000	1.357030 
3989.000000	1.357960 
3988.000000	1.358747 
3987.000000	1.359343 
3986.000000	1.359844 
3985.000000	1.360273 
3984.000000	1.360678 
3983.000000	1.361179 
3982.000000	1.361751 
3981.000000	1.362466 
3980.000000	1.363325 
3979.000000	1.364278 
3978.000000	1.365280 
3977.000000	1.366305 
3976.000000	1.367259 
3975.000000	1.368141 
3974.000000	1.368880 
3973.000000	1.369524 
3972.000000	1.370048 
3971.000000	1.370477 
3970.000000	1.370787 
3969.000000	1.371121 
3968.000000	1.371383 
3967.000000	1.371669 
3966.000000	1.371932 
3965.000000	1.372289 
3964.000000	1.372742 
3963.000000	1.373243 
3962.000000	1.373839 
3961.000000	1.374459 
3960.000000	1.375031 
3959.000000	1.375484 
3958.000000	1.375794 
3957.000000	1.375985 
3956.000000	1.376008 
3955.000000	1.376032 
3954.000000	1.376104 
3953.000000	1.376342 
3952.000000	1.376843 
3951.000000	1.377582 
3950.000000	1.378583 
3949.000000	1.379728 
3948.000000	1.380896 
3947.000000	1.381969 
3946.000000	1.382875 
3945.000000	1.383566 
3944.000000	1.383996 
3943.000000	1.384186 
3942.000000	1.384210 
3941.000000	1.384091 
3940.000000	1.383924 
3939.000000	1.383757 
3938.000000	1.383590 
3937.000000	1.383471 
3936.000000	1.383423 
3935.000000	1.383447 
3934.000000	1.383519 
3933.000000	1.383638 
3932.000000	1.383757 
3931.000000	1.383852 
3930.000000	1.383900 
3929.000000	1.383924 
3928.000000	1.383948 
3927.000000	1.383948 
3926.000000	1.383972 
3925.000000	1.384091 
3924.000000	1.384329 
3923.000000	1.384687 
3922.000000	1.385116 
3921.000000	1.385617 
3920.000000	1.386165 
3919.000000	1.386785 
3918.000000	1.387429 
3917.000000	1.388072 
3916.000000	1.388716 
3915.000000	1.389336 
3914.000000	1.389861 
3913.000000	1.390218 
3912.000000	1.390337 
3911.000000	1.390123 
3910.000000	1.389575 
3909.000000	1.388716 
3908.000000	1.387596 
3907.000000	1.386380 
3906.000000	1.385283 
3905.000000	1.384472 
3904.000000	1.384043 
3903.000000	1.384115 
3902.000000	1.384687 
3901.000000	1.385688 
3900.000000	1.386976 
3899.000000	1.388359 
3898.000000	1.389718 
3897.000000	1.390910 
3896.000000	1.391792 
3895.000000	1.392412 
3894.000000	1.392674 
3893.000000	1.392722 
3892.000000	1.392650 
3891.000000	1.392507 
3890.000000	1.392388 
3889.000000	1.392292 
3888.000000	1.392292 
3887.000000	1.392388 
3886.000000	1.392626 
3885.000000	1.392984 
3884.000000	1.393532 
3883.000000	1.394271 
3882.000000	1.395153 
3881.000000	1.396155 
3880.000000	1.397204 
3879.000000	1.398134 
3878.000000	1.398897 
3877.000000	1.399397 
3876.000000	1.399564 
3875.000000	1.399469 
3874.000000	1.399135 
3873.000000	1.398754 
3872.000000	1.398468 
3871.000000	1.398348 
3870.000000	1.398587 
3869.000000	1.399230 
3868.000000	1.400303 
3867.000000	1.401805 
3866.000000	1.403570 
3865.000000	1.405405 
3864.000000	1.407027 
3863.000000	1.408219 
3862.000000	1.408648 
3861.000000	1.408147 
3860.000000	1.406669 
3859.000000	1.404309 
3858.000000	1.401448 
3857.000000	1.398515 
3856.000000	1.396083 
3855.000000	1.394677 
3854.000000	1.394724 
3853.000000	1.396417 
3852.000000	1.399636 
3851.000000	1.404023 
3850.000000	1.409077 
3849.000000	1.414132 
3848.000000	1.418614 
3847.000000	1.421976 
3846.000000	1.423978 
3845.000000	1.424574 
3844.000000	1.423954 
3843.000000	1.422452 
3842.000000	1.420545 
3841.000000	1.418614 
3840.000000	1.417183 
3839.000000	1.416468 
3838.000000	1.416730 
3837.000000	1.418018 
3836.000000	1.420211 
3835.000000	1.423192 
3834.000000	1.426649 
3833.000000	1.430368 
3832.000000	1.434063 
3831.000000	1.437449 
3830.000000	1.440310 
3829.000000	1.442551 
3828.000000	1.444101 
3827.000000	1.444959 
3826.000000	1.445198 
3825.000000	1.444935 
3824.000000	1.444339 
3823.000000	1.443552 
3822.000000	1.442813 
3821.000000	1.442289 
3820.000000	1.442170 
3819.000000	1.442575 
3818.000000	1.443600 
3817.000000	1.445198 
3816.000000	1.447200 
3815.000000	1.449489 
3814.000000	1.451849 
3813.000000	1.453995 
3812.000000	1.455831 
3811.000000	1.457166 
3810.000000	1.458001 
3809.000000	1.458406 
3808.000000	1.458454 
3807.000000	1.458358 
3806.000000	1.458287 
3805.000000	1.458430 
3804.000000	1.458954 
3803.000000	1.459980 
3802.000000	1.461553 
3801.000000	1.463651 
3800.000000	1.466202 
3799.000000	1.469111 
3798.000000	1.472163 
3797.000000	1.475238 
3796.000000	1.478195 
3795.000000	1.480865 
3794.000000	1.483225 
3793.000000	1.485276 
3792.000000	1.487016 
3791.000000	1.488471 
3790.000000	1.489758 
3789.000000	1.490879 
3788.000000	1.491880 
3787.000000	1.492834 
3786.000000	1.493692 
3785.000000	1.494455 
3784.000000	1.495194 
3783.000000	1.495933 
3782.000000	1.496720 
3781.000000	1.497530 
3780.000000	1.498484 
3779.000000	1.499462 
3778.000000	1.500511 
3777.000000	1.501488 
3776.000000	1.502346 
3775.000000	1.503086 
3774.000000	1.503658 
3773.000000	1.504111 
3772.000000	1.504516 
3771.000000	1.504898 
3770.000000	1.505327 
3769.000000	1.505851 
3768.000000	1.506471 
3767.000000	1.507210 
3766.000000	1.507973 
3765.000000	1.508712 
3764.000000	1.509380 
3763.000000	1.509904 
3762.000000	1.510167 
3761.000000	1.510071 
3760.000000	1.509594 
3759.000000	1.508593 
3758.000000	1.507019 
3757.000000	1.504874 
3756.000000	1.502203 
3755.000000	1.499104 
3754.000000	1.495766 
3753.000000	1.492357 
3752.000000	1.489162 
3751.000000	1.486420 
3750.000000	1.484251 
3749.000000	1.482939 
3748.000000	1.482486 
3747.000000	1.482963 
3746.000000	1.484370 
3745.000000	1.486515 
3744.000000	1.489233 
3743.000000	1.492261 
3742.000000	1.495337 
3741.000000	1.498198 
3740.000000	1.500630 
3739.000000	1.502609 
3738.000000	1.504182 
3737.000000	1.505398 
3736.000000	1.506590 
3735.000000	1.507902 
3734.000000	1.509547 
3733.000000	1.511573 
3732.000000	1.513886 
3731.000000	1.516437 
3730.000000	1.519012 
3729.000000	1.521420 
3728.000000	1.523494 
3727.000000	1.525211 
3726.000000	1.526570 
3725.000000	1.527619 
3724.000000	1.528477 
3723.000000	1.529169 
3722.000000	1.529717 
3721.000000	1.530051 
3720.000000	1.530170 
3719.000000	1.529955 
3718.000000	1.529431 
3717.000000	1.528549 
3716.000000	1.527428 
3715.000000	1.526284 
3714.000000	1.525330 
3713.000000	1.524710 
3712.000000	1.524615 
3711.000000	1.525092 
3710.000000	1.526117 
3709.000000	1.527547 
3708.000000	1.529121 
3707.000000	1.530694 
3706.000000	1.532053 
3705.000000	1.533079 
3704.000000	1.533794 
3703.000000	1.534175 
3702.000000	1.534342 
3701.000000	1.534414 
3700.000000	1.534414 
3699.000000	1.534366 
3698.000000	1.534128 
3697.000000	1.533603 
3696.000000	1.532697 
3695.000000	1.531362 
3694.000000	1.529574 
3693.000000	1.527523 
3692.000000	1.525449 
3691.000000	1.523709 
3690.000000	1.522493 
3689.000000	1.522016 
3688.000000	1.522302 
3687.000000	1.523280 
3686.000000	1.524710 
3685.000000	1.526165 
3684.000000	1.527333 
3683.000000	1.527833 
3682.000000	1.527476 
3681.000000	1.526212 
3680.000000	1.524114 
3679.000000	1.521396 
3678.000000	1.518416 
3677.000000	1.515507 
3676.000000	1.513028 
3675.000000	1.511240 
3674.000000	1.510405 
3673.000000	1.510572 
3672.000000	1.511788 
3671.000000	1.513934 
3670.000000	1.516771 
3669.000000	1.520085 
3668.000000	1.523542 
3667.000000	1.526880 
3666.000000	1.529788 
3665.000000	1.532101 
3664.000000	1.533675 
3663.000000	1.534533 
3662.000000	1.534748 
3661.000000	1.534438 
3660.000000	1.533699 
3659.000000	1.532721 
3658.000000	1.531505 
3657.000000	1.530146 
3656.000000	1.528620 
3655.000000	1.526904 
3654.000000	1.525044 
3653.000000	1.523208 
3652.000000	1.521563 
3651.000000	1.520371 
3650.000000	1.519799 
3649.000000	1.519989 
3648.000000	1.521015 
3647.000000	1.522827 
3646.000000	1.525235 
3645.000000	1.527976 
3644.000000	1.530814 
3643.000000	1.533484 
3642.000000	1.535868 
3641.000000	1.537871 
3640.000000	1.539421 
3639.000000	1.540446 
3638.000000	1.540946 
3637.000000	1.540923 
3636.000000	1.540327 
3635.000000	1.539206 
3634.000000	1.537609 
3633.000000	1.535749 
3632.000000	1.533842 
3631.000000	1.532244 
3630.000000	1.531195 
3629.000000	1.530838 
3628.000000	1.531195 
3627.000000	1.532196 
3626.000000	1.533579 
3625.000000	1.535058 
3624.000000	1.536369 
3623.000000	1.537275 
3622.000000	1.537704 
3621.000000	1.537632 
3620.000000	1.537203 
3619.000000	1.536583 
3618.000000	1.535940 
3617.000000	1.535391 
3616.000000	1.535034 
3615.000000	1.534914 
3614.000000	1.535034 
3613.000000	1.535415 
3612.000000	1.536035 
3611.000000	1.536941 
3610.000000	1.538085 
3609.000000	1.539516 
3608.000000	1.541113 
3607.000000	1.542854 
3606.000000	1.544594 
3605.000000	1.546216 
3604.000000	1.547598 
3603.000000	1.548671 
3602.000000	1.549458 
3601.000000	1.549935 
3600.000000	1.550126 
3599.000000	1.550126 
3598.000000	1.550030 
3597.000000	1.549863 
3596.000000	1.549625 
3595.000000	1.549339 
3594.000000	1.549029 
3593.000000	1.548647 
3592.000000	1.548337 
3591.000000	1.548123 
3590.000000	1.548123 
3589.000000	1.548433 
3588.000000	1.549124 
3587.000000	1.550197 
3586.000000	1.551628 
3585.000000	1.553297 
3584.000000	1.555037 
3583.000000	1.556730 
3582.000000	1.558256 
3581.000000	1.559543 
3580.000000	1.560592 
3579.000000	1.561450 
3578.000000	1.562118 
3577.000000	1.562643 
3576.000000	1.563048 
3575.000000	1.563310 
3574.000000	1.563405 
3573.000000	1.563382 
3572.000000	1.563143 
3571.000000	1.562809 
3570.000000	1.562428 
3569.000000	1.562118 
3568.000000	1.561975 
3567.000000	1.562023 
3566.000000	1.562404 
3565.000000	1.563024 
3564.000000	1.563882 
3563.000000	1.564908 
3562.000000	1.566028 
3561.000000	1.567149 
3560.000000	1.568245 
3559.000000	1.569294 
3558.000000	1.570248 
3557.000000	1.571154 
3556.000000	1.571989 
3555.000000	1.572799 
3554.000000	1.573538 
3553.000000	1.574230 
3552.000000	1.574826 
3551.000000	1.575350 
3550.000000	1.575803 
3549.000000	1.576209 
3548.000000	1.576495 
3547.000000	1.576685 
3546.000000	1.576805 
3545.000000	1.576852 
3544.000000	1.576805 
3543.000000	1.576733 
3542.000000	1.576614 
3541.000000	1.576471 
3540.000000	1.576352 
3539.000000	1.576256 
3538.000000	1.576185 
3537.000000	1.576113 
3536.000000	1.576066 
3535.000000	1.576042 
3534.000000	1.576018 
3533.000000	1.576113 
3532.000000	1.576280 
3531.000000	1.576495 
3530.000000	1.576805 
3529.000000	1.577210 
3528.000000	1.577687 
3527.000000	1.578211 
3526.000000	1.578760 
3525.000000	1.579356 
3524.000000	1.579904 
3523.000000	1.580476 
3522.000000	1.580977 
3521.000000	1.581454 
3520.000000	1.581883 
3519.000000	1.582288 
3518.000000	1.582646 
3517.000000	1.582980 
3516.000000	1.583194 
3515.000000	1.583290 
3514.000000	1.583266 
3513.000000	1.583075 
3512.000000	1.582837 
3511.000000	1.582479 
3510.000000	1.582026 
3509.000000	1.581525 
3508.000000	1.580977 
3507.000000	1.580452 
3506.000000	1.579904 
3505.000000	1.579403 
3504.000000	1.578903 
3503.000000	1.578426 
3502.000000	1.577949 
3501.000000	1.577496 
3500.000000	1.577091 
3499.000000	1.576709 
3498.000000	1.576423 
3497.000000	1.576185 
3496.000000	1.575970 
3495.000000	1.575756 
3494.000000	1.575517 
3493.000000	1.575255 
3492.000000	1.574873 
3491.000000	1.574397 
3490.000000	1.573801 
3489.000000	1.573133 
3488.000000	1.572394 
3487.000000	1.571631 
3486.000000	1.570868 
3485.000000	1.570105 
3484.000000	1.569414 
3483.000000	1.568841 
3482.000000	1.568317 
3481.000000	1.567959 
3480.000000	1.567697 
3479.000000	1.567554 
3478.000000	1.567459 
3477.000000	1.567435 
3476.000000	1.567387 
3475.000000	1.567292 
3474.000000	1.567125 
3473.000000	1.566886 
3472.000000	1.566529 
3471.000000	1.566100 
3470.000000	1.565623 
3469.000000	1.565074 
3468.000000	1.564478 
3467.000000	1.563882 
3466.000000	1.563239 
3465.000000	1.562619 
3464.000000	1.561999 
3463.000000	1.561403 
3462.000000	1.560854 
3461.000000	1.560354 
3460.000000	1.559853 
3459.000000	1.559281 
3458.000000	1.558661 
3457.000000	1.557898 
3456.000000	1.556992 
3455.000000	1.555895 
3454.000000	1.554632 
3453.000000	1.553297 
3452.000000	1.551961 
3451.000000	1.550674 
3450.000000	1.549530 
3449.000000	1.548552 
3448.000000	1.547765 
3447.000000	1.547169 
3446.000000	1.546764 
3445.000000	1.546502 
3444.000000	1.546382 
3443.000000	1.546406 
3442.000000	1.546549 
3441.000000	1.546788 
3440.000000	1.547050 
3439.000000	1.547336 
3438.000000	1.547551 
3437.000000	1.547622 
3436.000000	1.547503 
3435.000000	1.547145 
3434.000000	1.546549 
3433.000000	1.545810 
3432.000000	1.544928 
3431.000000	1.544046 
3430.000000	1.543211 
3429.000000	1.542544 
3428.000000	1.542043 
3427.000000	1.541781 
3426.000000	1.541686 
3425.000000	1.541805 
3424.000000	1.542067 
3423.000000	1.542425 
3422.000000	1.542878 
3421.000000	1.543402 
3420.000000	1.543998 
3419.000000	1.544666 
3418.000000	1.545381 
3417.000000	1.546120 
3416.000000	1.546859 
3415.000000	1.547551 
3414.000000	1.548171 
3413.000000	1.548647 
3412.000000	1.549029 
3411.000000	1.549291 
3410.000000	1.549482 
3409.000000	1.549601 
3408.000000	1.549720 
3407.000000	1.549839 
3406.000000	1.549983 
3405.000000	1.550197 
3404.000000	1.550436 
3403.000000	1.550769 
3402.000000	1.551198 
3401.000000	1.551723 
3400.000000	1.552295 
3399.000000	1.552963 
3398.000000	1.553654 
3397.000000	1.554369 
3396.000000	1.555109 
3395.000000	1.555824 
3394.000000	1.556468 
3393.000000	1.557040 
3392.000000	1.557540 
3391.000000	1.557970 
3390.000000	1.558351 
3389.000000	1.558756 
3388.000000	1.559162 
3387.000000	1.559638 
3386.000000	1.560211 
3385.000000	1.560902 
3384.000000	1.561713 
3383.000000	1.562666 
3382.000000	1.563715 
3381.000000	1.564836 
3380.000000	1.565980 
3379.000000	1.567101 
3378.000000	1.568222 
3377.000000	1.569271 
3376.000000	1.570320 
3375.000000	1.571297 
3374.000000	1.572275 
3373.000000	1.573204 
3372.000000	1.574206 
3371.000000	1.575183 
3370.000000	1.576209 
3369.000000	1.577234 
3368.000000	1.578307 
3367.000000	1.579380 
3366.000000	1.580476 
3365.000000	1.581621 
3364.000000	1.582789 
3363.000000	1.584005 
3362.000000	1.585245 
3361.000000	1.586604 
3360.000000	1.587986 
3359.000000	1.589393 
3358.000000	1.590919 
3357.000000	1.592493 
3356.000000	1.594114 
3355.000000	1.595759 
3354.000000	1.597452 
3353.000000	1.599097 
3352.000000	1.600790 
3351.000000	1.602387 
3350.000000	1.603984 
3349.000000	1.605486 
3348.000000	1.606941 
3347.000000	1.608371 
3346.000000	1.609730 
3345.000000	1.611161 
3344.000000	1.612544 
3343.000000	1.613950 
3342.000000	1.615357 
3341.000000	1.616716 
3340.000000	1.617956 
3339.000000	1.619124 
3338.000000	1.620197 
3337.000000	1.621174 
3336.000000	1.622056 
3335.000000	1.622939 
3334.000000	1.623845 
3333.000000	1.624846 
3332.000000	1.625967 
3331.000000	1.627182 
3330.000000	1.628494 
3329.000000	1.629924 
3328.000000	1.631402 
3327.000000	1.632928 
3326.000000	1.634478 
3325.000000	1.635980 
3324.000000	1.637530 
3323.000000	1.639056 
3322.000000	1.640605 
3321.000000	1.642251 
3320.000000	1.643896 
3319.000000	1.645588 
3318.000000	1.647305 
3317.000000	1.649022 
3316.000000	1.650762 
3315.000000	1.652479 
3314.000000	1.654171 
3313.000000	1.655864 
3312.000000	1.657557 
3311.000000	1.659250 
3310.000000	1.660943 
3309.000000	1.662588 
3308.000000	1.664185 
3307.000000	1.665711 
3306.000000	1.667165 
3305.000000	1.668500 
3304.000000	1.669740 
3303.000000	1.670908 
3302.000000	1.672053 
3301.000000	1.673221 
3300.000000	1.674413 
3299.000000	1.675653 
3298.000000	1.676940 
3297.000000	1.678228 
3296.000000	1.679515 
3295.000000	1.680779 
3294.000000	1.681971 
3293.000000	1.683115 
3292.000000	1.684212 
3291.000000	1.685285 
3290.000000	1.686334 
3289.000000	1.687359 
3288.000000	1.688408 
3287.000000	1.689481 
3286.000000	1.690530 
3285.000000	1.691651 
3284.000000	1.692771 
3283.000000	1.693940 
3282.000000	1.695179 
3281.000000	1.696419 
3280.000000	1.697683 
3279.000000	1.698899 
3278.000000	1.700067 
3277.000000	1.701164 
3276.000000	1.702213 
3275.000000	1.703190 
3274.000000	1.704120 
3273.000000	1.705098 
3272.000000	1.706075 
3271.000000	1.707100 
3270.000000	1.708173 
3269.000000	1.709270 
3268.000000	1.710391 
3267.000000	1.711463 
3266.000000	1.712512 
3265.000000	1.713490 
3264.000000	1.714444 
3263.000000	1.715421 
3262.000000	1.716423 
3261.000000	1.717472 
3260.000000	1.718616 
3259.000000	1.719784 
3258.000000	1.720976 
3257.000000	1.722097 
3256.000000	1.723146 
3255.000000	1.723980 
3254.000000	1.724743 
3253.000000	1.725363 
3252.000000	1.725864 
3251.000000	1.726317 
3250.000000	1.726818 
3249.000000	1.727366 
3248.000000	1.728010 
3247.000000	1.728653 
3246.000000	1.729393 
3245.000000	1.730084 
3244.000000	1.730775 
3243.000000	1.731443 
3242.000000	1.732087 
3241.000000	1.732659 
3240.000000	1.733255 
3239.000000	1.733875 
3238.000000	1.734495 
3237.000000	1.735138 
3236.000000	1.735734 
3235.000000	1.736259 
3234.000000	1.736664 
3233.000000	1.736950 
3232.000000	1.737117 
3231.000000	1.737189 
3230.000000	1.737189 
3229.000000	1.737189 
3228.000000	1.737165 
3227.000000	1.737236 
3226.000000	1.737356 
3225.000000	1.737618 
3224.000000	1.737904 
3223.000000	1.738238 
3222.000000	1.738643 
3221.000000	1.739001 
3220.000000	1.739335 
3219.000000	1.739597 
3218.000000	1.739764 
3217.000000	1.739883 
3216.000000	1.739883 
3215.000000	1.739883 
3214.000000	1.739907 
3213.000000	1.740050 
3212.000000	1.740312 
3211.000000	1.740670 
3210.000000	1.741170 
3209.000000	1.741743 
3208.000000	1.742315 
3207.000000	1.742815 
3206.000000	1.743245 
3205.000000	1.743555 
3204.000000	1.743674 
3203.000000	1.743698 
3202.000000	1.743602 
3201.000000	1.743459 
3200.000000	1.743316 
3199.000000	1.743245 
3198.000000	1.743197 
3197.000000	1.743268 
3196.000000	1.743459 
3195.000000	1.743698 
3194.000000	1.744008 
3193.000000	1.744341 
3192.000000	1.744723 
3191.000000	1.745104 
3190.000000	1.745486 
3189.000000	1.745915 
3188.000000	1.746344 
3187.000000	1.746797 
3186.000000	1.747274 
3185.000000	1.747751 
3184.000000	1.748180 
3183.000000	1.748538 
3182.000000	1.748871 
3181.000000	1.749086 
3180.000000	1.749181 
3179.000000	1.749181 
3178.000000	1.749134 
3177.000000	1.749086 
3176.000000	1.749110 
3175.000000	1.749205 
3174.000000	1.749467 
3173.000000	1.749873 
3172.000000	1.750397 
3171.000000	1.751017 
3170.000000	1.751685 
3169.000000	1.752352 
3168.000000	1.752948 
3167.000000	1.753401 
3166.000000	1.753735 
3165.000000	1.753973 
3164.000000	1.754093 
3163.000000	1.754164 
3162.000000	1.754212 
3161.000000	1.754260 
3160.000000	1.754403 
3159.000000	1.754665 
3158.000000	1.755046 
3157.000000	1.755571 
3156.000000	1.756238 
3155.000000	1.757001 
3154.000000	1.757884 
3153.000000	1.758790 
3152.000000	1.759791 
3151.000000	1.760792 
3150.000000	1.761865 
3149.000000	1.762962 
3148.000000	1.764106 
3147.000000	1.765203 
3146.000000	1.766395 
3145.000000	1.767587 
3144.000000	1.768803 
3143.000000	1.769971 
3142.000000	1.771092 
3141.000000	1.772141 
3140.000000	1.773166 
3139.000000	1.774096 
3138.000000	1.774930 
3137.000000	1.775646 
3136.000000	1.776337 
3135.000000	1.777005 
3134.000000	1.777601 
3133.000000	1.778221 
3132.000000	1.778936 
3131.000000	1.779699 
3130.000000	1.780509 
3129.000000	1.781463 
3128.000000	1.782536 
3127.000000	1.783680 
3126.000000	1.784896 
3125.000000	1.786160 
3124.000000	1.787495 
3123.000000	1.788854 
3122.000000	1.790285 
3121.000000	1.791763 
3120.000000	1.793289 
3119.000000	1.794815 
3118.000000	1.796293 
3117.000000	1.797723 
3116.000000	1.799082 
3115.000000	1.800298 
3114.000000	1.801419 
3113.000000	1.802515 
3112.000000	1.803636 
3111.000000	1.804780 
3110.000000	1.806020 
3109.000000	1.807475 
3108.000000	1.809096 
3107.000000	1.810860 
3106.000000	1.812815 
3105.000000	1.814889 
3104.000000	1.817083 
3103.000000	1.819396 
3102.000000	1.821804 
3101.000000	1.824259 
3100.000000	1.826763 
3099.000000	1.829218 
3098.000000	1.831650 
3097.000000	1.833915 
3096.000000	1.836085 
3095.000000	1.838088 
3094.000000	1.839923 
3093.000000	1.841592 
3092.000000	1.843166 
3091.000000	1.844668 
3090.000000	1.846146 
3089.000000	1.847648 
3088.000000	1.849174 
3087.000000	1.850724 
3086.000000	1.852297 
3085.000000	1.853847 
3084.000000	1.855373 
3083.000000	1.856851 
3082.000000	1.858305 
3081.000000	1.859760 
3080.000000	1.861190 
3079.000000	1.862597 
3078.000000	1.864051 
3077.000000	1.865506 
3076.000000	1.866960 
3075.000000	1.868367 
3074.000000	1.869726 
3073.000000	1.871013 
3072.000000	1.872181 
3071.000000	1.873278 
3070.000000	1.874327 
3069.000000	1.875352 
3068.000000	1.876401 
3067.000000	1.877522 
3066.000000	1.878738 
3065.000000	1.880121 
3064.000000	1.881670 
3063.000000	1.883339 
3062.000000	1.885151 
3061.000000	1.887083 
3060.000000	1.889109 
3059.000000	1.891136 
3058.000000	1.893138 
3057.000000	1.895093 
3056.000000	1.896929 
3055.000000	1.898646 
3054.000000	1.900219 
3053.000000	1.901721 
3052.000000	1.903104 
3051.000000	1.904439 
3050.000000	1.905775 
3049.000000	1.907134 
3048.000000	1.908564 
3047.000000	1.910090 
3046.000000	1.911664 
3045.000000	1.913285 
3044.000000	1.914834 
3043.000000	1.916313 
3042.000000	1.917672 
3041.000000	1.918888 
3040.000000	1.919937 
3039.000000	1.920819 
3038.000000	1.921510 
3037.000000	1.922082 
3036.000000	1.922512 
3035.000000	1.922821 
3034.000000	1.922965 
3033.000000	1.922965 
3032.000000	1.922798 
3031.000000	1.922416 
3030.000000	1.921820 
3029.000000	1.920986 
3028.000000	1.919841 
3027.000000	1.918482 
3026.000000	1.916837 
3025.000000	1.914906 
3024.000000	1.912856 
3023.000000	1.910710 
3022.000000	1.908707 
3021.000000	1.907014 
3020.000000	1.905894 
3019.000000	1.905512 
3018.000000	1.906037 
3017.000000	1.907539 
3016.000000	1.910066 
3015.000000	1.913571 
3014.000000	1.917886 
3013.000000	1.922798 
3012.000000	1.928067 
3011.000000	1.933526 
3010.000000	1.938962 
3009.000000	1.944160 
3008.000000	1.949071 
3007.000000	1.953506 
3006.000000	1.957464 
3005.000000	1.960897 
3004.000000	1.963758 
3003.000000	1.966094 
3002.000000	1.967883 
3001.000000	1.969218 
3000.000000	1.970195 
2999.000000	1.970863 
2998.000000	1.971387 
2997.000000	1.971912 
2996.000000	1.972532 
2995.000000	1.973271 
2994.000000	1.974177 
2993.000000	1.975226 
2992.000000	1.976299 
2991.000000	1.977276 
2990.000000	1.978015 
2989.000000	1.978373 
2988.000000	1.978349 
2987.000000	1.977777 
2986.000000	1.976752 
2985.000000	1.975369 
2984.000000	1.973700 
2983.000000	1.971793 
2982.000000	1.969766 
2981.000000	1.967597 
2980.000000	1.965308 
2979.000000	1.962828 
2978.000000	1.959991 
2977.000000	1.956748 
2976.000000	1.953005 
2975.000000	1.948714 
2974.000000	1.943898 
2973.000000	1.938581 
2972.000000	1.932907 
2971.000000	1.926970 
2970.000000	1.920866 
2969.000000	1.914763 
2968.000000	1.908826 
2967.000000	1.903152 
2966.000000	1.897907 
2965.000000	1.893234 
2964.000000	1.889157 
2963.000000	1.885795 
2962.000000	1.883125 
2961.000000	1.881146 
2960.000000	1.879763 
2959.000000	1.878857 
2958.000000	1.878309 
2957.000000	1.877951 
2956.000000	1.877570 
2955.000000	1.877093 
2954.000000	1.876306 
2953.000000	1.875209 
2952.000000	1.873660 
2951.000000	1.871657 
2950.000000	1.869034 
2949.000000	1.865863 
2948.000000	1.862049 
2947.000000	1.857542 
2946.000000	1.852202 
2945.000000	1.846098 
2944.000000	1.839256 
2943.000000	1.831674 
2942.000000	1.823449 
2941.000000	1.814818 
2940.000000	1.805901 
2939.000000	1.796913 
2938.000000	1.787948 
2937.000000	1.779198 
2936.000000	1.770758 
2935.000000	1.762652 
2934.000000	1.754927 
2933.000000	1.747632 
2932.000000	1.740789 
2931.000000	1.734542 
2930.000000	1.729011 
2929.000000	1.724433 
2928.000000	1.721024 
2927.000000	1.719069 
2926.000000	1.718783 
2925.000000	1.720380 
2924.000000	1.723957 
2923.000000	1.729559 
2922.000000	1.737070 
2921.000000	1.746320 
2920.000000	1.757001 
2919.000000	1.768755 
2918.000000	1.781177 
2917.000000	1.793861 
2916.000000	1.806426 
2915.000000	1.818513 
2914.000000	1.829934 
2913.000000	1.840543 
2912.000000	1.850271 
2911.000000	1.859045 
2910.000000	1.867008 
2909.000000	1.874089 
2908.000000	1.880431 
2907.000000	1.886010 
2906.000000	1.890993 
2905.000000	1.895356 
2904.000000	1.899242 
2903.000000	1.902675 
2902.000000	1.905870 
2901.000000	1.908874 
2900.000000	1.911830 
2899.000000	1.914811 
2898.000000	1.917815 
2897.000000	1.920938 
2896.000000	1.924085 
2895.000000	1.927208 
2894.000000	1.930260 
2893.000000	1.933264 
2892.000000	1.936197 
2891.000000	1.939034 
2890.000000	1.941776 
2889.000000	1.944446 
2888.000000	1.947021 
2887.000000	1.949429 
2886.000000	1.951575 
2885.000000	1.953458 
2884.000000	1.954936 
2883.000000	1.955938 
2882.000000	1.956510 
2881.000000	1.956605 
2880.000000	1.956224 
2879.000000	1.955437 
2878.000000	1.954150 
2877.000000	1.952433 
2876.000000	1.950168 
2875.000000	1.947355 
2874.000000	1.943826 
2873.000000	1.939487 
2872.000000	1.934218 
2871.000000	1.927995 
2870.000000	1.920795 
2869.000000	1.912689 
2868.000000	1.903843 
2867.000000	1.894688 
2866.000000	1.885485 
2865.000000	1.876807 
2864.000000	1.869034 
2863.000000	1.862740 
2862.000000	1.858282 
2861.000000	1.855921 
2860.000000	1.855778 
2859.000000	1.857876 
2858.000000	1.862025 
2857.000000	1.868057 
2856.000000	1.875615 
2855.000000	1.884317 
2854.000000	1.893854 
2853.000000	1.903986 
2852.000000	1.914381 
2851.000000	1.924848 
2850.000000	1.935243 
2849.000000	1.945447 
2848.000000	1.955318 
2847.000000	1.964783 
2846.000000	1.973724 
2845.000000	1.982140 
2844.000000	1.989984 
2843.000000	1.997256 
2842.000000	2.003908 
2841.000000	2.010011 
2840.000000	2.015590 
2839.000000	2.020764 
2838.000000	2.025485 
2837.000000	2.029871 
2836.000000	2.033996 
2835.000000	2.037835 
2834.000000	2.041482 
2833.000000	2.044963 
2832.000000	2.048373 
2831.000000	2.051687 
2830.000000	2.054977 
2829.000000	2.058219 
2828.000000	2.061414 
2827.000000	2.064538 
2826.000000	2.067542 
2825.000000	2.070450 
2824.000000	2.073192 
2823.000000	2.075815 
2822.000000	2.078318 
2821.000000	2.080798 
2820.000000	2.083206 
2819.000000	2.085614 
2818.000000	2.088069 
2817.000000	2.090525 
2816.000000	2.093029 
2815.000000	2.095532 
2814.000000	2.098035 
2813.000000	2.100467 
2812.000000	2.102780 
2811.000000	2.104973 
2810.000000	2.107048 
2809.000000	2.109003 
2808.000000	2.110815 
2807.000000	2.112603 
2806.000000	2.114295 
2805.000000	2.115988 
2804.000000	2.117657 
2803.000000	2.119374 
2802.000000	2.121090 
2801.000000	2.122831 
2800.000000	2.124619 
2799.000000	2.126431 
2798.000000	2.128267 
2797.000000	2.130126 
2796.000000	2.132010 
2795.000000	2.133941 
2794.000000	2.135848 
2793.000000	2.137732 
2792.000000	2.139639 
2791.000000	2.141475 
2790.000000	2.143311 
2789.000000	2.145075 
2788.000000	2.146840 
2787.000000	2.148580 
2786.000000	2.150297 
2785.000000	2.152037 
2784.000000	2.153778 
2783.000000	2.155542 
2782.000000	2.157354 
2781.000000	2.159118 
2780.000000	2.160906 
2779.000000	2.162623 
2778.000000	2.164292 
2777.000000	2.165865 
2776.000000	2.167344 
2775.000000	2.168726 
2774.000000	2.170014 
2773.000000	2.171230 
2772.000000	2.172470 
2771.000000	2.173709 
2770.000000	2.175021 
2769.000000	2.176356 
2768.000000	2.177739 
2767.000000	2.179074 
2766.000000	2.180361 
2765.000000	2.181506 
2764.000000	2.182626 
2763.000000	2.183604 
2762.000000	2.184462 
2761.000000	2.185297 
2760.000000	2.186155 
2759.000000	2.186989 
2758.000000	2.187848 
2757.000000	2.188754 
2756.000000	2.189636 
2755.000000	2.190494 
2754.000000	2.191376 
2753.000000	2.192187 
2752.000000	2.192950 
2751.000000	2.193641 
2750.000000	2.194285 
2749.000000	2.194833 
2748.000000	2.195334 
2747.000000	2.195739 
2746.000000	2.196073 
2745.000000	2.196288 
2744.000000	2.196407 
2743.000000	2.196455 
2742.000000	2.196455 
2741.000000	2.196431 
2740.000000	2.196455 
2739.000000	2.196526 
2738.000000	2.196741 
2737.000000	2.197027 
2736.000000	2.197480 
2735.000000	2.197957 
2734.000000	2.198505 
2733.000000	2.199125 
2732.000000	2.199721 
2731.000000	2.200293 
2730.000000	2.200818 
2729.000000	2.201223 
2728.000000	2.201533 
2727.000000	2.201747 
2726.000000	2.201867 
2725.000000	2.201914 
2724.000000	2.201843 
2723.000000	2.201724 
2722.000000	2.201533 
2721.000000	2.201366 
2720.000000	2.201199 
2719.000000	2.201032 
2718.000000	2.200913 
2717.000000	2.200794 
2716.000000	2.200675 
2715.000000	2.200484 
2714.000000	2.200222 
2713.000000	2.199840 
2712.000000	2.199411 
2711.000000	2.198910 
2710.000000	2.198314 
2709.000000	2.197742 
2708.000000	2.197194 
2707.000000	2.196669 
2706.000000	2.196216 
2705.000000	2.195787 
2704.000000	2.195358 
2703.000000	2.194857 
2702.000000	2.194333 
2701.000000	2.193737 
2700.000000	2.193117 
2699.000000	2.192497 
2698.000000	2.191925 
2697.000000	2.191424 
2696.000000	2.191066 
2695.000000	2.190804 
2694.000000	2.190613 
2693.000000	2.190494 
2692.000000	2.190351 
2691.000000	2.190184 
2690.000000	2.189874 
2689.000000	2.189445 
2688.000000	2.188897 
2687.000000	2.188205 
2686.000000	2.187395 
2685.000000	2.186489 
2684.000000	2.185487 
2683.000000	2.184510 
2682.000000	2.183532 
2681.000000	2.182626 
2680.000000	2.181839 
2679.000000	2.181172 
2678.000000	2.180671 
2677.000000	2.180290 
2676.000000	2.180004 
2675.000000	2.179813 
2674.000000	2.179646 
2673.000000	2.179479 
2672.000000	2.179193 
2671.000000	2.178812 
2670.000000	2.178263 
2669.000000	2.177548 
2668.000000	2.176713 
2667.000000	2.175736 
2666.000000	2.174663 
2665.000000	2.173590 
2664.000000	2.172470 
2663.000000	2.171373 
2662.000000	2.170348 
2661.000000	2.169418 
2660.000000	2.168583 
2659.000000	2.167844 
2658.000000	2.167272 
2657.000000	2.166867 
2656.000000	2.166581 
2655.000000	2.166438 
2654.000000	2.166414 
2653.000000	2.166461 
2652.000000	2.166509 
2651.000000	2.166604 
2650.000000	2.166676 
2649.000000	2.166676 
2648.000000	2.166628 
2647.000000	2.166533 
2646.000000	2.166366 
2645.000000	2.166128 
2644.000000	2.165889 
2643.000000	2.165603 
2642.000000	2.165293 
2641.000000	2.164983 
2640.000000	2.164673 
2639.000000	2.164340 
2638.000000	2.164053 
2637.000000	2.163839 
2636.000000	2.163672 
2635.000000	2.163600 
2634.000000	2.163624 
2633.000000	2.163791 
2632.000000	2.163982 
2631.000000	2.164244 
2630.000000	2.164506 
2629.000000	2.164721 
2628.000000	2.164912 
2627.000000	2.165055 
2626.000000	2.165174 
2625.000000	2.165293 
2624.000000	2.165460 
2623.000000	2.165675 
2622.000000	2.165937 
2621.000000	2.166271 
2620.000000	2.166604 
2619.000000	2.166962 
2618.000000	2.167272 
2617.000000	2.167558 
2616.000000	2.167773 
2615.000000	2.167940 
2614.000000	2.168059 
2613.000000	2.168107 
2612.000000	2.168130 
2611.000000	2.168154 
2610.000000	2.168154 
2609.000000	2.168178 
2608.000000	2.168226 
2607.000000	2.168297 
2606.000000	2.168393 
2605.000000	2.168512 
2604.000000	2.168703 
2603.000000	2.168917 
2602.000000	2.169132 
2601.000000	2.169346 
2600.000000	2.169561 
2599.000000	2.169728 
2598.000000	2.169895 
2597.000000	2.170014 
2596.000000	2.170133 
2595.000000	2.170348 
2594.000000	2.170658 
2593.000000	2.171111 
2592.000000	2.171778 
2591.000000	2.172684 
2590.000000	2.173876 
2589.000000	2.175259 
2588.000000	2.176856 
2587.000000	2.178573 
2586.000000	2.180433 
2585.000000	2.182316 
2584.000000	2.184200 
2583.000000	2.186036 
2582.000000	2.187800 
2581.000000	2.189493 
2580.000000	2.191066 
2579.000000	2.192521 
2578.000000	2.193856 
2577.000000	2.195096 
2576.000000	2.196240 
2575.000000	2.197360 
2574.000000	2.198505 
2573.000000	2.199649 
2572.000000	2.200865 
2571.000000	2.202177 
2570.000000	2.203607 
2569.000000	2.205133 
2568.000000	2.206730 
2567.000000	2.208328 
2566.000000	2.209949 
2565.000000	2.211594 
2564.000000	2.213168 
2563.000000	2.214646 
2562.000000	2.216029 
2561.000000	2.217245 
2560.000000	2.218317 
2559.000000	2.219271 
2558.000000	2.220082 
2557.000000	2.220821 
2556.000000	2.221488 
2555.000000	2.222204 
2554.000000	2.222990 
2553.000000	2.223873 
2552.000000	2.224898 
2551.000000	2.226066 
2550.000000	2.227330 
2549.000000	2.228665 
2548.000000	2.230119 
2547.000000	2.231597 
2546.000000	2.233099 
2545.000000	2.234601 
2544.000000	2.236175 
2543.000000	2.237749 
2542.000000	2.239322 
2541.000000	2.240920 
2540.000000	2.242422 
2539.000000	2.243876 
2538.000000	2.245235 
2537.000000	2.246451 
2536.000000	2.247548 
2535.000000	2.248501 
2534.000000	2.249312 
2533.000000	2.250051 
2532.000000	2.250671 
2531.000000	2.251267 
2530.000000	2.251863 
2529.000000	2.252459 
2528.000000	2.253103 
2527.000000	2.253794 
2526.000000	2.254533 
2525.000000	2.255344 
2524.000000	2.256250 
2523.000000	2.257180 
2522.000000	2.258157 
2521.000000	2.259135 
2520.000000	2.260065 
2519.000000	2.260875 
2518.000000	2.261519 
2517.000000	2.262020 
2516.000000	2.262282 
2515.000000	2.262449 
2514.000000	2.262520 
2513.000000	2.262544 
2512.000000	2.262592 
2511.000000	2.262711 
2510.000000	2.262926 
2509.000000	2.263188 
2508.000000	2.263522 
2507.000000	2.263903 
2506.000000	2.264285 
2505.000000	2.264595 
2504.000000	2.264881 
2503.000000	2.265095 
2502.000000	2.265310 
2501.000000	2.265548 
2500.000000	2.265810 
2499.000000	2.266120 
2498.000000	2.266526 
2497.000000	2.266955 
2496.000000	2.267456 
2495.000000	2.268004 
2494.000000	2.268576 
2493.000000	2.269148 
2492.000000	2.269673 
2491.000000	2.270150 
2490.000000	2.270507 
2489.000000	2.270722 
2488.000000	2.270817 
2487.000000	2.270746 
2486.000000	2.270555 
2485.000000	2.270269 
2484.000000	2.269840 
2483.000000	2.269387 
2482.000000	2.268910 
2481.000000	2.268385 
2480.000000	2.267861 
2479.000000	2.267336 
2478.000000	2.266788 
2477.000000	2.266216 
2476.000000	2.265691 
2475.000000	2.265143 
2474.000000	2.264618 
2473.000000	2.264118 
2472.000000	2.263665 
2471.000000	2.263283 
2470.000000	2.262854 
2469.000000	2.262449 
2468.000000	2.262020 
2467.000000	2.261519 
2466.000000	2.260875 
2465.000000	2.260112 
2464.000000	2.259182 
2463.000000	2.258205 
2462.000000	2.257180 
2461.000000	2.256107 
2460.000000	2.255058 
2459.000000	2.254104 
2458.000000	2.253270 
2457.000000	2.252578 
2456.000000	2.252006 
2455.000000	2.251505 
2454.000000	2.251005 
2453.000000	2.250432 
2452.000000	2.249789 
2451.000000	2.249026 
2450.000000	2.248096 
2449.000000	2.246975 
2448.000000	2.245807 
2447.000000	2.244591 
2446.000000	2.243423 
2445.000000	2.242326 
2444.000000	2.241301 
2443.000000	2.240347 
2442.000000	2.239513 
2441.000000	2.238678 
2440.000000	2.237844 
2439.000000	2.236890 
2438.000000	2.235841 
2437.000000	2.234625 
2436.000000	2.233338 
2435.000000	2.231907 
2434.000000	2.230477 
2433.000000	2.229022 
2432.000000	2.227640 
2431.000000	2.226305 
2430.000000	2.225065 
2429.000000	2.223920 
2428.000000	2.222847 
2427.000000	2.221798 
2426.000000	2.220749 
2425.000000	2.219676 
2424.000000	2.218675 
2423.000000	2.217602 
2422.000000	2.216506 
2421.000000	2.215456 
2420.000000	2.214455 
2419.000000	2.213478 
2418.000000	2.212548 
2417.000000	2.211689 
2416.000000	2.210879 
2415.000000	2.210092 
2414.000000	2.209353 
2413.000000	2.208662 
2412.000000	2.208018 
2411.000000	2.207469 
2410.000000	2.206945 
2409.000000	2.206444 
2408.000000	2.205944 
2407.000000	2.205419 
2406.000000	2.204823 
2405.000000	2.204084 
2404.000000	2.203249 
2403.000000	2.202320 
2402.000000	2.201342 
2401.000000	2.200317 
2400.000000	2.199316 
2399.000000	2.198386 
2398.000000	2.197551 
2397.000000	2.196812 
2396.000000	2.196168 
2395.000000	2.195644 
2394.000000	2.195215 
2393.000000	2.194833 
2392.000000	2.194523 
2391.000000	2.194261 
2390.000000	2.194023 
2389.000000	2.193760 
2388.000000	2.193522 
2387.000000	2.193260 
2386.000000	2.192974 
2385.000000	2.192664 
2384.000000	2.192258 
2383.000000	2.191805 
2382.000000	2.191233 
2381.000000	2.190613 
2380.000000	2.189874 
2379.000000	2.189064 
2378.000000	2.188181 
2377.000000	2.187204 
2376.000000	2.186131 
2375.000000	2.184915 
2374.000000	2.183604 
2373.000000	2.182126 
2372.000000	2.180504 
2371.000000	2.178812 
2370.000000	2.177119 
2369.000000	2.175450 
2368.000000	2.173924 
2367.000000	2.172613 
2366.000000	2.171611 
2365.000000	2.170968 
2364.000000	2.170705 
2363.000000	2.170896 
2362.000000	2.171540 
2361.000000	2.172589 
2360.000000	2.174067 
2359.000000	2.175951 
2358.000000	2.178215 
2357.000000	2.180862 
2356.000000	2.183747 
2355.000000	2.186846 
2354.000000	2.189993 
2353.000000	2.193117 
2352.000000	2.196049 
2351.000000	2.198600 
2350.000000	2.200770 
2349.000000	2.202439 
2348.000000	2.203607 
2347.000000	2.204370 
2346.000000	2.204799 
2345.000000	2.204966 
2344.000000	2.205038 
2343.000000	2.205109 
2342.000000	2.205300 
2341.000000	2.205634 
2340.000000	2.206158 
2339.000000	2.206873 
2338.000000	2.207732 
2337.000000	2.208757 
2336.000000	2.209973 
2335.000000	2.211308 
2334.000000	2.212762 
2333.000000	2.214312 
2332.000000	2.215957 
2331.000000	2.217674 
2330.000000	2.219438 
2329.000000	2.221298 
2328.000000	2.223181 
2327.000000	2.225232 
2326.000000	2.227330 
2325.000000	2.229547 
2324.000000	2.231884 
2323.000000	2.234292 
2322.000000	2.236747 
2321.000000	2.239227 
2320.000000	2.241635 
2319.000000	2.243995 
2318.000000	2.246284 
2317.000000	2.248501 
2316.000000	2.250647 
2315.000000	2.252745 
2314.000000	2.254819 
2313.000000	2.256822 
2312.000000	2.258825 
2311.000000	2.260756 
2310.000000	2.262663 
2309.000000	2.264475 
2308.000000	2.266240 
2307.000000	2.267932 
2306.000000	2.269601 
2305.000000	2.271199 
2304.000000	2.272772 
2303.000000	2.274298 
2302.000000	2.275824 
2301.000000	2.277302 
2300.000000	2.278780 
2299.000000	2.280259 
2298.000000	2.281665 
2297.000000	2.283072 
2296.000000	2.284431 
2295.000000	2.285695 
2294.000000	2.286887 
2293.000000	2.288031 
2292.000000	2.289104 
2291.000000	2.290177 
2290.000000	2.291274 
2289.000000	2.292466 
2288.000000	2.293729 
2287.000000	2.295136 
2286.000000	2.296614 
2285.000000	2.298140 
2284.000000	2.299618 
2283.000000	2.301025 
2282.000000	2.302241 
2281.000000	2.303314 
2280.000000	2.304196 
2279.000000	2.304983 
2278.000000	2.305626 
2277.000000	2.306270 
2276.000000	2.306985 
2275.000000	2.307724 
2274.000000	2.308559 
2273.000000	2.309441 
2272.000000	2.310299 
2271.000000	2.311158 
2270.000000	2.312016 
2269.000000	2.312779 
2268.000000	2.313446 
2267.000000	2.314043 
2266.000000	2.314567 
2265.000000	2.315044 
2264.000000	2.315449 
2263.000000	2.315807 
2262.000000	2.316164 
2261.000000	2.316451 
2260.000000	2.316689 
2259.000000	2.316951 
2258.000000	2.317190 
2257.000000	2.317404 
2256.000000	2.317643 
2255.000000	2.317881 
2254.000000	2.318143 
2253.000000	2.318406 
2252.000000	2.318716 
2251.000000	2.319073 
2250.000000	2.319455 
2249.000000	2.319979 
2248.000000	2.320504 
2247.000000	2.321124 
2246.000000	2.321791 
2245.000000	2.322411 
2244.000000	2.322983 
2243.000000	2.323436 
2242.000000	2.323770 
2241.000000	2.323913 
2240.000000	2.323865 
2239.000000	2.323651 
2238.000000	2.323293 
2237.000000	2.322864 
2236.000000	2.322411 
2235.000000	2.322006 
2234.000000	2.321672 
2233.000000	2.321434 
2232.000000	2.321290 
2231.000000	2.321219 
2230.000000	2.321171 
2229.000000	2.321100 
2228.000000	2.320933 
2227.000000	2.320671 
2226.000000	2.320265 
2225.000000	2.319741 
2224.000000	2.319049 
2223.000000	2.318263 
2222.000000	2.317380 
2221.000000	2.316451 
2220.000000	2.315497 
2219.000000	2.314519 
2218.000000	2.313542 
2217.000000	2.312612 
2216.000000	2.311682 
2215.000000	2.310824 
2214.000000	2.309966 
2213.000000	2.309179 
2212.000000	2.308440 
2211.000000	2.307748 
2210.000000	2.307081 
2209.000000	2.306461 
2208.000000	2.305865 
2207.000000	2.305245 
2206.000000	2.304601 
2205.000000	2.303886 
2204.000000	2.303099 
2203.000000	2.302217 
2202.000000	2.301287 
2201.000000	2.300286 
2200.000000	2.299261 
2199.000000	2.298259 
2198.000000	2.297282 
2197.000000	2.296400 
2196.000000	2.295589 
2195.000000	2.294898 
2194.000000	2.294278 
2193.000000	2.293729 
2192.000000	2.293181 
2191.000000	2.292633 
2190.000000	2.291989 
2189.000000	2.291274 
2188.000000	2.290439 
2187.000000	2.289557 
2186.000000	2.288627 
2185.000000	2.287673 
2184.000000	2.286791 
2183.000000	2.285957 
2182.000000	2.285242 
2181.000000	2.284622 
2180.000000	2.284049 
2179.000000	2.283549 
2178.000000	2.283024 
2177.000000	2.282452 
2176.000000	2.281832 
2175.000000	2.281141 
2174.000000	2.280426 
2173.000000	2.279758 
2172.000000	2.279186 
2171.000000	2.278733 
2170.000000	2.278375 
2169.000000	2.278113 
2168.000000	2.277946 
2167.000000	2.277779 
2166.000000	2.277588 
2165.000000	2.277398 
2164.000000	2.277135 
2163.000000	2.276849 
2162.000000	2.276563 
2161.000000	2.276301 
2160.000000	2.276134 
2159.000000	2.276015 
2158.000000	2.275919 
2157.000000	2.275872 
2156.000000	2.275776 
2155.000000	2.275657 
2154.000000	2.275514 
2153.000000	2.275276 
2152.000000	2.275085 
2151.000000	2.274918 
2150.000000	2.274847 
2149.000000	2.274942 
2148.000000	2.275204 
2147.000000	2.275681 
2146.000000	2.276277 
2145.000000	2.276968 
2144.000000	2.277660 
2143.000000	2.278280 
2142.000000	2.278733 
2141.000000	2.278971 
2140.000000	2.279019 
2139.000000	2.278876 
2138.000000	2.278566 
2137.000000	2.278184 
2136.000000	2.277731 
2135.000000	2.277302 
2134.000000	2.276849 
2133.000000	2.276468 
2132.000000	2.276086 
2131.000000	2.275729 
2130.000000	2.275371 
2129.000000	2.275037 
2128.000000	2.274680 
2127.000000	2.274346 
2126.000000	2.274036 
2125.000000	2.273797 
2124.000000	2.273631 
2123.000000	2.273583 
2122.000000	2.273654 
2121.000000	2.273845 
2120.000000	2.274203 
2119.000000	2.274703 
2118.000000	2.275300 
2117.000000	2.276039 
2116.000000	2.276802 
2115.000000	2.277588 
2114.000000	2.278351 
2113.000000	2.278971 
2112.000000	2.279520 
2111.000000	2.279853 
2110.000000	2.280044 
2109.000000	2.280068 
2108.000000	2.279949 
2107.000000	2.279734 
2106.000000	2.279472 
2105.000000	2.279186 
2104.000000	2.278923 
2103.000000	2.278733 
2102.000000	2.278566 
2101.000000	2.278494 
2100.000000	2.278494 
2099.000000	2.278542 
2098.000000	2.278637 
2097.000000	2.278733 
2096.000000	2.278804 
2095.000000	2.278852 
2094.000000	2.278876 
2093.000000	2.278780 
2092.000000	2.278661 
2091.000000	2.278494 
2090.000000	2.278327 
2089.000000	2.278184 
2088.000000	2.278137 
2087.000000	2.278256 
2086.000000	2.278518 
2085.000000	2.278995 
2084.000000	2.279663 
2083.000000	2.280521 
2082.000000	2.281475 
2081.000000	2.282452 
2080.000000	2.283501 
2079.000000	2.284479 
2078.000000	2.285480 
2077.000000	2.286458 
2076.000000	2.287530 
2075.000000	2.288746 
2074.000000	2.290129 
2073.000000	2.291727 
2072.000000	2.293515 
2071.000000	2.295517 
2070.000000	2.297639 
2069.000000	2.299857 
2068.000000	2.302145 
2067.000000	2.304410 
2066.000000	2.306604 
2065.000000	2.308797 
2064.000000	2.310919 
2063.000000	2.312946 
2062.000000	2.314949 
2061.000000	2.316880 
2060.000000	2.318739 
2059.000000	2.320551 
2058.000000	2.322340 
2057.000000	2.324128 
2056.000000	2.326011 
2055.000000	2.328014 
2054.000000	2.330136 
2053.000000	2.332353 
2052.000000	2.334690 
2051.000000	2.337074 
2050.000000	2.339410 
2049.000000	2.341675 
2048.000000	2.343821 
2047.000000	2.345800 
2046.000000	2.347636 
2045.000000	2.349352 
2044.000000	2.350997 
2043.000000	2.352619 
2042.000000	2.354192 
2041.000000	2.355790 
2040.000000	2.357387 
2039.000000	2.359056 
2038.000000	2.360701 
2037.000000	2.362370 
2036.000000	2.364039 
2035.000000	2.365684 
2034.000000	2.367305 
2033.000000	2.368879 
2032.000000	2.370357 
2031.000000	2.371716 
2030.000000	2.372956 
2029.000000	2.374053 
2028.000000	2.375030 
2027.000000	2.375841 
2026.000000	2.376580 
2025.000000	2.377271 
2024.000000	2.377939 
2023.000000	2.378630 
2022.000000	2.379369 
2021.000000	2.380132 
2020.000000	2.380967 
2019.000000	2.381825 
2018.000000	2.382755 
2017.000000	2.383637 
2016.000000	2.384567 
2015.000000	2.385473 
2014.000000	2.386331 
2013.000000	2.387189 
2012.000000	2.387976 
2011.000000	2.388715 
2010.000000	2.389383 
2009.000000	2.389955 
2008.000000	2.390456 
2007.000000	2.390909 
2006.000000	2.391219 
2005.000000	2.391457 
2004.000000	2.391552 
2003.000000	2.391576 
2002.000000	2.391505 
2001.000000	2.391386 
2000.000000	2.391242 
1999.000000	2.391076 
1998.000000	2.390909 
1997.000000	2.390766 
1996.000000	2.390599 
1995.000000	2.390432 
1994.000000	2.390265 
1993.000000	2.390074 
1992.000000	2.389812 
1991.000000	2.389550 
1990.000000	2.389264 
1989.000000	2.388978 
1988.000000	2.388668 
1987.000000	2.388358 
1986.000000	2.388048 
1985.000000	2.387738 
1984.000000	2.387404 
1983.000000	2.386975 
1982.000000	2.386498 
1981.000000	2.385973 
1980.000000	2.385401 
1979.000000	2.384805 
1978.000000	2.384185 
1977.000000	2.383613 
1976.000000	2.383017 
1975.000000	2.382373 
1974.000000	2.381682 
1973.000000	2.380919 
1972.000000	2.380084 
1971.000000	2.379131 
1970.000000	2.378058 
1969.000000	2.376914 
1968.000000	2.375721 
1967.000000	2.374482 
1966.000000	2.373242 
1965.000000	2.372074 
1964.000000	2.370953 
1963.000000	2.369880 
1962.000000	2.368879 
1961.000000	2.367925 
1960.000000	2.367043 
1959.000000	2.366209 
1958.000000	2.365374 
1957.000000	2.364563 
1956.000000	2.363801 
1955.000000	2.363085 
1954.000000	2.362394 
1953.000000	2.361726 
1952.000000	2.361083 
1951.000000	2.360415 
1950.000000	2.359700 
1949.000000	2.358889 
1948.000000	2.357983 
1947.000000	2.357029 
1946.000000	2.356004 
1945.000000	2.354931 
1944.000000	2.353906 
1943.000000	2.352952 
1942.000000	2.352166 
1941.000000	2.351474 
1940.000000	2.350974 
1939.000000	2.350568 
1938.000000	2.350187 
1937.000000	2.349805 
1936.000000	2.349376 
1935.000000	2.348852 
1934.000000	2.348208 
1933.000000	2.347445 
1932.000000	2.346587 
1931.000000	2.345633 
1930.000000	2.344608 
1929.000000	2.343535 
1928.000000	2.342343 
1927.000000	2.341079 
1926.000000	2.339720 
1925.000000	2.338266 
1924.000000	2.336692 
1923.000000	2.335071 
1922.000000	2.333474 
1921.000000	2.331924 
1920.000000	2.330493 
1919.000000	2.329158 
1918.000000	2.328014 
1917.000000	2.327036 
1916.000000	2.326178 
1915.000000	2.325320 
1914.000000	2.324509 
1913.000000	2.323698 
1912.000000	2.322816 
1911.000000	2.321863 
1910.000000	2.320814 
1909.000000	2.319717 
1908.000000	2.318572 
1907.000000	2.317452 
1906.000000	2.316379 
1905.000000	2.315330 
1904.000000	2.314329 
1903.000000	2.313375 
1902.000000	2.312469 
1901.000000	2.311635 
1900.000000	2.310872 
1899.000000	2.310156 
1898.000000	2.309536 
1897.000000	2.308988 
1896.000000	2.308487 
1895.000000	2.308058 
1894.000000	2.307701 
1893.000000	2.307391 
1892.000000	2.307200 
1891.000000	2.307128 
1890.000000	2.307176 
1889.000000	2.307367 
1888.000000	2.307653 
1887.000000	2.308011 
1886.000000	2.308416 
1885.000000	2.308797 
1884.000000	2.309203 
1883.000000	2.309513 
1882.000000	2.309775 
1881.000000	2.310013 
1880.000000	2.310228 
1879.000000	2.310395 
1878.000000	2.310490 
1877.000000	2.310490 
1876.000000	2.310347 
1875.000000	2.310037 
1874.000000	2.309584 
1873.000000	2.309036 
1872.000000	2.308559 
1871.000000	2.308249 
1870.000000	2.308273 
1869.000000	2.308726 
1868.000000	2.309679 
1867.000000	2.311062 
1866.000000	2.312827 
1865.000000	2.314805 
1864.000000	2.316808 
1863.000000	2.318692 
1862.000000	2.320361 
1861.000000	2.321767 
1860.000000	2.322912 
1859.000000	2.323794 
1858.000000	2.324557 
1857.000000	2.325201 
1856.000000	2.325797 
1855.000000	2.326297 
1854.000000	2.326583 
1853.000000	2.326607 
1852.000000	2.326321 
1851.000000	2.325677 
1850.000000	2.324748 
1849.000000	2.323698 
1848.000000	2.322697 
1847.000000	2.321958 
1846.000000	2.321696 
1845.000000	2.322077 
1844.000000	2.323150 
1843.000000	2.324819 
1842.000000	2.327060 
1841.000000	2.329587 
1840.000000	2.332139 
1839.000000	2.334523 
1838.000000	2.336502 
1837.000000	2.337956 
1836.000000	2.338862 
1835.000000	2.339243 
1834.000000	2.339172 
1833.000000	2.338838 
1832.000000	2.338385 
1831.000000	2.338004 
1830.000000	2.337884 
1829.000000	2.338075 
1828.000000	2.338743 
1827.000000	2.339887 
1826.000000	2.341485 
1825.000000	2.343416 
1824.000000	2.345585 
1823.000000	2.347850 
1822.000000	2.350044 
1821.000000	2.352023 
1820.000000	2.353715 
1819.000000	2.355051 
1818.000000	2.356076 
1817.000000	2.356791 
1816.000000	2.357292 
1815.000000	2.357697 
1814.000000	2.358102 
1813.000000	2.358579 
1812.000000	2.359127 
1811.000000	2.359819 
1810.000000	2.360582 
1809.000000	2.361321 
1808.000000	2.362012 
1807.000000	2.362537 
1806.000000	2.362847 
1805.000000	2.362990 
1804.000000	2.362895 
1803.000000	2.362608 
1802.000000	2.362084 
1801.000000	2.361321 
1800.000000	2.360320 
1799.000000	2.359032 
1798.000000	2.357578 
1797.000000	2.355980 
1796.000000	2.354383 
1795.000000	2.352952 
1794.000000	2.351927 
1793.000000	2.351403 
1792.000000	2.351427 
1791.000000	2.351951 
1790.000000	2.352905 
1789.000000	2.354073 
1788.000000	2.355289 
1787.000000	2.356386 
1786.000000	2.357220 
1785.000000	2.357769 
1784.000000	2.358055 
1783.000000	2.357983 
1782.000000	2.357578 
1781.000000	2.356791 
1780.000000	2.355551 
1779.000000	2.353715 
1778.000000	2.351307 
1777.000000	2.348423 
1776.000000	2.345252 
1775.000000	2.342128 
1774.000000	2.339339 
1773.000000	2.337217 
1772.000000	2.335977 
1771.000000	2.335691 
1770.000000	2.336239 
1769.000000	2.337360 
1768.000000	2.338695 
1767.000000	2.339982 
1766.000000	2.340912 
1765.000000	2.341437 
1764.000000	2.341485 
1763.000000	2.341127 
1762.000000	2.340459 
1761.000000	2.339625 
1760.000000	2.338552 
1759.000000	2.337217 
1758.000000	2.335476 
1757.000000	2.333235 
1756.000000	2.330446 
1755.000000	2.327084 
1754.000000	2.323269 
1753.000000	2.319192 
1752.000000	2.315044 
1751.000000	2.311038 
1750.000000	2.307343 
1749.000000	2.304077 
1748.000000	2.301096 
1747.000000	2.298378 
1746.000000	2.295708 
1745.000000	2.292919 
1744.000000	2.289772 
1743.000000	2.286124 
1742.000000	2.281904 
1741.000000	2.277088 
1740.000000	2.271747 
1739.000000	2.266168 
1738.000000	2.260637 
1737.000000	2.255535 
1736.000000	2.251315 
1735.000000	2.248311 
1734.000000	2.246713 
1733.000000	2.246642 
1732.000000	2.247953 
1731.000000	2.250313 
1730.000000	2.253341 
1729.000000	2.256417 
1728.000000	2.259111 
1727.000000	2.260828 
1726.000000	2.261281 
1725.000000	2.260255 
1724.000000	2.257728 
1723.000000	2.253890 
1722.000000	2.249097 
1721.000000	2.243900 
1720.000000	2.238821 
1719.000000	2.234411 
1718.000000	2.231097 
1717.000000	2.229166 
1716.000000	2.228617 
1715.000000	2.229237 
1714.000000	2.230596 
1713.000000	2.232146 
1712.000000	2.233266 
1711.000000	2.233505 
1710.000000	2.232456 
1709.000000	2.229928 
1708.000000	2.225875 
1707.000000	2.220392 
1706.000000	2.213764 
1705.000000	2.206301 
1704.000000	2.198362 
1703.000000	2.190446 
1702.000000	2.183008 
1701.000000	2.176594 
1700.000000	2.171683 
1699.000000	2.168607 
1698.000000	2.167606 
1697.000000	2.168655 
1696.000000	2.171397 
1695.000000	2.175235 
1694.000000	2.179384 
1693.000000	2.182984 
1692.000000	2.185273 
1691.000000	2.185773 
1690.000000	2.184247 
1689.000000	2.181005 
1688.000000	2.176570 
1687.000000	2.171730 
1686.000000	2.167320 
1685.000000	2.164006 
1684.000000	2.162241 
1683.000000	2.162027 
1682.000000	2.163100 
1681.000000	2.164888 
1680.000000	2.166771 
1679.000000	2.168154 
1678.000000	2.168607 
1677.000000	2.168011 
1676.000000	2.166485 
1675.000000	2.164292 
1674.000000	2.161812 
1673.000000	2.159428 
1672.000000	2.157354 
1671.000000	2.155756 
1670.000000	2.154660 
1669.000000	2.153944 
1668.000000	2.153468 
1667.000000	2.153134 
1666.000000	2.152800 
1665.000000	2.152276 
1664.000000	2.151274 
1663.000000	2.149558 
1662.000000	2.146720 
1661.000000	2.142548 
1660.000000	2.136754 
1659.000000	2.129340 
1658.000000	2.120637 
1657.000000	2.111172 
1656.000000	2.101707 
1655.000000	2.093052 
1654.000000	2.085971 
1653.000000	2.080917 
1652.000000	2.078151 
1651.000000	2.077579 
1650.000000	2.078866 
1649.000000	2.081489 
1648.000000	2.084827 
1647.000000	2.088332 
1646.000000	2.091479 
1645.000000	2.093863 
1644.000000	2.095150 
1643.000000	2.095270 
1642.000000	2.094125 
1641.000000	2.091789 
1640.000000	2.088546 
1639.000000	2.084684 
1638.000000	2.080655 
1637.000000	2.076888 
1636.000000	2.073764 
1635.000000	2.071475 
1634.000000	2.069973 
1633.000000	2.069115 
1632.000000	2.068495 
1631.000000	2.067708 
1630.000000	2.066445 
1629.000000	2.064490 
1628.000000	2.061676 
1627.000000	2.057957 
1626.000000	2.053475 
1625.000000	2.048230 
1624.000000	2.042269 
1623.000000	2.035570 
1622.000000	2.028131 
1621.000000	2.019953 
1620.000000	2.011179 
1619.000000	2.001833 
1618.000000	1.992177 
1617.000000	1.982402 
1616.000000	1.972746 
1615.000000	1.963400 
1614.000000	1.954436 
1613.000000	1.946043 
1612.000000	1.938343 
1611.000000	1.931452 
1610.000000	1.925611 
1609.000000	1.921033 
1608.000000	1.917934 
1607.000000	1.916480 
1606.000000	1.916670 
1605.000000	1.918387 
1604.000000	1.921391 
1603.000000	1.925349 
1602.000000	1.929855 
1601.000000	1.934552 
1600.000000	1.939177 
1599.000000	1.943492 
1598.000000	1.947379 
1597.000000	1.950788 
1596.000000	1.953721 
1595.000000	1.956129 
1594.000000	1.958036 
1593.000000	1.959419 
1592.000000	1.960229 
1591.000000	1.960563 
1590.000000	1.960420 
1589.000000	1.959872 
1588.000000	1.958870 
1587.000000	1.957464 
1586.000000	1.955628 
1585.000000	1.953291 
1584.000000	1.950383 
1583.000000	1.946878 
1582.000000	1.942849 
1581.000000	1.938366 
1580.000000	1.933717 
1579.000000	1.929187 
1578.000000	1.925086 
1577.000000	1.921701 
1576.000000	1.919150 
1575.000000	1.917529 
1574.000000	1.916766 
1573.000000	1.916623 
1572.000000	1.916885 
1571.000000	1.917219 
1570.000000	1.917147 
1569.000000	1.916265 
1568.000000	1.914119 
1567.000000	1.910424 
1566.000000	1.904916 
1565.000000	1.897668 
1564.000000	1.888966 
1563.000000	1.879477 
1562.000000	1.870059 
1561.000000	1.861643 
1560.000000	1.855254 
1559.000000	1.851582 
1558.000000	1.851034 
1557.000000	1.853585 
1556.000000	1.858782 
1555.000000	1.865839 
1554.000000	1.873779 
1553.000000	1.881575 
1552.000000	1.888394 
1551.000000	1.893591 
1550.000000	1.896786 
1549.000000	1.897883 
1548.000000	1.897144 
1547.000000	1.894998 
1546.000000	1.892137 
1545.000000	1.889371 
1544.000000	1.887583 
1543.000000	1.887655 
1542.000000	1.890230 
1541.000000	1.895737 
1540.000000	1.904296 
1539.000000	1.915693 
1538.000000	1.929426 
1537.000000	1.944684 
1536.000000	1.960611 
1535.000000	1.976442 
1534.000000	1.991319 
1533.000000	2.004671 
1532.000000	2.016019 
1531.000000	2.025294 
1530.000000	2.032446 
1529.000000	2.037477 
1528.000000	2.040553 
1527.000000	2.041959 
1526.000000	2.042078 
1525.000000	2.041220 
1524.000000	2.039742 
1523.000000	2.038121 
1522.000000	2.036619 
1521.000000	2.035474 
1520.000000	2.034831 
1519.000000	2.034592 
1518.000000	2.034568 
1517.000000	2.034521 
1516.000000	2.034115 
1515.000000	2.032876 
1514.000000	2.030539 
1513.000000	2.026915 
1512.000000	2.022051 
1511.000000	2.015876 
1510.000000	2.008628 
1509.000000	2.000260 
1508.000000	1.990699 
1507.000000	1.979422 
1506.000000	1.965832 
1505.000000	1.948952 
1504.000000	1.927876 
1503.000000	1.901841 
1502.000000	1.870679 
1501.000000	1.834774 
1500.000000	1.795506 
1499.000000	1.754856 
1498.000000	1.715445 
1497.000000	1.680135 
1496.000000	1.651644 
1495.000000	1.631975 
1494.000000	1.622390 
1493.000000	1.623225 
1492.000000	1.633810 
1491.000000	1.652598 
1490.000000	1.677680 
1489.000000	1.706790 
1488.000000	1.737928 
1487.000000	1.768970 
1486.000000	1.798534 
1485.000000	1.825404 
1484.000000	1.848936 
1483.000000	1.868748 
1482.000000	1.884698 
1481.000000	1.896929 
1480.000000	1.905679 
1479.000000	1.911568 
1478.000000	1.915049 
1477.000000	1.916670 
1476.000000	1.917028 
1475.000000	1.916670 
1474.000000	1.916003 
1473.000000	1.915192 
1472.000000	1.914310 
1471.000000	1.913309 
1470.000000	1.912069 
1469.000000	1.910209 
1468.000000	1.907396 
1467.000000	1.903390 
1466.000000	1.897883 
1465.000000	1.890468 
1464.000000	1.881003 
1463.000000	1.869344 
1462.000000	1.855492 
1461.000000	1.839566 
1460.000000	1.821923 
1459.000000	1.803112 
1458.000000	1.783847 
1457.000000	1.765131 
1456.000000	1.747822 
1455.000000	1.732921 
1454.000000	1.721262 
1453.000000	1.713657 
1452.000000	1.710343 
1451.000000	1.711440 
1450.000000	1.716661 
1449.000000	1.725387 
1448.000000	1.736664 
1447.000000	1.749372 
1446.000000	1.762390 
1445.000000	1.774668 
1444.000000	1.785397 
1443.000000	1.794052 
1442.000000	1.800489 
1441.000000	1.804924 
1440.000000	1.807785 
1439.000000	1.809573 
1438.000000	1.810884 
1437.000000	1.812148 
1436.000000	1.813602 
1435.000000	1.815342 
1434.000000	1.817226 
1433.000000	1.819157 
1432.000000	1.820898 
1431.000000	1.822233 
1430.000000	1.822996 
1429.000000	1.823067 
1428.000000	1.822471 
1427.000000	1.821255 
1426.000000	1.819372 
1425.000000	1.816987 
1424.000000	1.814222 
1423.000000	1.811242 
1422.000000	1.808166 
1421.000000	1.805233 
1420.000000	1.802515 
1419.000000	1.800084 
1418.000000	1.797723 
1417.000000	1.795291 
1416.000000	1.792359 
1415.000000	1.788592 
1414.000000	1.783490 
1413.000000	1.776766 
1412.000000	1.768231 
1411.000000	1.757955 
1410.000000	1.746201 
1409.000000	1.733517 
1408.000000	1.720595 
1407.000000	1.708221 
1406.000000	1.697182 
1405.000000	1.688194 
1404.000000	1.681780 
1403.000000	1.678276 
1402.000000	1.677632 
1401.000000	1.679754 
1400.000000	1.684212 
1399.000000	1.690506 
1398.000000	1.698088 
1397.000000	1.706337 
1396.000000	1.714634 
1395.000000	1.722407 
1394.000000	1.729178 
1393.000000	1.734590 
1392.000000	1.738429 
1391.000000	1.740622 
1390.000000	1.741313 
1389.000000	1.740837 
1388.000000	1.739692 
1387.000000	1.738357 
1386.000000	1.737356 
1385.000000	1.737117 
1384.000000	1.737856 
1383.000000	1.739597 
1382.000000	1.742291 
1381.000000	1.745533 
1380.000000	1.749062 
1379.000000	1.752448 
1378.000000	1.755547 
1377.000000	1.758193 
1376.000000	1.760292 
1375.000000	1.761913 
1374.000000	1.763129 
1373.000000	1.764011 
1372.000000	1.764702 
1371.000000	1.765227 
1370.000000	1.765584 
1369.000000	1.765775 
1368.000000	1.765871 
1367.000000	1.765894 
1366.000000	1.765871 
1365.000000	1.765871 
1364.000000	1.765990 
1363.000000	1.766228 
1362.000000	1.766586 
1361.000000	1.767086 
1360.000000	1.767611 
1359.000000	1.768159 
1358.000000	1.768684 
1357.000000	1.769042 
1356.000000	1.769328 
1355.000000	1.769495 
1354.000000	1.769495 
1353.000000	1.769375 
1352.000000	1.769185 
1351.000000	1.768946 
1350.000000	1.768636 
1349.000000	1.768255 
1348.000000	1.767802 
1347.000000	1.767301 
1346.000000	1.766777 
1345.000000	1.766300 
1344.000000	1.765942 
1343.000000	1.765847 
1342.000000	1.766085 
1341.000000	1.766753 
1340.000000	1.767945 
1339.000000	1.769638 
1338.000000	1.771807 
1337.000000	1.774358 
1336.000000	1.777172 
1335.000000	1.780104 
1334.000000	1.783037 
1333.000000	1.785850 
1332.000000	1.788520 
1331.000000	1.790881 
1330.000000	1.793026 
1329.000000	1.794958 
1328.000000	1.796650 
1327.000000	1.798105 
1326.000000	1.799368 
1325.000000	1.800560 
1324.000000	1.801562 
1323.000000	1.802468 
1322.000000	1.803278 
1321.000000	1.804018 
1320.000000	1.804709 
1319.000000	1.805329 
1318.000000	1.805925 
1317.000000	1.806449 
1316.000000	1.806902 
1315.000000	1.807236 
1314.000000	1.807522 
1313.000000	1.807689 
1312.000000	1.807785 
1311.000000	1.807808 
1310.000000	1.807713 
1309.000000	1.807618 
1308.000000	1.807427 
1307.000000	1.807236 
1306.000000	1.807022 
1305.000000	1.806831 
1304.000000	1.806640 
1303.000000	1.806569 
1302.000000	1.806521 
1301.000000	1.806592 
1300.000000	1.806688 
1299.000000	1.806902 
1298.000000	1.807117 
1297.000000	1.807332 
1296.000000	1.807498 
1295.000000	1.807641 
1294.000000	1.807737 
1293.000000	1.807737 
1292.000000	1.807737 
1291.000000	1.807641 
1290.000000	1.807451 
1289.000000	1.807212 
1288.000000	1.806855 
1287.000000	1.806402 
1286.000000	1.805877 
1285.000000	1.805281 
1284.000000	1.804590 
1283.000000	1.803779 
1282.000000	1.802849 
1281.000000	1.801729 
1280.000000	1.800274 
1279.000000	1.798439 
1278.000000	1.796030 
1277.000000	1.792955 
1276.000000	1.789021 
1275.000000	1.784110 
1274.000000	1.778125 
1273.000000	1.771092 
1272.000000	1.762938 
1271.000000	1.753687 
1270.000000	1.743459 
1269.000000	1.732516 
1268.000000	1.721191 
1267.000000	1.709985 
1266.000000	1.699376 
1265.000000	1.690053 
1264.000000	1.682662 
1263.000000	1.677680 
1262.000000	1.675534 
1261.000000	1.676321 
1260.000000	1.680040 
1259.000000	1.686382 
1258.000000	1.694798 
1257.000000	1.704692 
1256.000000	1.715421 
1255.000000	1.726269 
1254.000000	1.736760 
1253.000000	1.746439 
1252.000000	1.755070 
1251.000000	1.762533 
1250.000000	1.768851 
1249.000000	1.774024 
1248.000000	1.778244 
1247.000000	1.781630 
1246.000000	1.784348 
1245.000000	1.786422 
1244.000000	1.787948 
1243.000000	1.789045 
1242.000000	1.789736 
1241.000000	1.790118 
1240.000000	1.790189 
1239.000000	1.790046 
1238.000000	1.789712 
1237.000000	1.789212 
1236.000000	1.788568 
1235.000000	1.787829 
1234.000000	1.786923 
1233.000000	1.785898 
1232.000000	1.784706 
1231.000000	1.783370 
1230.000000	1.781940 
1229.000000	1.780366 
1228.000000	1.778674 
1227.000000	1.776814 
1226.000000	1.774787 
1225.000000	1.772570 
1224.000000	1.770067 
1223.000000	1.767253 
1222.000000	1.764059 
1221.000000	1.760506 
1220.000000	1.756501 
1219.000000	1.752161 
1218.000000	1.747441 
1217.000000	1.742553 
1216.000000	1.737546 
1215.000000	1.732563 
1214.000000	1.727747 
1213.000000	1.723217 
1212.000000	1.719093 
1211.000000	1.715469 
1210.000000	1.712393 
1209.000000	1.709890 
1208.000000	1.707983 
1207.000000	1.706624 
1206.000000	1.705765 
1205.000000	1.705336 
1204.000000	1.705217 
1203.000000	1.705336 
1202.000000	1.705622 
1201.000000	1.705932 
1200.000000	1.706242 
1199.000000	1.706504 
1198.000000	1.706647 
1197.000000	1.706600 
1196.000000	1.706337 
1195.000000	1.705837 
1194.000000	1.705074 
1193.000000	1.704001 
1192.000000	1.702642 
1191.000000	1.700949 
1190.000000	1.699042 
1189.000000	1.696848 
1188.000000	1.694464 
1187.000000	1.691913 
1186.000000	1.689243 
1185.000000	1.686525 
1184.000000	1.683783 
1183.000000	1.681113 
1182.000000	1.678538 
1181.000000	1.676034 
1180.000000	1.673555 
1179.000000	1.671123 
1178.000000	1.668643 
1177.000000	1.665997 
1176.000000	1.663184 
1175.000000	1.660060 
1174.000000	1.656651 
1173.000000	1.652860 
1172.000000	1.648736 
1171.000000	1.644325 
1170.000000	1.639699 
1169.000000	1.634907 
1168.000000	1.629996 
1167.000000	1.625037 
1166.000000	1.620078 
1165.000000	1.615166 
1164.000000	1.610398 
1163.000000	1.605772 
1162.000000	1.601409 
1161.000000	1.597356 
1160.000000	1.593661 
1159.000000	1.590371 
1158.000000	1.587510 
1157.000000	1.584982 
1156.000000	1.582837 
1155.000000	1.580929 
1154.000000	1.579260 
1153.000000	1.577806 
1152.000000	1.576447 
1151.000000	1.575112 
1150.000000	1.573801 
1149.000000	1.572442 
1148.000000	1.570940 
1147.000000	1.569318 
1146.000000	1.567482 
1145.000000	1.565432 
1144.000000	1.563119 
1143.000000	1.560592 
1142.000000	1.557779 
1141.000000	1.554775 
1140.000000	1.551651 
1139.000000	1.548433 
1138.000000	1.545190 
1137.000000	1.541948 
1136.000000	1.538729 
1135.000000	1.535463 
1134.000000	1.532125 
1133.000000	1.528644 
1132.000000	1.524925 
1131.000000	1.520919 
1130.000000	1.516628 
1129.000000	1.512026 
1128.000000	1.507115 
1127.000000	1.501989 
1126.000000	1.496672 
1125.000000	1.491236 
1124.000000	1.485729 
1123.000000	1.480221 
1122.000000	1.474785 
1121.000000	1.469421 
1120.000000	1.464176 
1119.000000	1.459002 
1118.000000	1.453948 
1117.000000	1.448988 
1116.000000	1.444172 
1115.000000	1.439476 
1114.000000	1.434946 
1113.000000	1.430535 
1112.000000	1.426315 
1111.000000	1.422286 
1110.000000	1.418495 
1109.000000	1.414895 
1108.000000	1.411557 
1107.000000	1.408576 
1106.000000	1.405906 
1105.000000	1.403522 
1104.000000	1.401448 
1103.000000	1.399660 
1102.000000	1.398086 
1101.000000	1.396703 
1100.000000	1.395463 
1099.000000	1.394343 
1098.000000	1.393318 
1097.000000	1.392483 
1096.000000	1.391816 
1095.000000	1.391363 
1094.000000	1.391148 
1093.000000	1.391196 
1092.000000	1.391482 
1091.000000	1.391983 
1090.000000	1.392722 
1089.000000	1.393556 
1088.000000	1.394462 
1087.000000	1.395344 
1086.000000	1.396155 
1085.000000	1.396751 
1084.000000	1.397132 
1083.000000	1.397252 
1082.000000	1.397156 
1081.000000	1.396870 
1080.000000	1.396512 
1079.000000	1.396107 
1078.000000	1.395845 
1077.000000	1.395821 
1076.000000	1.396107 
1075.000000	1.396679 
1074.000000	1.397562 
1073.000000	1.398730 
1072.000000	1.400089 
1071.000000	1.401519 
1070.000000	1.402950 
1069.000000	1.404261 
1068.000000	1.405358 
1067.000000	1.406168 
1066.000000	1.406598 
1065.000000	1.406526 
1064.000000	1.405739 
1063.000000	1.403999 
1062.000000	1.400947 
1061.000000	1.396226 
1060.000000	1.389479 
1059.000000	1.380395 
1058.000000	1.368927 
1057.000000	1.355218 
1056.000000	1.339817 
1055.000000	1.323580 
1054.000000	1.307630 
1053.000000	1.293277 
1052.000000	1.281738 
1051.000000	1.274085 
1050.000000	1.270890 
1049.000000	1.272296 
1048.000000	1.277852 
1047.000000	1.286768 
1046.000000	1.297831 
1045.000000	1.309823 
1044.000000	1.321530 
1043.000000	1.332020 
1042.000000	1.340675 
1041.000000	1.347208 
1040.000000	1.351690 
1039.000000	1.354312 
1038.000000	1.355433 
1037.000000	1.355457 
1036.000000	1.354670 
1035.000000	1.353335 
1034.000000	1.351666 
1033.000000	1.349735 
1032.000000	1.347684 
1031.000000	1.345539 
1030.000000	1.343297 
1029.000000	1.341056 
1028.000000	1.338863 
1027.000000	1.336789 
1026.000000	1.334857 
1025.000000	1.333093 
1024.000000	1.331591 
1023.000000	1.330375 
1022.000000	1.329517 
1021.000000	1.329088 
1020.000000	1.329016 
1019.000000	1.329469 
1018.000000	1.330423 
1017.000000	1.331901 
1016.000000	1.333856 
1015.000000	1.336240 
1014.000000	1.339030 
1013.000000	1.342105 
1012.000000	1.345324 
1011.000000	1.348543 
1010.000000	1.351690 
1009.000000	1.354598 
1008.000000	1.357221 
1007.000000	1.359486 
1006.000000	1.361393 
1005.000000	1.362991 
1004.000000	1.364326 
1003.000000	1.365399 
1002.000000	1.366329 
1001.000000	1.367092 
1000.000000	1.367712 
999.000000	 1.368212 
998.000000	 1.368522 
997.000000	 1.368641 
996.000000	 1.368427 
995.000000	 1.367974 
994.000000	 1.367163 
993.000000	 1.366043 
992.000000	 1.364636 
991.000000	 1.362991 
990.000000	 1.361250 
989.000000	 1.359462 
988.000000	 1.357698 
987.000000	 1.356077 
986.000000	 1.354622 
985.000000	 1.353240 
984.000000	 1.351904 
983.000000	 1.350545 
982.000000	 1.349163 
981.000000	 1.347541 
980.000000	 1.345682 
979.000000	 1.343536 
978.000000	 1.341199 
977.000000	 1.338601 
976.000000	 1.335787 
975.000000	 1.332879 
974.000000	 1.329874 
973.000000	 1.326870 
972.000000	 1.323819 
971.000000	 1.320791 
970.000000	 1.317787 
969.000000	 1.314735 
968.000000	 1.311683 
967.000000	 1.308536 
966.000000	 1.305294 
965.000000	 1.301932 
964.000000	 1.298475 
963.000000	 1.294898 
962.000000	 1.291275 
961.000000	 1.287579 
960.000000	 1.283884 
959.000000	 1.280164 
958.000000	 1.276516 
957.000000	 1.272869 
956.000000	 1.269245 
955.000000	 1.265716 
954.000000	 1.262235 
953.000000	 1.258850 
952.000000	 1.255607 
951.000000	 1.252532 
950.000000	 1.249647 
949.000000	 1.247072 
948.000000	 1.244759 
947.000000	 1.242756 
946.000000	 1.240968 
945.000000	 1.239418 
944.000000	 1.238012 
943.000000	 1.236581 
942.000000	 1.235103 
941.000000	 1.233482 
940.000000	 1.231694 
939.000000	 1.229715 
938.000000	 1.227617 
937.000000	 1.225376 
936.000000	 1.223087 
935.000000	 1.220774 
934.000000	 1.218485 
933.000000	 1.216220 
932.000000	 1.214003 
931.000000	 1.211857 
930.000000	 1.209759 
929.000000	 1.207709 
928.000000	 1.205658 
927.000000	 1.203680 
926.000000	 1.201725 
925.000000	 1.199769 
924.000000	 1.197791 
923.000000	 1.195740 
922.000000	 1.193571 
921.000000	 1.191234 
920.000000	 1.188659 
919.000000	 1.185822 
918.000000	 1.182675 
917.000000	 1.179242 
916.000000	 1.175570 
915.000000	 1.171660 
914.000000	 1.167583 
913.000000	 1.163434 
912.000000	 1.159286 
911.000000	 1.155233 
910.000000	 1.151394 
909.000000	 1.147770 
908.000000	 1.144456 
907.000000	 1.141500 
906.000000	 1.138925 
905.000000	 1.136684 
904.000000	 1.134777 
903.000000	 1.133131 
902.000000	 1.131677 
901.000000	 1.130342 
900.000000	 1.129102 
899.000000	 1.127886 
898.000000	 1.126694 
897.000000	 1.125407 
896.000000	 1.124048 
895.000000	 1.122474 
894.000000	 1.120543 
893.000000	 1.118206 
892.000000	 1.115274 
891.000000	 1.111650 
890.000000	 1.107144 
889.000000	 1.101732 
888.000000	 1.095414 
887.000000	 1.088190 
886.000000	 1.080155 
885.000000	 1.071476 
884.000000	 1.062369 
883.000000	 1.053047 
882.000000	 1.043772 
881.000000	 1.034879 
880.000000	 1.026678 
879.000000	 1.019477 
878.000000	 1.013588 
877.000000	 1.009202 
876.000000	 1.006579 
875.000000	 1.005792 
874.000000	 1.006817 
873.000000	 1.009607 
872.000000	 1.013851 
871.000000	 1.019287 
870.000000	 1.025509 
869.000000	 1.032137 
868.000000	 1.038765 
867.000000	 1.045083 
866.000000	 1.050758 
865.000000	 1.055669 
864.000000	 1.059675 
863.000000	 1.062822 
862.000000	 1.065135 
861.000000	 1.066684 
860.000000	 1.067638 
859.000000	 1.068043 
858.000000	 1.068091 
857.000000	 1.067733 
856.000000	 1.067185 
855.000000	 1.066350 
854.000000	 1.065373 
853.000000	 1.064252 
852.000000	 1.062989 
851.000000	 1.061630 
850.000000	 1.060247 
849.000000	 1.058864 
848.000000	 1.057410 
847.000000	 1.055884 
846.000000	 1.054310 
845.000000	 1.052570 
844.000000	 1.050567 
843.000000	 1.048183 
842.000000	 1.045274 
841.000000	 1.041674 
840.000000	 1.037049 
839.000000	 1.031279 
838.000000	 1.024007 
837.000000	 1.015067 
836.000000	 1.004195 
835.000000	 0.991272 
834.000000	 0.976324 
833.000000	 0.959467 
832.000000	 0.941038 
831.000000	 0.921559 
830.000000	 0.901746 
829.000000	 0.882482 
828.000000	 0.864768 
827.000000	 0.849580 
826.000000	 0.837779 
825.000000	 0.830078 
824.000000	 0.826740 
823.000000	 0.827789 
822.000000	 0.832819 
821.000000	 0.841140 
820.000000	 0.851774 
819.000000	 0.863671 
818.000000	 0.875854 
817.000000	 0.887441 
816.000000	 0.897812 
815.000000	 0.906610 
814.000000	 0.913667 
813.000000	 0.919032 
812.000000	 0.922918 
811.000000	 0.925564 
810.000000	 0.927209 
809.000000	 0.928020 
808.000000	 0.928235 
807.000000	 0.928020 
806.000000	 0.927543 
805.000000	 0.926852 
804.000000	 0.926113 
803.000000	 0.925445 
802.000000	 0.924992 
801.000000	 0.924706 
800.000000	 0.924754 
799.000000	 0.925135 
798.000000	 0.925898 
797.000000	 0.927019 
796.000000	 0.928497 
795.000000	 0.930333 
794.000000	 0.932502 
793.000000	 0.934910 
792.000000	 0.937533 
791.000000	 0.940299 
790.000000	 0.943088 
789.000000	 0.945878 
788.000000	 0.948452 
787.000000	 0.950837 
786.000000	 0.952959 
785.000000	 0.954699 
784.000000	 0.956106 
783.000000	 0.957131 
782.000000	 0.957846 
781.000000	 0.958275 
780.000000	 0.958395 
779.000000	 0.958228 
778.000000	 0.957870 
777.000000	 0.957345 
776.000000	 0.956606 
775.000000	 0.955748 
774.000000	 0.954771 
773.000000	 0.953698 
772.000000	 0.952601 
771.000000	 0.951528 
770.000000	 0.950527 
769.000000	 0.949621 
768.000000	 0.948810 
767.000000	 0.948023 
766.000000	 0.947356 
765.000000	 0.946712 
764.000000	 0.945973 
763.000000	 0.945138 
762.000000	 0.944256 
761.000000	 0.943255 
760.000000	 0.942158 
759.000000	 0.941038 
758.000000	 0.939917 
757.000000	 0.938820 
756.000000	 0.937747 
755.000000	 0.936770 
754.000000	 0.935840 
753.000000	 0.934863 
752.000000	 0.933885 
751.000000	 0.932836 
750.000000	 0.931692 
749.000000	 0.930380 
748.000000	 0.928950 
747.000000	 0.927352 
746.000000	 0.925612 
745.000000	 0.923752 
744.000000	 0.921797 
743.000000	 0.919771 
742.000000	 0.917673 
741.000000	 0.915598 
740.000000	 0.913500 
739.000000	 0.911402 
738.000000	 0.909304 
737.000000	 0.907111 
736.000000	 0.904870 
735.000000	 0.902533 
734.000000	 0.900125 
733.000000	 0.897502 
732.000000	 0.894808 
731.000000	 0.892019 
730.000000	 0.889158 
729.000000	 0.886201 
728.000000	 0.883221 
727.000000	 0.880265 
726.000000	 0.877308 
725.000000	 0.874423 
724.000000	 0.871562 
723.000000	 0.868749 
722.000000	 0.865936 
721.000000	 0.863099 
720.000000	 0.860238 
719.000000	 0.857329 
718.000000	 0.854420 
717.000000	 0.851488 
716.000000	 0.848531 
715.000000	 0.845575 
714.000000	 0.842642 
713.000000	 0.839686 
712.000000	 0.836706 
711.000000	 0.833702 
710.000000	 0.830578 
709.000000	 0.827383 
708.000000	 0.824117 
707.000000	 0.820755 
706.000000	 0.817275 
705.000000	 0.813722 
704.000000	 0.810146 
703.000000	 0.806474 
702.000000	 0.802683 
701.000000	 0.798749 
700.000000	 0.794649 
699.000000	 0.790238 
698.000000	 0.785517 
697.000000	 0.780224 
696.000000	 0.774359 
695.000000	 0.767850 
694.000000	 0.760746 
693.000000	 0.753211 
692.000000	 0.745487 
691.000000	 0.737953 
690.000000	 0.730967 
689.000000	 0.724959 
688.000000	 0.720143 
687.000000	 0.716710 
686.000000	 0.714635 
685.000000	 0.713777 
684.000000	 0.713825 
683.000000	 0.714468 
682.000000	 0.715303 
681.000000	 0.716090 
680.000000	 0.716614 
679.000000	 0.716686 
678.000000	 0.716280 
677.000000	 0.715398 
676.000000	 0.714087 
675.000000	 0.712442 
674.000000	 0.710487 
673.000000	 0.708341 
672.000000	 0.706052 
671.000000	 0.703716 
670.000000	 0.701332 
669.000000	 0.698995 
668.000000	 0.696730 
667.000000	 0.694537 
666.000000	 0.692415 
665.000000	 0.690388 
664.000000	 0.688409 
663.000000	 0.686454 
662.000000	 0.684475 
661.000000	 0.682473 
660.000000	 0.680422 
659.000000	 0.678324 
658.000000	 0.676178 
657.000000	 0.673937 
656.000000	 0.671625 
655.000000	 0.669169 
654.000000	 0.666594 
653.000000	 0.663924 
652.000000	 0.661134 
651.000000	 0.658249 
650.000000	 0.655317 
649.000000	 0.652337 
648.000000	 0.649404 
647.000000	 0.646519 
646.000000	 0.643777 
645.000000	 0.641179 
644.000000	 0.638699 
643.000000	 0.636386 
642.000000	 0.634193 
641.000000	 0.632023 
640.000000	 0.629830 
639.000000	 0.627517 
638.000000	 0.625061 
637.000000	 0.622415 
636.000000	 0.619578 
635.000000	 0.616621 
634.000000	 0.613546 
633.000000	 0.610494 
632.000000	 0.607466 
631.000000	 0.604557 
630.000000	 0.601768 
629.000000	 0.599098 
628.000000	 0.596523 
627.000000	 0.594019 
626.000000	 0.591540 
625.000000	 0.589108 
624.000000	 0.586581 
623.000000	 0.584053 
622.000000	 0.581407 
621.000000	 0.578689 
620.000000	 0.575780 
619.000000	 0.572729 
618.000000	 0.569438 
617.000000	 0.565886 
616.000000	 0.562024 
615.000000	 0.557804 
614.000000	 0.553250 
613.000000	 0.548386 
612.000000	 0.543260 
611.000000	 0.538015 
610.000000	 0.532746 
609.000000	 0.527691 
608.000000	 0.523018 
607.000000	 0.518918 
606.000000	 0.515532 
605.000000	 0.512933 
604.000000	 0.511097 
603.000000	 0.509929 
602.000000	 0.509333 
601.000000	 0.509095 
600.000000	 0.509023 
599.000000	 0.509023 
598.000000	 0.508832 
597.000000	 0.508522 
596.000000	 0.508022 
595.000000	 0.507426 
594.000000	 0.506711 
593.000000	 0.505971 
592.000000	 0.505161 
591.000000	 0.504374 
590.000000	 0.503516 
589.000000	 0.502586 
588.000000	 0.501561 
587.000000	 0.500416 
586.000000	 0.499153 
585.000000	 0.497817 
584.000000	 0.496530 
583.000000	 0.495290 
582.000000	 0.494146 
581.000000	 0.493121 
580.000000	 0.492262 
579.000000	 0.491523 
578.000000	 0.490927 
577.000000	 0.490355 
576.000000	 0.489807 
575.000000	 0.489258 
574.000000	 0.488662 
573.000000	 0.488018 
572.000000	 0.487256 
571.000000	 0.486326 
570.000000	 0.485253 
569.000000	 0.483989 
568.000000	 0.482559 
567.000000	 0.480914 
566.000000	 0.479125 
565.000000	 0.477266 
564.000000	 0.475335 
563.000000	 0.473403 
562.000000	 0.471472 
561.000000	 0.469541 
560.000000	 0.467658 
559.000000	 0.465798 
558.000000	 0.463938 
557.000000	 0.462102 
556.000000	 0.460243 
555.000000	 0.458383 
554.000000	 0.456571 
553.000000	 0.454735 
552.000000	 0.452971 
551.000000	 0.451231 
550.000000	 0.449562 
549.000000	 0.447916 
548.000000	 0.446319 
547.000000	 0.444769 
546.000000	 0.443291 
545.000000	 0.441813 
544.000000	 0.440311 
543.000000	 0.438833 
542.000000	 0.437331 
541.000000	 0.435781 
540.000000	 0.434136 
539.000000	 0.432491 
538.000000	 0.430798 
537.000000	 0.429105 
536.000000	 0.427412 
535.000000	 0.425672 
534.000000	 0.423908 
533.000000	 0.422024 
532.000000	 0.420022 
531.000000	 0.417804 
530.000000	 0.415396 
529.000000	 0.412797 
528.000000	 0.410079 
527.000000	 0.407290 
526.000000	 0.404524 
525.000000	 0.401902 
524.000000	 0.399398 
523.000000	 0.397062 
522.000000	 0.394845 
521.000000	 0.392723 
520.000000	 0.390720 
519.000000	 0.388669 
518.000000	 0.386571 
517.000000	 0.384402 
516.000000	 0.382137 
515.000000	 0.379729 
514.000000	 0.377202 
513.000000	 0.374579 
512.000000	 0.371861 
511.000000	 0.369071 
510.000000	 0.366258 
509.000000	 0.363516 
508.000000	 0.360822 
507.000000	 0.358247 
506.000000	 0.355839 
505.000000	 0.353574 
504.000000	 0.351381 
503.000000	 0.349259 
502.000000	 0.347137 
501.000000	 0.344920 
500.000000	 0.342559 
499.000000	 0.339961 
498.000000	 0.337195 
497.000000	 0.334215 
496.000000	 0.331068 
495.000000	 0.327730 
494.000000	 0.324201 
493.000000	 0.320529 
492.000000	 0.316691 
491.000000	 0.312638 
490.000000	 0.308370 
489.000000	 0.304007 
488.000000	 0.299549 
487.000000	 0.295042 
486.000000	 0.290632 
485.000000	 0.286340 
484.000000	 0.282287 
483.000000	 0.278425 
482.000000	 0.274705 
481.000000	 0.271105 
480.000000	 0.267601 
479.000000	 0.264143 
478.000000	 0.260734 
477.000000	 0.257396 
476.000000	 0.254154 
475.000000	 0.251030 
474.000000	 0.247979 
473.000000	 0.245070 
472.000000	 0.242209 
471.000000	 0.239324 
470.000000	 0.236392 
469.000000	 0.233316 
468.000000	 0.230121 
467.000000	 0.226855 
466.000000	 0.223565 
465.000000	 0.220251 
464.000000	 0.216960 
463.000000	 0.213670 
462.000000	 0.210332 
461.000000	 0.206923 
460.000000	 0.203394 
459.000000	 0.199723 
458.000000	 0.195980 
457.000000	 0.192213 
456.000000	 0.188517 
455.000000	 0.184988 
454.000000	 0.181674 
453.000000	 0.178527 
452.000000	 0.175547 
451.000000	 0.172615 
450.000000	 0.169682 
449.000000	 0.166702 
448.000000	 0.163722 
447.000000	 0.160837 
446.000000	 0.158190 
445.000000	 0.155830 
444.000000	 0.153899 
443.000000	 0.152397 
442.000000	 0.151228 
441.000000	 0.150227 
440.000000	 0.149202 
439.000000	 0.147962 
438.000000	 0.146365 
437.000000	 0.144338 
436.000000	 0.141882 
435.000000	 0.139093 
434.000000	 0.136113 
433.000000	 0.133061 
432.000000	 0.129961 
431.000000	 0.126910 
430.000000	 0.123858 
429.000000	 0.120806 
428.000000	 0.117588 
427.000000	 0.114178 
426.000000	 0.110530 
425.000000	 0.106644 
424.000000	 0.102496 
423.000000	 0.098228 
422.000000	 0.093984 
421.000000	 0.089788 
420.000000	 0.085806 
419.000000	 0.082039 
418.000000	 0.078535 
417.000000	 0.075268 
416.000000	 0.072240 
415.000000	 0.069451 
414.000000	 0.066804 
413.000000	 0.064349 
412.000000	 0.062036 
411.000000	 0.059914 
410.000000	 0.057864 
409.000000	 0.055861 
408.000000	 0.053930 
407.000000	 0.051951 
406.000000	 0.049948 
405.000000	 0.047969 
404.000000	 0.045943 
403.000000	 0.043988 
402.000000	 0.042057 
401.000000	 0.040221 
400.000000	 0.038456 
399.000000	 0.036835 
398.000000	 0.035309 
397.000000	 0.033831 
396.000000	 0.032424 
395.000000	 0.031065 
394.000000	 0.029730 
393.000000	 0.028371 
392.000000	 0.027012 
391.000000	 0.025629 
390.000000	 0.024199 
389.000000	 0.022673 
388.000000	 0.021123 
387.000000	 0.019574 
386.000000	 0.018000 
385.000000	 0.016546 
384.000000	 0.015282 
383.000000	 0.014257 
382.000000	 0.013470 
381.000000	 0.012993 
380.000000	 0.012660 
379.000000	 0.012445 
378.000000	 0.012326 
377.000000	 0.012207 
376.000000	 0.012016 
375.000000	 0.011801 
374.000000	 0.011587 
373.000000	 0.011372 
372.000000	 0.011229 
371.000000	 0.011134 
370.000000	 0.011110 

