PE IR       SPECTRUM    SPECTRUM    ASCII       PEDS        1.60        
  -1
C-9D6E~1.ASC
17/03/27
21:31:06.00
17/03/27
21:31:06.00
tln
$C-4040-8_t0086$<tbV0>[-7.8,5.2,8.0,0.0,27,1,0]
370.000000
64









2002,4.07    
MIRTGS : RIGHTBACK : INTERNAL 2
MIR : ON : INTERNAL 2
OPTKBR

0.200000
8
8.000000
FILLER
RATIO
SPECTRUM
UNLOCKED 256

DOUBLE
64
COMBINED
1
0
0


1.000000
RATIO


1
0
TRUE
51149
0
LEFT NOT FITTED RIGHT NOT FITTED 0
NONE
NONE
15600
12.000000
4.427000
51148
TRUE
1 0 8 72 0 0 0 0 

15798.010000






#HDR
-1
-1
#GR
CM-1
%T
0.00002384185791015625
0.0
5000.000000
-1.000000
4631
8
116.934108
-4.198217
#DATA
5000.000000	64.501595  
4999.000000	64.469099  
4998.000000	64.456057  
4997.000000	64.459848  
4996.000000	64.476704  
4995.000000	64.502215  
4994.000000	64.533734  
4993.000000	64.569950  
4992.000000	64.611649  
4991.000000	64.660048  
4990.000000	64.716386  
4989.000000	64.780235  
4988.000000	64.848923  
4987.000000	64.917278  
4986.000000	64.978146  
4985.000000	65.023708  
4984.000000	65.046381  
4983.000000	65.040588  
4982.000000	65.003657  
4981.000000	64.936709  
4980.000000	64.843821  
4979.000000	64.731907  
4978.000000	64.609432  
4977.000000	64.485931  
4976.000000	64.371275  
4975.000000	64.274692  
4974.000000	64.203763  
4973.000000	64.163923  
4972.000000	64.157819  
4971.000000	64.185428  
4970.000000	64.242672  
4969.000000	64.323306  
4968.000000	64.418506  
4967.000000	64.518952  
4966.000000	64.615297  
4965.000000	64.699912  
4964.000000	64.767384  
4963.000000	64.815235  
4962.000000	64.843392  
4961.000000	64.854240  
4960.000000	64.851355  
4959.000000	64.839458  
4958.000000	64.823555  
4957.000000	64.808750  
4956.000000	64.799332  
4955.000000	64.798855  
4954.000000	64.809155  
4953.000000	64.829635  
4952.000000	64.856743  
4951.000000	64.884328  
4950.000000	64.904451  
4949.000000	64.908409  
4948.000000	64.888787  
4947.000000	64.841651  
4946.000000	64.767599  
4945.000000	64.671659  
4944.000000	64.562892  
4943.000000	64.452958  
4942.000000	64.354062  
4941.000000	64.275956  
4940.000000	64.225244  
4939.000000	64.203476  
4938.000000	64.208841  
4937.000000	64.237141  
4936.000000	64.283299  
4935.000000	64.341545  
4934.000000	64.407682  
4933.000000	64.479064  
4932.000000	64.553713  
4931.000000	64.629006  
4930.000000	64.702415  
4929.000000	64.771056  
4928.000000	64.831781  
4927.000000	64.881467  
4926.000000	64.918017  
4925.000000	64.940738  
4924.000000	64.950728  
4923.000000	64.950513  
4922.000000	64.943766  
4921.000000	64.934396  
4920.000000	64.926600  
4919.000000	64.923906  
4918.000000	64.928817  
4917.000000	64.942097  
4916.000000	64.964556  
4915.000000	64.994525  
4914.000000	65.027642  
4913.000000	65.057206  
4912.000000	65.076422  
4911.000000	65.078186  
4910.000000	65.056729  
4909.000000	65.008664  
4908.000000	64.934492  
4907.000000	64.837360  
4906.000000	64.722967  
4905.000000	64.597725  
4904.000000	64.468026  
4903.000000	64.339947  
4902.000000	64.219164  
4901.000000	64.110112  
4900.000000	64.016151  
4899.000000	63.940382  
4898.000000	63.885736  
4897.000000	63.852787  
4896.000000	63.841199  
4895.000000	63.848352  
4894.000000	63.872885  
4893.000000	63.911986  
4892.000000	63.966774  
4891.000000	64.040899  
4890.000000	64.142060  
4889.000000	64.279174  
4888.000000	64.459133  
4887.000000	64.682912  
4886.000000	64.942622  
4885.000000	65.220904  
4884.000000	65.492844  
4883.000000	65.730738  
4882.000000	65.909290  
4881.000000	66.012382  
4880.000000	66.034746  
4879.000000	65.983748  
4878.000000	65.876102  
4877.000000	65.734553  
4876.000000	65.580201  
4875.000000	65.428400  
4874.000000	65.286517  
4873.000000	65.154719  
4872.000000	65.028119  
4871.000000	64.901018  
4870.000000	64.771461  
4869.000000	64.643788  
4868.000000	64.526772  
4867.000000	64.433336  
4866.000000	64.374351  
4865.000000	64.358043  
4864.000000	64.386105  
4863.000000	64.454126  
4862.000000	64.551496  
4861.000000	64.663934  
4860.000000	64.776229  
4859.000000	64.874672  
4858.000000	64.948010  
4857.000000	64.990425  
4856.000000	65.001249  
4855.000000	64.985108  
4854.000000	64.949607  
4853.000000	64.904499  
4852.000000	64.860200  
4851.000000	64.825415  
4850.000000	64.806318  
4849.000000	64.805364  
4848.000000	64.821696  
4847.000000	64.851522  
4846.000000	64.889526  
4845.000000	64.930176  
4844.000000	64.968919  
4843.000000	65.003490  
4842.000000	65.033841  
4841.000000	65.060710  
4840.000000	65.085172  
4839.000000	65.107631  
4838.000000	65.127611  
4837.000000	65.144014  
4836.000000	65.155148  
4835.000000	65.160727  
4834.000000	65.160894  
4833.000000	65.156793  
4832.000000	65.150165  
4831.000000	65.142488  
4830.000000	65.135908  
4829.000000	65.132546  
4828.000000	65.135049  
4827.000000	65.145516  
4826.000000	65.166711  
4825.000000	65.201544  
4824.000000	65.251970  
4823.000000	65.317940  
4822.000000	65.396285  
4821.000000	65.480399  
4820.000000	65.560650  
4819.000000	65.625786  
4818.000000	65.664982  
4817.000000	65.670251  
4816.000000	65.638780  
4815.000000	65.573692  
4814.000000	65.483450  
4813.000000	65.380382  
4812.000000	65.278220  
4811.000000	65.189218  
4810.000000	65.122556  
4809.000000	65.082144  
4808.000000	65.067458  
4807.000000	65.073299  
4806.000000	65.091848  
4805.000000	65.114092  
4804.000000	65.131568  
4803.000000	65.138173  
4802.000000	65.130639  
4801.000000	65.109181  
4800.000000	65.076231  
4799.000000	65.036249  
4798.000000	64.993953  
4797.000000	64.953947  
4796.000000	64.919900  
4795.000000	64.894437  
4794.000000	64.879179  
4793.000000	64.874744  
4792.000000	64.881086  
4791.000000	64.897942  
4790.000000	64.924740  
4789.000000	64.960527  
4788.000000	65.003919  
4787.000000	65.052962  
4786.000000	65.105581  
4785.000000	65.159273  
4784.000000	65.211606  
4783.000000	65.260171  
4782.000000	65.302538  
4781.000000	65.337491  
4780.000000	65.363669  
4779.000000	65.379762  
4778.000000	65.384602  
4777.000000	65.377950  
4776.000000	65.360784  
4775.000000	65.335559  
4774.000000	65.306210  
4773.000000	65.278291  
4772.000000	65.257358  
4771.000000	65.248370  
4770.000000	65.253996  
4769.000000	65.273976  
4768.000000	65.304994  
4767.000000	65.341472  
4766.000000	65.376567  
4765.000000	65.404009  
4764.000000	65.419530  
4763.000000	65.422153  
4762.000000	65.413928  
4761.000000	65.399718  
4760.000000	65.385723  
4759.000000	65.378141  
4758.000000	65.381574  
4757.000000	65.398120  
4756.000000	65.427255  
4755.000000	65.465688  
4754.000000	65.509009  
4753.000000	65.551805  
4752.000000	65.589618  
4751.000000	65.618968  
4750.000000	65.637803  
4749.000000	65.645742  
4748.000000	65.643692  
4747.000000	65.633440  
4746.000000	65.617108  
4745.000000	65.596485  
4744.000000	65.573048  
4743.000000	65.547299  
4742.000000	65.519189  
4741.000000	65.487599  
4740.000000	65.450859  
4739.000000	65.407228  
4738.000000	65.356063  
4737.000000	65.298271  
4736.000000	65.236735  
4735.000000	65.176415  
4734.000000	65.123748  
4733.000000	65.085601  
4732.000000	65.067982  
4731.000000	65.074133  
4730.000000	65.104055  
4729.000000	65.154051  
4728.000000	65.217423  
4727.000000	65.285587  
4726.000000	65.349602  
4725.000000	65.401887  
4724.000000	65.437150  
4723.000000	65.453147  
4722.000000	65.450716  
4721.000000	65.432667  
4720.000000	65.403485  
4719.000000	65.368032  
4718.000000	65.331244  
4717.000000	65.297698  
4716.000000	65.271520  
4715.000000	65.256381  
4714.000000	65.254759  
4713.000000	65.267920  
4712.000000	65.295290  
4711.000000	65.334534  
4710.000000	65.381407  
4709.000000	65.430378  
4708.000000	65.475535  
4707.000000	65.511584  
4706.000000	65.534734  
4705.000000	65.543627  
4704.000000	65.539145  
4703.000000	65.524792  
4702.000000	65.505242  
4701.000000	65.486097  
4700.000000	65.472292  
4699.000000	65.467762  
4698.000000	65.475177  
4697.000000	65.495467  
4696.000000	65.527868  
4695.000000	65.569972  
4694.000000	65.618729  
4693.000000	65.670156  
4692.000000	65.719890  
4691.000000	65.763735  
4690.000000	65.798187  
4689.000000	65.820980  
4688.000000	65.831160  
4687.000000	65.829062  
4686.000000	65.815830  
4685.000000	65.793514  
4684.000000	65.764570  
4683.000000	65.731430  
4682.000000	65.696167  
4681.000000	65.660691  
4680.000000	65.626454  
4679.000000	65.594768  
4678.000000	65.566420  
4677.000000	65.541911  
4676.000000	65.520691  
4675.000000	65.501737  
4674.000000	65.482974  
4673.000000	65.461540  
4672.000000	65.434694  
4671.000000	65.400004  
4670.000000	65.356850  
4669.000000	65.306091  
4668.000000	65.251159  
4667.000000	65.197110  
4666.000000	65.150403  
4665.000000	65.117192  
4664.000000	65.102529  
4663.000000	65.109205  
4662.000000	65.137171  
4661.000000	65.183210  
4660.000000	65.241956  
4659.000000	65.306806  
4658.000000	65.371036  
4657.000000	65.428733  
4656.000000	65.475606  
4655.000000	65.509366  
4654.000000	65.529775  
4653.000000	65.538072  
4652.000000	65.536451  
4651.000000	65.527200  
4650.000000	65.512895  
4649.000000	65.495419  
4648.000000	65.476608  
4647.000000	65.457487  
4646.000000	65.438938  
4645.000000	65.421247  
4644.000000	65.404272  
4643.000000	65.387678  
4642.000000	65.371203  
4641.000000	65.354824  
4640.000000	65.339112  
4639.000000	65.325140  
4638.000000	65.314245  
4637.000000	65.307617  
4636.000000	65.305924  
4635.000000	65.308499  
4634.000000	65.313529  
4633.000000	65.318584  
4632.000000	65.321207  
4631.000000	65.319895  
4630.000000	65.314507  
4629.000000	65.307068  
4628.000000	65.300750  
4627.000000	65.299296  
4626.000000	65.304970  
4625.000000	65.317583  
4624.000000	65.333652  
4623.000000	65.346860  
4622.000000	65.349459  
4621.000000	65.334558  
4620.000000	65.297937  
4619.000000	65.240311  
4618.000000	65.166974  
4617.000000	65.086936  
4616.000000	65.010547  
4615.000000	64.947366  
4614.000000	64.903140  
4613.000000	64.878582  
4612.000000	64.869332  
4611.000000	64.867424  
4610.000000	64.863467  
4609.000000	64.849472  
4608.000000	64.821052  
4607.000000	64.778351  
4606.000000	64.725899  
4605.000000	64.671134  
4604.000000	64.622378  
4603.000000	64.586734  
4602.000000	64.569091  
4601.000000	64.571547  
4600.000000	64.593362  
4599.000000	64.631748  
4598.000000	64.682459  
4597.000000	64.740943  
4596.000000	64.802670  
4595.000000	64.863729  
4594.000000	64.920806  
4593.000000	64.971446  
4592.000000	65.013957  
4591.000000	65.047168  
4590.000000	65.070652  
4589.000000	65.084266  
4588.000000	65.088725  
4587.000000	65.084886  
4586.000000	65.074253  
4585.000000	65.058422  
4584.000000	65.039587  
4583.000000	65.019917  
4582.000000	65.001678  
4581.000000	64.986515  
4580.000000	64.975547  
4579.000000	64.968323  
4578.000000	64.963102  
4577.000000	64.956712  
4576.000000	64.945459  
4575.000000	64.926457  
4574.000000	64.898729  
4573.000000	64.863824  
4572.000000	64.825701  
4571.000000	64.789557  
4570.000000	64.760708  
4569.000000	64.743351  
4568.000000	64.739465  
4567.000000	64.747977  
4566.000000	64.765262  
4565.000000	64.786481  
4564.000000	64.806032  
4563.000000	64.819240  
4562.000000	64.822793  
4561.000000	64.815330  
4560.000000	64.797186  
4559.000000	64.769697  
4558.000000	64.734649  
4557.000000	64.693927  
4556.000000	64.649105  
4555.000000	64.601731  
4554.000000	64.552831  
4553.000000	64.503240  
4552.000000	64.453125  
4551.000000	64.402413  
4550.000000	64.350342  
4549.000000	64.296531  
4548.000000	64.241361  
4547.000000	64.187335  
4546.000000	64.138770  
4545.000000	64.102506  
4544.000000	64.086556  
4543.000000	64.099168  
4542.000000	64.146018  
4541.000000	64.229106  
4540.000000	64.345049  
4539.000000	64.485692  
4538.000000	64.638638  
4537.000000	64.790248  
4536.000000	64.928078  
4535.000000	65.042853  
4534.000000	65.130424  
4533.000000	65.190386  
4532.000000	65.225815  
4531.000000	65.240144  
4530.000000	65.236496  
4529.000000	65.216064  
4528.000000	65.178775  
4527.000000	65.124130  
4526.000000	65.053224  
4525.000000	64.969372  
4524.000000	64.878916  
4523.000000	64.790272  
4522.000000	64.712786  
4521.000000	64.654040  
4520.000000	64.618253  
4519.000000	64.605140  
4518.000000	64.610171  
4517.000000	64.625859  
4516.000000	64.643669  
4515.000000	64.656281  
4514.000000	64.659214  
4513.000000	64.650893  
4512.000000	64.632678  
4511.000000	64.607143  
4510.000000	64.577579  
4509.000000	64.546895  
4508.000000	64.516973  
4507.000000	64.488458  
4506.000000	64.460873  
4505.000000	64.433956  
4504.000000	64.406776  
4503.000000	64.378905  
4502.000000	64.349842  
4501.000000	64.319586  
4500.000000	64.288115  
4499.000000	64.255452  
4498.000000	64.221358  
4497.000000	64.185619  
4496.000000	64.148497  
4495.000000	64.111280  
4494.000000	64.076113  
4493.000000	64.045929  
4492.000000	64.024376  
4491.000000	64.014935  
4490.000000	64.019775  
4489.000000	64.039087  
4488.000000	64.070582  
4487.000000	64.109921  
4486.000000	64.151048  
4485.000000	64.187669  
4484.000000	64.213848  
4483.000000	64.225888  
4482.000000	64.222836  
4481.000000	64.207029  
4480.000000	64.182996  
4479.000000	64.157295  
4478.000000	64.136981  
4477.000000	64.128088  
4476.000000	64.134597  
4475.000000	64.157152  
4474.000000	64.193248  
4473.000000	64.237809  
4472.000000	64.284658  
4471.000000	64.327716  
4470.000000	64.362168  
4469.000000	64.386248  
4468.000000	64.400863  
4467.000000	64.408612  
4466.000000	64.412665  
4465.000000	64.415502  
4464.000000	64.418148  
4463.000000	64.419841  
4462.000000	64.418005  
4461.000000	64.410233  
4460.000000	64.394021  
4459.000000	64.368700  
4458.000000	64.334249  
4457.000000	64.292740  
4456.000000	64.246177  
4455.000000	64.196920  
4454.000000	64.145827  
4453.000000	64.092040  
4452.000000	64.033651  
4451.000000	63.968801  
4450.000000	63.897180  
4449.000000	63.820052  
4448.000000	63.742804  
4447.000000	63.674259  
4446.000000	63.625526  
4445.000000	63.607239  
4444.000000	63.627624  
4443.000000	63.690090  
4442.000000	63.790845  
4441.000000	63.919115  
4440.000000	64.058899  
4439.000000	64.192414  
4438.000000	64.302325  
4437.000000	64.376187  
4436.000000	64.410161  
4435.000000	64.409112  
4434.000000	64.385223  
4433.000000	64.353322  
4432.000000	64.328122  
4431.000000	64.318060  
4430.000000	64.324140  
4429.000000	64.338850  
4428.000000	64.351153  
4427.000000	64.347219  
4426.000000	64.317607  
4425.000000	64.256262  
4424.000000	64.162278  
4423.000000	64.039802  
4422.000000	63.898062  
4421.000000	63.747549  
4420.000000	63.593387  
4419.000000	63.448143  
4418.000000	63.336491  
4417.000000	63.263297  
4416.000000	63.208293  
4415.000000	63.159751  
4414.000000	63.116359  
4413.000000	63.067054  
4412.000000	62.997603  
4411.000000	62.897419  
4410.000000	62.760281  
4409.000000	62.600088  
4408.000000	62.438607  
4407.000000	62.277555  
4406.000000	62.112140  
4405.000000	61.937379  
4404.000000	61.751937  
4403.000000	61.571550  
4402.000000	61.413931  
4401.000000	61.303257  
4400.000000	61.251521  
4399.000000	61.215996  
4398.000000	61.166667  
4397.000000	61.082482  
4396.000000	61.007499  
4395.000000	61.035275  
4394.000000	61.334729  
4393.000000	62.087655  
4392.000000	63.525843  
4391.000000	65.838575  
4390.000000	69.294404  
4389.000000	74.132370  
4388.000000	80.506658  
4387.000000	88.332629  
4386.000000	97.034621  
4385.000000	105.599999 
4384.000000	112.619805 
4383.000000	116.693782 
4382.000000	116.934108 
4381.000000	113.174152 
4380.000000	106.292629 
4379.000000	97.776436  
4378.000000	89.302325  
4377.000000	82.267165  
4376.000000	77.288007  
4375.000000	74.290966  
4374.000000	72.716975  
4373.000000	71.764826  
4372.000000	70.951032  
4371.000000	70.009803  
4370.000000	68.987655  
4369.000000	68.079829  
4368.000000	67.339110  
4367.000000	66.804862  
4366.000000	66.375398  
4365.000000	65.963912  
4364.000000	65.534400  
4363.000000	65.094542  
4362.000000	64.706921  
4361.000000	64.407753  
4360.000000	64.193558  
4359.000000	64.050221  
4358.000000	63.953638  
4357.000000	63.889026  
4356.000000	63.851332  
4355.000000	63.845038  
4354.000000	63.880729  
4353.000000	63.938999  
4352.000000	63.995003  
4351.000000	64.042425  
4350.000000	64.082574  
4349.000000	64.127254  
4348.000000	64.188647  
4347.000000	64.250469  
4346.000000	64.295887  
4345.000000	64.331650  
4344.000000	64.363694  
4343.000000	64.386630  
4342.000000	64.397811  
4341.000000	64.401721  
4340.000000	64.401793  
4339.000000	64.399051  
4338.000000	64.394640  
4337.000000	64.390540  
4336.000000	64.385962  
4335.000000	64.377856  
4334.000000	64.365339  
4333.000000	64.350724  
4332.000000	64.338064  
4331.000000	64.332890  
4330.000000	64.342451  
4329.000000	64.372682  
4328.000000	64.425563  
4327.000000	64.497637  
4326.000000	64.580774  
4325.000000	64.663171  
4324.000000	64.731836  
4323.000000	64.775609  
4322.000000	64.787840  
4321.000000	64.768004  
4320.000000	64.722084  
4319.000000	64.660525  
4318.000000	64.595532  
4317.000000	64.538145  
4316.000000	64.496302  
4315.000000	64.473223  
4314.000000	64.467310  
4313.000000	64.473986  
4312.000000	64.488029  
4311.000000	64.504837  
4310.000000	64.522004  
4309.000000	64.539146  
4308.000000	64.557528  
4307.000000	64.578628  
4306.000000	64.603114  
4305.000000	64.630293  
4304.000000	64.657926  
4303.000000	64.683675  
4302.000000	64.705085  
4301.000000	64.720177  
4300.000000	64.727449  
4299.000000	64.726257  
4298.000000	64.716434  
4297.000000	64.698600  
4296.000000	64.673352  
4295.000000	64.641880  
4294.000000	64.605093  
4293.000000	64.564394  
4292.000000	64.520764  
4291.000000	64.475369  
4290.000000	64.429044  
4289.000000	64.382910  
4288.000000	64.337849  
4287.000000	64.294433  
4286.000000	64.253330  
4285.000000	64.214968  
4284.000000	64.180493  
4283.000000	64.151453  
4282.000000	64.130902  
4281.000000	64.122867  
4280.000000	64.132165  
4279.000000	64.162993  
4278.000000	64.218354  
4277.000000	64.298558  
4276.000000	64.400243  
4275.000000	64.515924  
4274.000000	64.634490  
4273.000000	64.742946  
4272.000000	64.828228  
4271.000000	64.880323  
4270.000000	64.894533  
4269.000000	64.872193  
4268.000000	64.821147  
4267.000000	64.752721  
4266.000000	64.679908  
4265.000000	64.613366  
4264.000000	64.560604  
4263.000000	64.523053  
4262.000000	64.497447  
4261.000000	64.477014  
4260.000000	64.454913  
4259.000000	64.425873  
4258.000000	64.387989  
4257.000000	64.343333  
4256.000000	64.297342  
4255.000000	64.256668  
4254.000000	64.227080  
4253.000000	64.212250  
4252.000000	64.212656  
4251.000000	64.226198  
4250.000000	64.248728  
4249.000000	64.275813  
4248.000000	64.303445  
4247.000000	64.328455  
4246.000000	64.348816  
4245.000000	64.362239  
4244.000000	64.367246  
4243.000000	64.362549  
4242.000000	64.348316  
4241.000000	64.325690  
4240.000000	64.297866  
4239.000000	64.270138  
4238.000000	64.249110  
4237.000000	64.241647  
4236.000000	64.253044  
4235.000000	64.285373  
4234.000000	64.337110  
4233.000000	64.402961  
4232.000000	64.475560  
4231.000000	64.546632  
4230.000000	64.609503  
4229.000000	64.660358  
4228.000000	64.698958  
4227.000000	64.728188  
4226.000000	64.752960  
4225.000000	64.778232  
4224.000000	64.807534  
4223.000000	64.841341  
4222.000000	64.877748  
4221.000000	64.912366  
4220.000000	64.939451  
4219.000000	64.953112  
4218.000000	64.949679  
4217.000000	64.928388  
4216.000000	64.891219  
4215.000000	64.843297  
4214.000000	64.791989  
4213.000000	64.745640  
4212.000000	64.712238  
4211.000000	64.697265  
4210.000000	64.703321  
4209.000000	64.728212  
4208.000000	64.765930  
4207.000000	64.807009  
4206.000000	64.840960  
4205.000000	64.858102  
4204.000000	64.851474  
4203.000000	64.819192  
4202.000000	64.764690  
4201.000000	64.696812  
4200.000000	64.627814  
4199.000000	64.569997  
4198.000000	64.533090  
4197.000000	64.522433  
4196.000000	64.538526  
4195.000000	64.577007  
4194.000000	64.631414  
4193.000000	64.696049  
4192.000000	64.767980  
4191.000000	64.847636  
4190.000000	64.937257  
4189.000000	65.039205  
4188.000000	65.152549  
4187.000000	65.270781  
4186.000000	65.382504  
4185.000000	65.472412  
4184.000000	65.526652  
4183.000000	65.536499  
4182.000000	65.502786  
4181.000000	65.437531  
4180.000000	65.361309  
4179.000000	65.299773  
4178.000000	65.274572  
4177.000000	65.298223  
4176.000000	65.368461  
4175.000000	65.468907  
4174.000000	65.573263  
4173.000000	65.652728  
4172.000000	65.683889  
4171.000000	65.655136  
4170.000000	65.569353  
4169.000000	65.442919  
4168.000000	65.300178  
4167.000000	65.166974  
4166.000000	65.063405  
4165.000000	64.999604  
4164.000000	64.974951  
4163.000000	64.979290  
4162.000000	64.998531  
4161.000000	65.018773  
4160.000000	65.031003  
4159.000000	65.032744  
4158.000000	65.027093  
4157.000000	65.021300  
4156.000000	65.021347  
4155.000000	65.031480  
4154.000000	65.051794  
4153.000000	65.078544  
4152.000000	65.105962  
4151.000000	65.126752  
4150.000000	65.134644  
4149.000000	65.124964  
4148.000000	65.095901  
4147.000000	65.048003  
4146.000000	64.984178  
4145.000000	64.909291  
4144.000000	64.829421  
4143.000000	64.751315  
4142.000000	64.681792  
4141.000000	64.626407  
4140.000000	64.589595  
4139.000000	64.573979  
4138.000000	64.580583  
4137.000000	64.607954  
4136.000000	64.653253  
4135.000000	64.711284  
4134.000000	64.776682  
4133.000000	64.843845  
4132.000000	64.908814  
4131.000000	64.968419  
4130.000000	65.021657  
4129.000000	65.068483  
4128.000000	65.110397  
4127.000000	65.149497  
4126.000000	65.188145  
4125.000000	65.228486  
4124.000000	65.271568  
4123.000000	65.317201  
4122.000000	65.363550  
4121.000000	65.407967  
4120.000000	65.446853  
4119.000000	65.476536  
4118.000000	65.493726  
4117.000000	65.495967  
4116.000000	65.481758  
4115.000000	65.450835  
4114.000000	65.404748  
4113.000000	65.346813  
4112.000000	65.282058  
4111.000000	65.216565  
4110.000000	65.157389  
4109.000000	65.110754  
4108.000000	65.080690  
4107.000000	65.068387  
4106.000000	65.071558  
4105.000000	65.085816  
4104.000000	65.105271  
4103.000000	65.124773  
4102.000000	65.140414  
4101.000000	65.151190  
4100.000000	65.158748  
4099.000000	65.166568  
4098.000000	65.178012  
4097.000000	65.195250  
4096.000000	65.218091  
4095.000000	65.243673  
4094.000000	65.267133  
4093.000000	65.283370  
4092.000000	65.288734  
4091.000000	65.281987  
4090.000000	65.264940  
4089.000000	65.241599  
4088.000000	65.217232  
4087.000000	65.196490  
4086.000000	65.182399  
4085.000000	65.176272  
4084.000000	65.177726  
4083.000000	65.185689  
4082.000000	65.198874  
4081.000000	65.216350  
4080.000000	65.237927  
4079.000000	65.263485  
4078.000000	65.292882  
4077.000000	65.324950  
4076.000000	65.357923  
4075.000000	65.389251  
4074.000000	65.416288  
4073.000000	65.436887  
4072.000000	65.449857  
4071.000000	65.455627  
4070.000000	65.455460  
4069.000000	65.451288  
4068.000000	65.444588  
4067.000000	65.436172  
4066.000000	65.425634  
4065.000000	65.411615  
4064.000000	65.392708  
4063.000000	65.368080  
4062.000000	65.337610  
4061.000000	65.302300  
4060.000000	65.264344  
4059.000000	65.226387  
4058.000000	65.190815  
4057.000000	65.159153  
4056.000000	65.131902  
4055.000000	65.108704  
4054.000000	65.088152  
4053.000000	65.069293  
4052.000000	65.051174  
4051.000000	65.034246  
4050.000000	65.020179  
4049.000000	65.011954  
4048.000000	65.012407  
4047.000000	65.024209  
4046.000000	65.048384  
4045.000000	65.084242  
4044.000000	65.128993  
4043.000000	65.178608  
4042.000000	65.228605  
4041.000000	65.274715  
4040.000000	65.313720  
4039.000000	65.344357  
4038.000000	65.367221  
4037.000000	65.384578  
4036.000000	65.399599  
4035.000000	65.415835  
4034.000000	65.436196  
4033.000000	65.462756  
4032.000000	65.495681  
4031.000000	65.533328  
4030.000000	65.571975  
4029.000000	65.606832  
4028.000000	65.632629  
4027.000000	65.644383  
4026.000000	65.639042  
4025.000000	65.616130  
4024.000000	65.578579  
4023.000000	65.532422  
4022.000000	65.486097  
4021.000000	65.449047  
4020.000000	65.429210  
4019.000000	65.431833  
4018.000000	65.457177  
4017.000000	65.500760  
4016.000000	65.553665  
4015.000000	65.604758  
4014.000000	65.642738  
4013.000000	65.658593  
4012.000000	65.647625  
4011.000000	65.610265  
4010.000000	65.551781  
4009.000000	65.480947  
4008.000000	65.408301  
4007.000000	65.343546  
4006.000000	65.294122  
4005.000000	65.263652  
4004.000000	65.252041  
4003.000000	65.255904  
4002.000000	65.269827  
4001.000000	65.287852  
4000.000000	65.304827  
3999.000000	65.317440  
3998.000000	65.324139  
3997.000000	65.325403  
3996.000000	65.322756  
3995.000000	65.318250  
3994.000000	65.313434  
3993.000000	65.308737  
3992.000000	65.303134  
3991.000000	65.294885  
3990.000000	65.282106  
3989.000000	65.263438  
3988.000000	65.238738  
3987.000000	65.209817  
3986.000000	65.180158  
3985.000000	65.154623  
3984.000000	65.138196  
3983.000000	65.134692  
3982.000000	65.145707  
3981.000000	65.170264  
3980.000000	65.204787  
3979.000000	65.243744  
3978.000000	65.280985  
3977.000000	65.311074  
3976.000000	65.330457  
3975.000000	65.338468  
3974.000000	65.337014  
3973.000000	65.329480  
3972.000000	65.319657  
3971.000000	65.310859  
3970.000000	65.304827  
3969.000000	65.301918  
3968.000000	65.301251  
3967.000000	65.301561  
3966.000000	65.302085  
3965.000000	65.303349  
3964.000000	65.307092  
3963.000000	65.315961  
3962.000000	65.332269  
3961.000000	65.356993  
3960.000000	65.389037  
3959.000000	65.425181  
3958.000000	65.460276  
3957.000000	65.488433  
3956.000000	65.504479  
3955.000000	65.505123  
3954.000000	65.489602  
3953.000000	65.460085  
3952.000000	65.420961  
3951.000000	65.378141  
3950.000000	65.337944  
3949.000000	65.305685  
3948.000000	65.285158  
3947.000000	65.277624  
3946.000000	65.282344  
3945.000000	65.296292  
3944.000000	65.315055  
3943.000000	65.333485  
3942.000000	65.346860  
3941.000000	65.351676  
3940.000000	65.345954  
3939.000000	65.330314  
3938.000000	65.307331  
3937.000000	65.281414  
3936.000000	65.257573  
3935.000000	65.240693  
3934.000000	65.234375  
3933.000000	65.239858  
3932.000000	65.255761  
3931.000000	65.278387  
3930.000000	65.302610  
3929.000000	65.322804  
3928.000000	65.334224  
3927.000000	65.334272  
3926.000000	65.322899  
3925.000000	65.302395  
3924.000000	65.276837  
3923.000000	65.250945  
3922.000000	65.228962  
3921.000000	65.214109  
3920.000000	65.207839  
3919.000000	65.209555  
3918.000000	65.217304  
3917.000000	65.228796  
3916.000000	65.241694  
3915.000000	65.253901  
3914.000000	65.263819  
3913.000000	65.270280  
3912.000000	65.272402  
3911.000000	65.269398  
3910.000000	65.260624  
3909.000000	65.245604  
3908.000000	65.224337  
3907.000000	65.197825  
3906.000000	65.167856  
3905.000000	65.137052  
3904.000000	65.107727  
3903.000000	65.081858  
3902.000000	65.060067  
3901.000000	65.041875  
3900.000000	65.025854  
3899.000000	65.010714  
3898.000000	64.995622  
3897.000000	64.981126  
3896.000000	64.969515  
3895.000000	64.964532  
3894.000000	64.970254  
3893.000000	64.990139  
3892.000000	65.025997  
3891.000000	65.076947  
3890.000000	65.139412  
3889.000000	65.207171  
3888.000000	65.272784  
3887.000000	65.328407  
3886.000000	65.367650  
3885.000000	65.386271  
3884.000000	65.383243  
3883.000000	65.360569  
3882.000000	65.322899  
3881.000000	65.276408  
3880.000000	65.227746  
3879.000000	65.183043  
3878.000000	65.147137  
3877.000000	65.122389  
3876.000000	65.109014  
3875.000000	65.105080  
3874.000000	65.107607  
3873.000000	65.112900  
3872.000000	65.117788  
3871.000000	65.119910  
3870.000000	65.118360  
3869.000000	65.113449  
3868.000000	65.106487  
3867.000000	65.099024  
3866.000000	65.092492  
3865.000000	65.087413  
3864.000000	65.083408  
3863.000000	65.079474  
3862.000000	65.074300  
3861.000000	65.066432  
3860.000000	65.055346  
3859.000000	65.041160  
3858.000000	65.025186  
3857.000000	65.009570  
3856.000000	64.996957  
3855.000000	64.989542  
3854.000000	64.989352  
3853.000000	64.997696  
3852.000000	65.015053  
3851.000000	65.040922  
3850.000000	65.073871  
3849.000000	65.111494  
3848.000000	65.150642  
3847.000000	65.187788  
3846.000000	65.219068  
3845.000000	65.240883  
3844.000000	65.250349  
3843.000000	65.246057  
3842.000000	65.228629  
3841.000000	65.201115  
3840.000000	65.168333  
3839.000000	65.136551  
3838.000000	65.112185  
3837.000000	65.100693  
3836.000000	65.105772  
3835.000000	65.128111  
3834.000000	65.166020  
3833.000000	65.214943  
3832.000000	65.269041  
3831.000000	65.321588  
3830.000000	65.366172  
3829.000000	65.397953  
3828.000000	65.413928  
3827.000000	65.413975  
3826.000000	65.400266  
3825.000000	65.377163  
3824.000000	65.350174  
3823.000000	65.324759  
3822.000000	65.305066  
3821.000000	65.293097  
3820.000000	65.288281  
3819.000000	65.287494  
3818.000000	65.286064  
3817.000000	65.278935  
3816.000000	65.262269  
3815.000000	65.234661  
3814.000000	65.198135  
3813.000000	65.157341  
3812.000000	65.118908  
3811.000000	65.089559  
3810.000000	65.074419  
3809.000000	65.075469  
3808.000000	65.091252  
3807.000000	65.117192  
3806.000000	65.146756  
3805.000000	65.173220  
3804.000000	65.191197  
3803.000000	65.197706  
3802.000000	65.192675  
3801.000000	65.178346  
3800.000000	65.158629  
3799.000000	65.137910  
3798.000000	65.119671  
3797.000000	65.105867  
3796.000000	65.096640  
3795.000000	65.090584  
3794.000000	65.085816  
3793.000000	65.080714  
3792.000000	65.074539  
3791.000000	65.067839  
3790.000000	65.062403  
3789.000000	65.060639  
3788.000000	65.064716  
3787.000000	65.075778  
3786.000000	65.093541  
3785.000000	65.115857  
3784.000000	65.139174  
3783.000000	65.159201  
3782.000000	65.171933  
3781.000000	65.174603  
3780.000000	65.166449  
3779.000000	65.148782  
3778.000000	65.124940  
3777.000000	65.099096  
3776.000000	65.075182  
3775.000000	65.056157  
3774.000000	65.043210  
3773.000000	65.036034  
3772.000000	65.033459  
3771.000000	65.033936  
3770.000000	65.036249  
3769.000000	65.039730  
3768.000000	65.044403  
3767.000000	65.050601  
3766.000000	65.058732  
3765.000000	65.068769  
3764.000000	65.080237  
3763.000000	65.092229  
3762.000000	65.103697  
3761.000000	65.113782  
3760.000000	65.122032  
3759.000000	65.128731  
3758.000000	65.134406  
3757.000000	65.139603  
3756.000000	65.144681  
3755.000000	65.149641  
3754.000000	65.154266  
3753.000000	65.158057  
3752.000000	65.160727  
3751.000000	65.162324  
3750.000000	65.163254  
3749.000000	65.164065  
3748.000000	65.165233  
3747.000000	65.167140  
3746.000000	65.169906  
3745.000000	65.173435  
3744.000000	65.177726  
3743.000000	65.182852  
3742.000000	65.188741  
3741.000000	65.195178  
3740.000000	65.201425  
3739.000000	65.206408  
3738.000000	65.208697  
3737.000000	65.207266  
3736.000000	65.201258  
3735.000000	65.191054  
3734.000000	65.178203  
3733.000000	65.165662  
3732.000000	65.157055  
3731.000000	65.156102  
3730.000000	65.165853  
3729.000000	65.187859  
3728.000000	65.221333  
3727.000000	65.263390  
3726.000000	65.309643  
3725.000000	65.355014  
3724.000000	65.394711  
3723.000000	65.425300  
3722.000000	65.445208  
3721.000000	65.455055  
3720.000000	65.457177  
3719.000000	65.455031  
3718.000000	65.452075  
3717.000000	65.450882  
3716.000000	65.452718  
3715.000000	65.457081  
3714.000000	65.462088  
3713.000000	65.465092  
3712.000000	65.463471  
3711.000000	65.455532  
3710.000000	65.441107  
3709.000000	65.421414  
3708.000000	65.398645  
3707.000000	65.375709  
3706.000000	65.355134  
3705.000000	65.338373  
3704.000000	65.325260  
3703.000000	65.313959  
3702.000000	65.301632  
3701.000000	65.285229  
3700.000000	65.262889  
3699.000000	65.234684  
3698.000000	65.203189  
3697.000000	65.172839  
3696.000000	65.149188  
3695.000000	65.136981  
3694.000000	65.139341  
3693.000000	65.156245  
3692.000000	65.185022  
3691.000000	65.220761  
3690.000000	65.257668  
3689.000000	65.290188  
3688.000000	65.314197  
3687.000000	65.327548  
3686.000000	65.329837  
3685.000000	65.322208  
3684.000000	65.306377  
3683.000000	65.284395  
3682.000000	65.258002  
3681.000000	65.228891  
3680.000000	65.198945  
3679.000000	65.170502  
3678.000000	65.146470  
3677.000000	65.129923  
3676.000000	65.123343  
3675.000000	65.128135  
3674.000000	65.143656  
3673.000000	65.168142  
3672.000000	65.198278  
3671.000000	65.230774  
3670.000000	65.262722  
3669.000000	65.292644  
3668.000000	65.320420  
3667.000000	65.346932  
3666.000000	65.373396  
3665.000000	65.400290  
3664.000000	65.426850  
3663.000000	65.450787  
3662.000000	65.468645  
3661.000000	65.476560  
3660.000000	65.471220  
3659.000000	65.450954  
3658.000000	65.416622  
3657.000000	65.371274  
3656.000000	65.319800  
3655.000000	65.268111  
3654.000000	65.221905  
3653.000000	65.185523  
3652.000000	65.161347  
3651.000000	65.149736  
3650.000000	65.149211  
3649.000000	65.156841  
3648.000000	65.169310  
3647.000000	65.183281  
3646.000000	65.196323  
3645.000000	65.206861  
3644.000000	65.214276  
3643.000000	65.218329  
3642.000000	65.219211  
3641.000000	65.217375  
3640.000000	65.213227  
3639.000000	65.206909  
3638.000000	65.198683  
3637.000000	65.189361  
3636.000000	65.180110  
3635.000000	65.172672  
3634.000000	65.169358  
3633.000000	65.172576  
3632.000000	65.184545  
3631.000000	65.206766  
3630.000000	65.239238  
3629.000000	65.280604  
3628.000000	65.328097  
3627.000000	65.378046  
3626.000000	65.426397  
3625.000000	65.469574  
3624.000000	65.505170  
3623.000000	65.532183  
3622.000000	65.550947  
3621.000000	65.562200  
3620.000000	65.567469  
3619.000000	65.567302  
3618.000000	65.561556  
3617.000000	65.548729  
3616.000000	65.527248  
3615.000000	65.495562  
3614.000000	65.453457  
3613.000000	65.402364  
3612.000000	65.345740  
3611.000000	65.288472  
3610.000000	65.235996  
3609.000000	65.193390  
3608.000000	65.164089  
3607.000000	65.149855  
3606.000000	65.150499  
3605.000000	65.164303  
3604.000000	65.188503  
3603.000000	65.219902  
3602.000000	65.255475  
3601.000000	65.292334  
3600.000000	65.328145  
3599.000000	65.360498  
3598.000000	65.387201  
3597.000000	65.406370  
3596.000000	65.416622  
3595.000000	65.417623  
3594.000000	65.410327  
3593.000000	65.396881  
3592.000000	65.380501  
3591.000000	65.365123  
3590.000000	65.354490  
3589.000000	65.351390  
3588.000000	65.357089  
3587.000000	65.371513  
3586.000000	65.392994  
3585.000000	65.418767  
3584.000000	65.445351  
3583.000000	65.469360  
3582.000000	65.487694  
3581.000000	65.498208  
3580.000000	65.499854  
3579.000000	65.492868  
3578.000000	65.479016  
3577.000000	65.461325  
3576.000000	65.443825  
3575.000000	65.430927  
3574.000000	65.426993  
3573.000000	65.435266  
3572.000000	65.457224  
3571.000000	65.491962  
3570.000000	65.536332  
3569.000000	65.584850  
3568.000000	65.631318  
3567.000000	65.669298  
3566.000000	65.693473  
3565.000000	65.700316  
3564.000000	65.688872  
3563.000000	65.660238  
3562.000000	65.617561  
3561.000000	65.564870  
3560.000000	65.506863  
3559.000000	65.447807  
3558.000000	65.391445  
3557.000000	65.340304  
3556.000000	65.295863  
3555.000000	65.258646  
3554.000000	65.228581  
3553.000000	65.205407  
3552.000000	65.189003  
3551.000000	65.179514  
3550.000000	65.177130  
3549.000000	65.182232  
3548.000000	65.195155  
3547.000000	65.215873  
3546.000000	65.243721  
3545.000000	65.277385  
3544.000000	65.314698  
3543.000000	65.352797  
3542.000000	65.388250  
3541.000000	65.417623  
3540.000000	65.437698  
3539.000000	65.445947  
3538.000000	65.441155  
3537.000000	65.423798  
3536.000000	65.396022  
3535.000000	65.361595  
3534.000000	65.325117  
3533.000000	65.291619  
3532.000000	65.265417  
3531.000000	65.249514  
3530.000000	65.244889  
3529.000000	65.250444  
3528.000000	65.263414  
3527.000000	65.280222  
3526.000000	65.297198  
3525.000000	65.311741  
3524.000000	65.322875  
3523.000000	65.331339  
3522.000000	65.339350  
3521.000000	65.349364  
3520.000000	65.363335  
3519.000000	65.381455  
3518.000000	65.401959  
3517.000000	65.420866  
3516.000000	65.433073  
3515.000000	65.433406  
3514.000000	65.418124  
3513.000000	65.386271  
3512.000000	65.340042  
3511.000000	65.284681  
3510.000000	65.227341  
3509.000000	65.175557  
3508.000000	65.135717  
3507.000000	65.111660  
3506.000000	65.103745  
3505.000000	65.109181  
3504.000000	65.123081  
3503.000000	65.139770  
3502.000000	65.154147  
3501.000000	65.163016  
3500.000000	65.165400  
3499.000000	65.162491  
3498.000000	65.156698  
3497.000000	65.150475  
3496.000000	65.145325  
3495.000000	65.141201  
3494.000000	65.136384  
3493.000000	65.128207  
3492.000000	65.114116  
3491.000000	65.092825  
3490.000000	65.065145  
3489.000000	65.034008  
3488.000000	65.004396  
3487.000000	64.982032  
3486.000000	64.972615  
3485.000000	64.980053  
3484.000000	65.006256  
3483.000000	65.050601  
3482.000000	65.110206  
3481.000000	65.180611  
3480.000000	65.256285  
3479.000000	65.331411  
3478.000000	65.400409  
3477.000000	65.458655  
3476.000000	65.502667  
3475.000000	65.530228  
3474.000000	65.540981  
3473.000000	65.536355  
3472.000000	65.519452  
3471.000000	65.494656  
3470.000000	65.467262  
3469.000000	65.442371  
3468.000000	65.423989  
3467.000000	65.414190  
3466.000000	65.412950  
3465.000000	65.418076  
3464.000000	65.426087  
3463.000000	65.433359  
3462.000000	65.436887  
3461.000000	65.435266  
3460.000000	65.429115  
3459.000000	65.420722  
3458.000000	65.413308  
3457.000000	65.410089  
3456.000000	65.413403  
3455.000000	65.423679  
3454.000000	65.439510  
3453.000000	65.457439  
3452.000000	65.473246  
3451.000000	65.482640  
3450.000000	65.482258  
3449.000000	65.470910  
3448.000000	65.449953  
3447.000000	65.423178  
3446.000000	65.395927  
3445.000000	65.374159  
3444.000000	65.362834  
3443.000000	65.364837  
3442.000000	65.380120  
3441.000000	65.405416  
3440.000000	65.435028  
3439.000000	65.461802  
3438.000000	65.478944  
3437.000000	65.481758  
3436.000000	65.468788  
3435.000000	65.442252  
3434.000000	65.407109  
3433.000000	65.370273  
3432.000000	65.338373  
3431.000000	65.316128  
3430.000000	65.304923  
3429.000000	65.303063  
3428.000000	65.305972  
3427.000000	65.307784  
3426.000000	65.303421  
3425.000000	65.289974  
3424.000000	65.268254  
3423.000000	65.242314  
3422.000000	65.219068  
3421.000000	65.206050  
3420.000000	65.209746  
3419.000000	65.233540  
3418.000000	65.276455  
3417.000000	65.333151  
3416.000000	65.394973  
3415.000000	65.451693  
3414.000000	65.493369  
3413.000000	65.512347  
3412.000000	65.504741  
3411.000000	65.470933  
3410.000000	65.415096  
3409.000000	65.343976  
3408.000000	65.265536  
3407.000000	65.187025  
3406.000000	65.114474  
3405.000000	65.051579  
3404.000000	64.999961  
3403.000000	64.959740  
3402.000000	64.930152  
3401.000000	64.910697  
3400.000000	64.900946  
3399.000000	64.901375  
3398.000000	64.912247  
3397.000000	64.934253  
3396.000000	64.966797  
3395.000000	65.008902  
3394.000000	65.058231  
3393.000000	65.111899  
3392.000000	65.166711  
3391.000000	65.219593  
3390.000000	65.267992  
3389.000000	65.310215  
3388.000000	65.345335  
3387.000000	65.373063  
3386.000000	65.393304  
3385.000000	65.406084  
3384.000000	65.411186  
3383.000000	65.408492  
3382.000000	65.397596  
3381.000000	65.378737  
3380.000000	65.352249  
3379.000000	65.319323  
3378.000000	65.281653  
3377.000000	65.241503  
3376.000000	65.201616  
3375.000000	65.164422  
3374.000000	65.132212  
3373.000000	65.106773  
3372.000000	65.089416  
3371.000000	65.080571  
3370.000000	65.080237  
3369.000000	65.087914  
3368.000000	65.102910  
3367.000000	65.124297  
3366.000000	65.151095  
3365.000000	65.181994  
3364.000000	65.215373  
3363.000000	65.249228  
3362.000000	65.281176  
3361.000000	65.308499  
3360.000000	65.328955  
3359.000000	65.341067  
3358.000000	65.344238  
3357.000000	65.338897  
3356.000000	65.326595  
3355.000000	65.309429  
3354.000000	65.289688  
3353.000000	65.269446  
3352.000000	65.250301  
3351.000000	65.233397  
3350.000000	65.219235  
3349.000000	65.208315  
3348.000000	65.201139  
3347.000000	65.198588  
3346.000000	65.201449  
3345.000000	65.210771  
3344.000000	65.227270  
3343.000000	65.251135  
3342.000000	65.281510  
3341.000000	65.316605  
3340.000000	65.353465  
3339.000000	65.388536  
3338.000000	65.418243  
3337.000000	65.439319  
3336.000000	65.449309  
3335.000000	65.447020  
3334.000000	65.432906  
3333.000000	65.408706  
3332.000000	65.377283  
3331.000000	65.342307  
3330.000000	65.307545  
3329.000000	65.276598  
3328.000000	65.252113  
3327.000000	65.235733  
3326.000000	65.227484  
3325.000000	65.226078  
3324.000000	65.228819  
3323.000000	65.232229  
3322.000000	65.232443  
3321.000000	65.225720  
3320.000000	65.209460  
3319.000000	65.182423  
3318.000000	65.145492  
3317.000000	65.101408  
3316.000000	65.054917  
3315.000000	65.011525  
3314.000000	64.977407  
3313.000000	64.957952  
3312.000000	64.957165  
3311.000000	64.976739  
3310.000000	65.016031  
3309.000000	65.072107  
3308.000000	65.140032  
3307.000000	65.213704  
3306.000000	65.286803  
3305.000000	65.353465  
3304.000000	65.408921  
3303.000000	65.449929  
3302.000000	65.474724  
3301.000000	65.482950  
3300.000000	65.475964  
3299.000000	65.456056  
3298.000000	65.426468  
3297.000000	65.390515  
3296.000000	65.352392  
3295.000000	65.315556  
3294.000000	65.282988  
3293.000000	65.256190  
3292.000000	65.235781  
3291.000000	65.221166  
3290.000000	65.210962  
3289.000000	65.203547  
3288.000000	65.197467  
3287.000000	65.192103  
3286.000000	65.187573  
3285.000000	65.184879  
3284.000000	65.185141  
3283.000000	65.189433  
3282.000000	65.197896  
3281.000000	65.209555  
3280.000000	65.222382  
3279.000000	65.233802  
3278.000000	65.241551  
3277.000000	65.243935  
3276.000000	65.240764  
3275.000000	65.233516  
3274.000000	65.225124  
3273.000000	65.219092  
3272.000000	65.218853  
3271.000000	65.227150  
3270.000000	65.245103  
3269.000000	65.272235  
3268.000000	65.306091  
3267.000000	65.343093  
3266.000000	65.379071  
3265.000000	65.410304  
3264.000000	65.434145  
3263.000000	65.449428  
3262.000000	65.456509  
3261.000000	65.457129  
3260.000000	65.453433  
3259.000000	65.447473  
3258.000000	65.440249  
3257.000000	65.431904  
3256.000000	65.421128  
3255.000000	65.406155  
3254.000000	65.385413  
3253.000000	65.358209  
3252.000000	65.325570  
3251.000000	65.290093  
3250.000000	65.255856  
3249.000000	65.227317  
3248.000000	65.208315  
3247.000000	65.200972  
3246.000000	65.204882  
3245.000000	65.217256  
3244.000000	65.233826  
3243.000000	65.249681  
3242.000000	65.260577  
3241.000000	65.263962  
3240.000000	65.259289  
3239.000000	65.248107  
3238.000000	65.233278  
3237.000000	65.218091  
3236.000000	65.205407  
3235.000000	65.196752  
3234.000000	65.192127  
3233.000000	65.190219  
3232.000000	65.189027  
3231.000000	65.186572  
3230.000000	65.181684  
3229.000000	65.174603  
3228.000000	65.166878  
3227.000000	65.161180  
3226.000000	65.160465  
3225.000000	65.167379  
3224.000000	65.183377  
3223.000000	65.208363  
3222.000000	65.240550  
3221.000000	65.276646  
3220.000000	65.312504  
3219.000000	65.344119  
3218.000000	65.368366  
3217.000000	65.383529  
3216.000000	65.389704  
3215.000000	65.388703  
3214.000000	65.383338  
3213.000000	65.376639  
3212.000000	65.370965  
3211.000000	65.367722  
3210.000000	65.366911  
3209.000000	65.367507  
3208.000000	65.367913  
3207.000000	65.366649  
3206.000000	65.362620  
3205.000000	65.355587  
3204.000000	65.345931  
3203.000000	65.334725  
3202.000000	65.323090  
3201.000000	65.311813  
3200.000000	65.301346  
3199.000000	65.291619  
3198.000000	65.282320  
3197.000000	65.273070  
3196.000000	65.263867  
3195.000000	65.255236  
3194.000000	65.248012  
3193.000000	65.243315  
3192.000000	65.242147  
3191.000000	65.245437  
3190.000000	65.253543  
3189.000000	65.266489  
3188.000000	65.283513  
3187.000000	65.303421  
3186.000000	65.324974  
3185.000000	65.346741  
3184.000000	65.367126  
3183.000000	65.384793  
3182.000000	65.398740  
3181.000000	65.408325  
3180.000000	65.413427  
3179.000000	65.414381  
3178.000000	65.411782  
3177.000000	65.406560  
3176.000000	65.399885  
3175.000000	65.392923  
3174.000000	65.386891  
3173.000000	65.383124  
3172.000000	65.382838  
3171.000000	65.387368  
3170.000000	65.398049  
3169.000000	65.416073  
3168.000000	65.442061  
3167.000000	65.475654  
3166.000000	65.515017  
3165.000000	65.557026  
3164.000000	65.597438  
3163.000000	65.631365  
3162.000000	65.654039  
3161.000000	65.661644  
3160.000000	65.652227  
3159.000000	65.626144  
3158.000000	65.585970  
3157.000000	65.536117  
3156.000000	65.482211  
3155.000000	65.430712  
3154.000000	65.387439  
3153.000000	65.356922  
3152.000000	65.341687  
3151.000000	65.342283  
3150.000000	65.357208  
3149.000000	65.383267  
3148.000000	65.416002  
3147.000000	65.450668  
3146.000000	65.482807  
3145.000000	65.509223  
3144.000000	65.528488  
3143.000000	65.540981  
3142.000000	65.549087  
3141.000000	65.556430  
3140.000000	65.567064  
3139.000000	65.584063  
3138.000000	65.609145  
3137.000000	65.641117  
3136.000000	65.676856  
3135.000000	65.710663  
3134.000000	65.736079  
3133.000000	65.746355  
3132.000000	65.736579  
3131.000000	65.704107  
3130.000000	65.649414  
3129.000000	65.576601  
3128.000000	65.492343  
3127.000000	65.405631  
3126.000000	65.325593  
3125.000000	65.260529  
3124.000000	65.216255  
3123.000000	65.195941  
3122.000000	65.199637  
3121.000000	65.224766  
3120.000000	65.266919  
3119.000000	65.320777  
3118.000000	65.381026  
3117.000000	65.443038  
3116.000000	65.503239  
3115.000000	65.558767  
3114.000000	65.607118  
3113.000000	65.646314  
3112.000000	65.674352  
3111.000000	65.689682  
3110.000000	65.690755  
3109.000000	65.677380  
3108.000000	65.650105  
3107.000000	65.611219  
3106.000000	65.563559  
3105.000000	65.510916  
3104.000000	65.456843  
3103.000000	65.404558  
3102.000000	65.356659  
3101.000000	65.315246  
3100.000000	65.282106  
3099.000000	65.258812  
3098.000000	65.246701  
3097.000000	65.246272  
3096.000000	65.257430  
3095.000000	65.279030  
3094.000000	65.308642  
3093.000000	65.342497  
3092.000000	65.376162  
3091.000000	65.405154  
3090.000000	65.425443  
3089.000000	65.434241  
3088.000000	65.430521  
3087.000000	65.415000  
3086.000000	65.390014  
3085.000000	65.358996  
3084.000000	65.325760  
3083.000000	65.293812  
3082.000000	65.265822  
3081.000000	65.243411  
3080.000000	65.227031  
3079.000000	65.216183  
3078.000000	65.209841  
3077.000000	65.207171  
3076.000000	65.207219  
3075.000000	65.210032  
3074.000000	65.216231  
3073.000000	65.227127  
3072.000000	65.243983  
3071.000000	65.267539  
3070.000000	65.297245  
3069.000000	65.331149  
3068.000000	65.366101  
3067.000000	65.398097  
3066.000000	65.423035  
3065.000000	65.437889  
3064.000000	65.441513  
3063.000000	65.434908  
3062.000000	65.421056  
3061.000000	65.404558  
3060.000000	65.390205  
3059.000000	65.382599  
3058.000000	65.384221  
3057.000000	65.395879  
3056.000000	65.415406  
3055.000000	65.439248  
3054.000000	65.462160  
3053.000000	65.479254  
3052.000000	65.486192  
3051.000000	65.480136  
3050.000000	65.460205  
3049.000000	65.427327  
3048.000000	65.384221  
3047.000000	65.334582  
3046.000000	65.282821  
3045.000000	65.233373  
3044.000000	65.190601  
3043.000000	65.158343  
3042.000000	65.139675  
3041.000000	65.136384  
3040.000000	65.148997  
3039.000000	65.176463  
3038.000000	65.216112  
3037.000000	65.263843  
3036.000000	65.314579  
3035.000000	65.363001  
3034.000000	65.404009  
3033.000000	65.433621  
3032.000000	65.449285  
3031.000000	65.450191  
3030.000000	65.437340  
3029.000000	65.412974  
3028.000000	65.380167  
3027.000000	65.342354  
3026.000000	65.303301  
3025.000000	65.266251  
3024.000000	65.234279  
3023.000000	65.209412  
3022.000000	65.193271  
3021.000000	65.185952  
3020.000000	65.186500  
3019.000000	65.192675  
3018.000000	65.201258  
3017.000000	65.208864  
3016.000000	65.212368  
3015.000000	65.210080  
3014.000000	65.201878  
3013.000000	65.189480  
3012.000000	65.175628  
3011.000000	65.163755  
3010.000000	65.156793  
3009.000000	65.156579  
3008.000000	65.163111  
3007.000000	65.174698  
3006.000000	65.188407  
3005.000000	65.201163  
3004.000000	65.210604  
3003.000000	65.215444  
3002.000000	65.215730  
3001.000000	65.212941  
3000.000000	65.209221  
2999.000000	65.206527  
2998.000000	65.206217  
2997.000000	65.208411  
2996.000000	65.212488  
2995.000000	65.217185  
2994.000000	65.221166  
2993.000000	65.223145  
2992.000000	65.222573  
2991.000000	65.219616  
2990.000000	65.215110  
2989.000000	65.210199  
2988.000000	65.206003  
2987.000000	65.203428  
2986.000000	65.202999  
2985.000000	65.204668  
2984.000000	65.207934  
2983.000000	65.211963  
2982.000000	65.215682  
2981.000000	65.217828  
2980.000000	65.217232  
2979.000000	65.212941  
2978.000000	65.204358  
2977.000000	65.191316  
2976.000000	65.174531  
2975.000000	65.155220  
2974.000000	65.134882  
2973.000000	65.115380  
2972.000000	65.098357  
2971.000000	65.085244  
2970.000000	65.076851  
2969.000000	65.073609  
2968.000000	65.075325  
2967.000000	65.081453  
2966.000000	65.091037  
2965.000000	65.103197  
2964.000000	65.116620  
2963.000000	65.130281  
2962.000000	65.143370  
2961.000000	65.155243  
2960.000000	65.165424  
2959.000000	65.173482  
2958.000000	65.178990  
2957.000000	65.181732  
2956.000000	65.181589  
2955.000000	65.178847  
2954.000000	65.174198  
2953.000000	65.168809  
2952.000000	65.164208  
2951.000000	65.162229  
2950.000000	65.164613  
2949.000000	65.172696  
2948.000000	65.186953  
2947.000000	65.206885  
2946.000000	65.230822  
2945.000000	65.256571  
2944.000000	65.281152  
2943.000000	65.301871  
2942.000000	65.315914  
2941.000000	65.321660  
2940.000000	65.317821  
2939.000000	65.303993  
2938.000000	65.280365  
2937.000000	65.248012  
2936.000000	65.208816  
2935.000000	65.165543  
2934.000000	65.121674  
2933.000000	65.081262  
2932.000000	65.047860  
2931.000000	65.024256  
2930.000000	65.011382  
2929.000000	65.008354  
2928.000000	65.012240  
2927.000000	65.018963  
2926.000000	65.023779  
2925.000000	65.022969  
2924.000000	65.014457  
2923.000000	64.998888  
2922.000000	64.978981  
2921.000000	64.959287  
2920.000000	64.944815  
2919.000000	64.939832  
2918.000000	64.946532  
2917.000000	64.964962  
2916.000000	64.992833  
2915.000000	65.026307  
2914.000000	65.060853  
2913.000000	65.092563  
2912.000000	65.118670  
2911.000000	65.138316  
2910.000000	65.151929  
2909.000000	65.161275  
2908.000000	65.168571  
2907.000000	65.175986  
2906.000000	65.185284  
2905.000000	65.197157  
2904.000000	65.211391  
2903.000000	65.227055  
2902.000000	65.243101  
2901.000000	65.258169  
2900.000000	65.270876  
2899.000000	65.280294  
2898.000000	65.285968  
2897.000000	65.287685  
2896.000000	65.285491  
2895.000000	65.279769  
2894.000000	65.270948  
2893.000000	65.259742  
2892.000000	65.246534  
2891.000000	65.231895  
2890.000000	65.215992  
2889.000000	65.198945  
2888.000000	65.180587  
2887.000000	65.160870  
2886.000000	65.140151  
2885.000000	65.119194  
2884.000000	65.099287  
2883.000000	65.082073  
2882.000000	65.069293  
2881.000000	65.062522  
2880.000000	65.062570  
2879.000000	65.069127  
2878.000000	65.081310  
2877.000000	65.097665  
2876.000000	65.116643  
2875.000000	65.136957  
2874.000000	65.157842  
2873.000000	65.179228  
2872.000000	65.201425  
2871.000000	65.224742  
2870.000000	65.249037  
2869.000000	65.273618  
2868.000000	65.297007  
2867.000000	65.317225  
2866.000000	65.332245  
2865.000000	65.340590  
2864.000000	65.341973  
2863.000000	65.337300  
2862.000000	65.328621  
2861.000000	65.318703  
2860.000000	65.310764  
2859.000000	65.307188  
2858.000000	65.309309  
2857.000000	65.316772  
2856.000000	65.327954  
2855.000000	65.339827  
2854.000000	65.348815  
2853.000000	65.351533  
2852.000000	65.345430  
2851.000000	65.329408  
2850.000000	65.304088  
2849.000000	65.271687  
2848.000000	65.235662  
2847.000000	65.199995  
2846.000000	65.168571  
2845.000000	65.144324  
2844.000000	65.128970  
2843.000000	65.122890  
2842.000000	65.125346  
2841.000000	65.134692  
2840.000000	65.148830  
2839.000000	65.165710  
2838.000000	65.183949  
2837.000000	65.202331  
2836.000000	65.220499  
2835.000000	65.238356  
2834.000000	65.256166  
2833.000000	65.274024  
2832.000000	65.291810  
2831.000000	65.309119  
2830.000000	65.325307  
2829.000000	65.339612  
2828.000000	65.351295  
2827.000000	65.359902  
2826.000000	65.365529  
2825.000000	65.368509  
2824.000000	65.369534  
2823.000000	65.369391  
2822.000000	65.368700  
2821.000000	65.367770  
2820.000000	65.366315  
2819.000000	65.363645  
2818.000000	65.358853  
2817.000000	65.351176  
2816.000000	65.340089  
2815.000000	65.325760  
2814.000000	65.309405  
2813.000000	65.293025  
2812.000000	65.279245  
2811.000000	65.270757  
2810.000000	65.269923  
2809.000000	65.278124  
2808.000000	65.295410  
2807.000000	65.320253  
2806.000000	65.349721  
2805.000000	65.379762  
2804.000000	65.406012  
2803.000000	65.424489  
2802.000000	65.432333  
2801.000000	65.428304  
2800.000000	65.413045  
2799.000000	65.388870  
2798.000000	65.359258  
2797.000000	65.328192  
2796.000000	65.299415  
2795.000000	65.275883  
2794.000000	65.259337  
2793.000000	65.250372  
2792.000000	65.248703  
2791.000000	65.253400  
2790.000000	65.263295  
2789.000000	65.277147  
2788.000000	65.293812  
2787.000000	65.312075  
2786.000000	65.330648  
2785.000000	65.348029  
2784.000000	65.362930  
2783.000000	65.373969  
2782.000000	65.380764  
2781.000000	65.383386  
2780.000000	65.383100  
2779.000000	65.382051  
2778.000000	65.382623  
2777.000000	65.387225  
2776.000000	65.397286  
2775.000000	65.413069  
2774.000000	65.433526  
2773.000000	65.456652  
2772.000000	65.479636  
2771.000000	65.499806  
2770.000000	65.514969  
2769.000000	65.523982  
2768.000000	65.526962  
2767.000000	65.524768  
2766.000000	65.518832  
2765.000000	65.510606  
2764.000000	65.501284  
2763.000000	65.491676  
2762.000000	65.482282  
2761.000000	65.473222  
2760.000000	65.464782  
2759.000000	65.457534  
2758.000000	65.452170  
2757.000000	65.449810  
2756.000000	65.451240  
2755.000000	65.457153  
2754.000000	65.467739  
2753.000000	65.482497  
2752.000000	65.500426  
2751.000000	65.519857  
2750.000000	65.538811  
2749.000000	65.555143  
2748.000000	65.566897  
2747.000000	65.572476  
2746.000000	65.570855  
2745.000000	65.561699  
2744.000000	65.545582  
2743.000000	65.523791  
2742.000000	65.498352  
2741.000000	65.471506  
2740.000000	65.445542  
2739.000000	65.422415  
2738.000000	65.403509  
2737.000000	65.389275  
2736.000000	65.379595  
2735.000000	65.373802  
2734.000000	65.371155  
2733.000000	65.370869  
2732.000000	65.372610  
2731.000000	65.376114  
2730.000000	65.381455  
2729.000000	65.388345  
2728.000000	65.396618  
2727.000000	65.405416  
2726.000000	65.413999  
2725.000000	65.421462  
2724.000000	65.427255  
2723.000000	65.431308  
2722.000000	65.434193  
2721.000000	65.436959  
2720.000000	65.440559  
2719.000000	65.445494  
2718.000000	65.451455  
2717.000000	65.457487  
2716.000000	65.461850  
2715.000000	65.462851  
2714.000000	65.459251  
2713.000000	65.450811  
2712.000000	65.438246  
2711.000000	65.423059  
2710.000000	65.407204  
2709.000000	65.392661  
2708.000000	65.380811  
2707.000000	65.372300  
2706.000000	65.366864  
2705.000000	65.363764  
2704.000000	65.361976  
2703.000000	65.360641  
2702.000000	65.359258  
2701.000000	65.358042  
2700.000000	65.357375  
2699.000000	65.358018  
2698.000000	65.360379  
2697.000000	65.364933  
2696.000000	65.371727  
2695.000000	65.380716  
2694.000000	65.391540  
2693.000000	65.403604  
2692.000000	65.416312  
2691.000000	65.429091  
2690.000000	65.441250  
2689.000000	65.452313  
2688.000000	65.462136  
2687.000000	65.470910  
2686.000000	65.479016  
2685.000000	65.486788  
2684.000000	65.494227  
2683.000000	65.500807  
2682.000000	65.505623  
2681.000000	65.507245  
2680.000000	65.504622  
2679.000000	65.497064  
2678.000000	65.485072  
2677.000000	65.470314  
2676.000000	65.455484  
2675.000000	65.444016  
2674.000000	65.438747  
2673.000000	65.441656  
2672.000000	65.452694  
2671.000000	65.469789  
2670.000000	65.489077  
2669.000000	65.505957  
2668.000000	65.516018  
2667.000000	65.516209  
2666.000000	65.505647  
2665.000000	65.485692  
2664.000000	65.459680  
2663.000000	65.432167  
2662.000000	65.407729  
2661.000000	65.390181  
2660.000000	65.381598  
2659.000000	65.382075  
2658.000000	65.389966  
2657.000000	65.402364  
2656.000000	65.415835  
2655.000000	65.427327  
2654.000000	65.434765  
2653.000000	65.437078  
2652.000000	65.434288  
2651.000000	65.427160  
2650.000000	65.416955  
2649.000000	65.404677  
2648.000000	65.391063  
2647.000000	65.376424  
2646.000000	65.360784  
2645.000000	65.344238  
2644.000000	65.327095  
2643.000000	65.310382  
2642.000000	65.295457  
2641.000000	65.284299  
2640.000000	65.278697  
2639.000000	65.280151  
2638.000000	65.289163  
2637.000000	65.305161  
2636.000000	65.326189  
2635.000000	65.349459  
2634.000000	65.371823  
2633.000000	65.390539  
2632.000000	65.403699  
2631.000000	65.410709  
2630.000000	65.412354  
2629.000000	65.410637  
2628.000000	65.407991  
2627.000000	65.406608  
2626.000000	65.407729  
2625.000000	65.411663  
2624.000000	65.417385  
2623.000000	65.423226  
2622.000000	65.427207  
2621.000000	65.428042  
2620.000000	65.425276  
2619.000000	65.419530  
2618.000000	65.412235  
2617.000000	65.405368  
2616.000000	65.400648  
2615.000000	65.399026  
2614.000000	65.400552  
2613.000000	65.404438  
2612.000000	65.409135  
2611.000000	65.413022  
2610.000000	65.414881  
2609.000000	65.414214  
2608.000000	65.411043  
2607.000000	65.405893  
2606.000000	65.399312  
2605.000000	65.391755  
2604.000000	65.383529  
2603.000000	65.374875  
2602.000000	65.365958  
2601.000000	65.357160  
2600.000000	65.349388  
2599.000000	65.343809  
2598.000000	65.341639  
2597.000000	65.343928  
2596.000000	65.351223  
2595.000000	65.363168  
2594.000000	65.378737  
2593.000000	65.396332  
2592.000000	65.414023  
2591.000000	65.430188  
2590.000000	65.443634  
2589.000000	65.453982  
2588.000000	65.461468  
2587.000000	65.466809  
2586.000000	65.470933  
2585.000000	65.474605  
2584.000000	65.478467  
2583.000000	65.482759  
2582.000000	65.487360  
2581.000000	65.491771  
2580.000000	65.495157  
2579.000000	65.496516  
2578.000000	65.494823  
2577.000000	65.488934  
2576.000000	65.477991  
2575.000000	65.461444  
2574.000000	65.439605  
2573.000000	65.413761  
2572.000000	65.386152  
2571.000000	65.359711  
2570.000000	65.337777  
2569.000000	65.323185  
2568.000000	65.317797  
2567.000000	65.321850  
2566.000000	65.334010  
2565.000000	65.351700  
2564.000000	65.371680  
2563.000000	65.390515  
2562.000000	65.405440  
2561.000000	65.414714  
2560.000000	65.417695  
2559.000000	65.414762  
2558.000000	65.407133  
2557.000000	65.396332  
2556.000000	65.384125  
2555.000000	65.371990  
2554.000000	65.361118  
2553.000000	65.352368  
2552.000000	65.346336  
2551.000000	65.343379  
2550.000000	65.343403  
2549.000000	65.346002  
2548.000000	65.350437  
2547.000000	65.355730  
2546.000000	65.361046  
2545.000000	65.365815  
2544.000000	65.369868  
2543.000000	65.373373  
2542.000000	65.376591  
2541.000000	65.380024  
2540.000000	65.383720  
2539.000000	65.387749  
2538.000000	65.392065  
2537.000000	65.396618  
2536.000000	65.401482  
2535.000000	65.406680  
2534.000000	65.412235  
2533.000000	65.417909  
2532.000000	65.423250  
2531.000000	65.427827  
2530.000000	65.431118  
2529.000000	65.432906  
2528.000000	65.433287  
2527.000000	65.432643  
2526.000000	65.431499  
2525.000000	65.430307  
2524.000000	65.429401  
2523.000000	65.428757  
2522.000000	65.428209  
2521.000000	65.427517  
2520.000000	65.426301  
2519.000000	65.424346  
2518.000000	65.421319  
2517.000000	65.417027  
2516.000000	65.410900  
2515.000000	65.401983  
2514.000000	65.388989  
2513.000000	65.370368  
2512.000000	65.345191  
2511.000000	65.313291  
2510.000000	65.276217  
2509.000000	65.236997  
2508.000000	65.200257  
2507.000000	65.171241  
2506.000000	65.154910  
2505.000000	65.154743  
2504.000000	65.171670  
2503.000000	65.203738  
2502.000000	65.246224  
2501.000000	65.292310  
2500.000000	65.334582  
2499.000000	65.366339  
2498.000000	65.383076  
2497.000000	65.383124  
2496.000000	65.367794  
2495.000000	65.341043  
2494.000000	65.308380  
2493.000000	65.275502  
2492.000000	65.247297  
2491.000000	65.226721  
2490.000000	65.214967  
2489.000000	65.211272  
2488.000000	65.213847  
2487.000000	65.220451  
2486.000000	65.229153  
2485.000000	65.238904  
2484.000000	65.249133  
2483.000000	65.260219  
2482.000000	65.272593  
2481.000000	65.286612  
2480.000000	65.302252  
2479.000000	65.318989  
2478.000000	65.335941  
2477.000000	65.351557  
2476.000000	65.364027  
2475.000000	65.371441  
2474.000000	65.372347  
2473.000000	65.365982  
2472.000000	65.352678  
2471.000000	65.333795  
2470.000000	65.311813  
2469.000000	65.289926  
2468.000000	65.271663  
2467.000000	65.260028  
2466.000000	65.256810  
2465.000000	65.262174  
2464.000000	65.274477  
2463.000000	65.290951  
2462.000000	65.308189  
2461.000000	65.322899  
2460.000000	65.332889  
2459.000000	65.337324  
2458.000000	65.336823  
2457.000000	65.332818  
2456.000000	65.327334  
2455.000000	65.321803  
2454.000000	65.317320  
2453.000000	65.314340  
2452.000000	65.313029  
2451.000000	65.313339  
2450.000000	65.315103  
2449.000000	65.318417  
2448.000000	65.323162  
2447.000000	65.329074  
2446.000000	65.335583  
2445.000000	65.341734  
2444.000000	65.346622  
2443.000000	65.349626  
2442.000000	65.351295  
2441.000000	65.353202  
2440.000000	65.358138  
2439.000000	65.368986  
2438.000000	65.387725  
2437.000000	65.414500  
2436.000000	65.447163  
2435.000000	65.481376  
2434.000000	65.511655  
2433.000000	65.532088  
2432.000000	65.538382  
2431.000000	65.528416  
2430.000000	65.502715  
2429.000000	65.464138  
2428.000000	65.417194  
2427.000000	65.367293  
2426.000000	65.319252  
2425.000000	65.277218  
2424.000000	65.243840  
2423.000000	65.220761  
2422.000000	65.208649  
2421.000000	65.207386  
2420.000000	65.216231  
2419.000000	65.233612  
2418.000000	65.257287  
2417.000000	65.284156  
2416.000000	65.310692  
2415.000000	65.333867  
2414.000000	65.351653  
2413.000000	65.363740  
2412.000000	65.371298  
2411.000000	65.376543  
2410.000000	65.382003  
2409.000000	65.389418  
2408.000000	65.399622  
2407.000000	65.412116  
2406.000000	65.425658  
2405.000000	65.438890  
2404.000000	65.450739  
2403.000000	65.461254  
2402.000000	65.471053  
2401.000000	65.481472  
2400.000000	65.493249  
2399.000000	65.506172  
2398.000000	65.518665  
2397.000000	65.527939  
2396.000000	65.530562  
2395.000000	65.523338  
2394.000000	65.504622  
2393.000000	65.474987  
2392.000000	65.437316  
2391.000000	65.396261  
2390.000000	65.357303  
2389.000000	65.325617  
2388.000000	65.305209  
2387.000000	65.298175  
2386.000000	65.304446  
2385.000000	65.321898  
2384.000000	65.347099  
2383.000000	65.375947  
2382.000000	65.404248  
2381.000000	65.428423  
2380.000000	65.445780  
2379.000000	65.454983  
2378.000000	65.455603  
2377.000000	65.448379  
2376.000000	65.434765  
2375.000000	65.416789  
2374.000000	65.396785  
2373.000000	65.376925  
2372.000000	65.359210  
2371.000000	65.344786  
2370.000000	65.334391  
2369.000000	65.327930  
2368.000000	65.324616  
2367.000000	65.323495  
2366.000000	65.323472  
2365.000000	65.323853  
2364.000000	65.324282  
2363.000000	65.324926  
2362.000000	65.326309  
2361.000000	65.329122  
2360.000000	65.333890  
2359.000000	65.340971  
2358.000000	65.350413  
2357.000000	65.362119  
2356.000000	65.375566  
2355.000000	65.390205  
2354.000000	65.405154  
2353.000000	65.419292  
2352.000000	65.431380  
2351.000000	65.439605  
2350.000000	65.442490  
2349.000000	65.439152  
2348.000000	65.429520  
2347.000000	65.414738  
2346.000000	65.397047  
2345.000000	65.379762  
2344.000000	65.366220  
2343.000000	65.359520  
2342.000000	65.361356  
2341.000000	65.371727  
2340.000000	65.388846  
2339.000000	65.409612  
2338.000000	65.430402  
2337.000000	65.447998  
2336.000000	65.460205  
2335.000000	65.466356  
2334.000000	65.467286  
2333.000000	65.464544  
2332.000000	65.459775  
2331.000000	65.454125  
2330.000000	65.447926  
2329.000000	65.440773  
2328.000000	65.431737  
2327.000000	65.420103  
2326.000000	65.405702  
2325.000000	65.389704  
2324.000000	65.373730  
2323.000000	65.360331  
2322.000000	65.352106  
2321.000000	65.351176  
2320.000000	65.358376  
2319.000000	65.373325  
2318.000000	65.394282  
2317.000000	65.418648  
2316.000000	65.443325  
2315.000000	65.465497  
2314.000000	65.482831  
2313.000000	65.494060  
2312.000000	65.498876  
2311.000000	65.497851  
2310.000000	65.492272  
2309.000000	65.483689  
2308.000000	65.473580  
2307.000000	65.463161  
2306.000000	65.453243  
2305.000000	65.444159  
2304.000000	65.435791  
2303.000000	65.427803  
2302.000000	65.419602  
2301.000000	65.410637  
2300.000000	65.400481  
2299.000000	65.388655  
2298.000000	65.375041  
2297.000000	65.359568  
2296.000000	65.342783  
2295.000000	65.325379  
2294.000000	65.308594  
2293.000000	65.293788  
2292.000000	65.282464  
2291.000000	65.275955  
2290.000000	65.275001  
2289.000000	65.279674  
2288.000000	65.289163  
2287.000000	65.301895  
2286.000000	65.315723  
2285.000000	65.328240  
2284.000000	65.337395  
2283.000000	65.341901  
2282.000000	65.341329  
2281.000000	65.336394  
2280.000000	65.328741  
2279.000000	65.320682  
2278.000000	65.314698  
2277.000000	65.312910  
2276.000000	65.316772  
2275.000000	65.326809  
2274.000000	65.342569  
2273.000000	65.362763  
2272.000000	65.385460  
2271.000000	65.408420  
2270.000000	65.429496  
2269.000000	65.446925  
2268.000000	65.459418  
2267.000000	65.466427  
2266.000000	65.467953  
2265.000000	65.464591  
2264.000000	65.457415  
2263.000000	65.447616  
2262.000000	65.436744  
2261.000000	65.426206  
2260.000000	65.417194  
2259.000000	65.410542  
2258.000000	65.406751  
2257.000000	65.405702  
2256.000000	65.407037  
2255.000000	65.409970  
2254.000000	65.413522  
2253.000000	65.416789  
2252.000000	65.419149  
2251.000000	65.420055  
2250.000000	65.419554  
2249.000000	65.417909  
2248.000000	65.415692  
2247.000000	65.413713  
2246.000000	65.412759  
2245.000000	65.413618  
2244.000000	65.416717  
2243.000000	65.422177  
2242.000000	65.429830  
2241.000000	65.439248  
2240.000000	65.449857  
2239.000000	65.460681  
2238.000000	65.470886  
2237.000000	65.479707  
2236.000000	65.486645  
2235.000000	65.491509  
2234.000000	65.494513  
2233.000000	65.496277  
2232.000000	65.497708  
2231.000000	65.499806  
2230.000000	65.503096  
2229.000000	65.507626  
2228.000000	65.512657  
2227.000000	65.516924  
2226.000000	65.518808  
2225.000000	65.516924  
2224.000000	65.510344  
2223.000000	65.499019  
2222.000000	65.483856  
2221.000000	65.466618  
2220.000000	65.449357  
2219.000000	65.434050  
2218.000000	65.422129  
2217.000000	65.414333  
2216.000000	65.410375  
2215.000000	65.409326  
2214.000000	65.409922  
2213.000000	65.410947  
2212.000000	65.411496  
2211.000000	65.411305  
2210.000000	65.410661  
2209.000000	65.410375  
2208.000000	65.411376  
2207.000000	65.414786  
2206.000000	65.421462  
2205.000000	65.431976  
2204.000000	65.446352  
2203.000000	65.463900  
2202.000000	65.483069  
2201.000000	65.501785  
2200.000000	65.517544  
2199.000000	65.527915  
2198.000000	65.530920  
2197.000000	65.525507  
2196.000000	65.511822  
2195.000000	65.490984  
2194.000000	65.465044  
2193.000000	65.436434  
2192.000000	65.407633  
2191.000000	65.380835  
2190.000000	65.357446  
2189.000000	65.338134  
2188.000000	65.322875  
2187.000000	65.311455  
2186.000000	65.303635  
2185.000000	65.299057  
2184.000000	65.297746  
2183.000000	65.299797  
2182.000000	65.305495  
2181.000000	65.314531  
2180.000000	65.326404  
2179.000000	65.340352  
2178.000000	65.355372  
2177.000000	65.370130  
2176.000000	65.383529  
2175.000000	65.394616  
2174.000000	65.403008  
2173.000000	65.409016  
2172.000000	65.413808  
2171.000000	65.418982  
2170.000000	65.426635  
2169.000000	65.438699  
2168.000000	65.456271  
2167.000000	65.479016  
2166.000000	65.505170  
2165.000000	65.531325  
2164.000000	65.553116  
2163.000000	65.565752  
2162.000000	65.565538  
2161.000000	65.550279  
2160.000000	65.519976  
2159.000000	65.476536  
2158.000000	65.423941  
2157.000000	65.366840  
2156.000000	65.309739  
2155.000000	65.256047  
2154.000000	65.207815  
2153.000000	65.165710  
2152.000000	65.129351  
2151.000000	65.098166  
2150.000000	65.072154  
2149.000000	65.052461  
2148.000000	65.041184  
2147.000000	65.041041  
2146.000000	65.054249  
2145.000000	65.081858  
2144.000000	65.123128  
2143.000000	65.175056  
2142.000000	65.232801  
2141.000000	65.290570  
2140.000000	65.342593  
2139.000000	65.384387  
2138.000000	65.413093  
2137.000000	65.428042  
2136.000000	65.430188  
2135.000000	65.421748  
2134.000000	65.405416  
2133.000000	65.383481  
2132.000000	65.357828  
2131.000000	65.330004  
2130.000000	65.301346  
2129.000000	65.273666  
2128.000000	65.249276  
2127.000000	65.231060  
2126.000000	65.221905  
2125.000000	65.223884  
2124.000000	65.237665  
2123.000000	65.261983  
2122.000000	65.293836  
2121.000000	65.328788  
2120.000000	65.362191  
2119.000000	65.390014  
2118.000000	65.409851  
2117.000000	65.421581  
2116.000000	65.427088  
2115.000000	65.429472  
2114.000000	65.432238  
2113.000000	65.438103  
2112.000000	65.448260  
2111.000000	65.462017  
2110.000000	65.477561  
2109.000000	65.492224  
2108.000000	65.503740  
2107.000000	65.510201  
2106.000000	65.511083  
2105.000000	65.506744  
2104.000000	65.498471  
2103.000000	65.487694  
2102.000000	65.475606  
2101.000000	65.462851  
2100.000000	65.449595  
2099.000000	65.435647  
2098.000000	65.420556  
2097.000000	65.403985  
2096.000000	65.386080  
2095.000000	65.367507  
2094.000000	65.349555  
2093.000000	65.333747  
2092.000000	65.321564  
2091.000000	65.314435  
2090.000000	65.313434  
2089.000000	65.318751  
2088.000000	65.329718  
2087.000000	65.344786  
2086.000000	65.362048  
2085.000000	65.378785  
2084.000000	65.392923  
2083.000000	65.402960  
2082.000000	65.408968  
2081.000000	65.412402  
2080.000000	65.415906  
2079.000000	65.422534  
2078.000000	65.435051  
2077.000000	65.455102  
2076.000000	65.482568  
2075.000000	65.515613  
2074.000000	65.550494  
2073.000000	65.582871  
2072.000000	65.607786  
2071.000000	65.621042  
2070.000000	65.619587  
2069.000000	65.602421  
2068.000000	65.570306  
2067.000000	65.525555  
2066.000000	65.471863  
2065.000000	65.413522  
2064.000000	65.354919  
2063.000000	65.299749  
2062.000000	65.251111  
2061.000000	65.211129  
2060.000000	65.180706  
2059.000000	65.160107  
2058.000000	65.148639  
2057.000000	65.145564  
2056.000000	65.149736  
2055.000000	65.160369  
2054.000000	65.176248  
2053.000000	65.196204  
2052.000000	65.218925  
2051.000000	65.243124  
2050.000000	65.266895  
2049.000000	65.288710  
2048.000000	65.307283  
2047.000000	65.322279  
2046.000000	65.333795  
2045.000000	65.342569  
2044.000000	65.349698  
2043.000000	65.356302  
2042.000000	65.363073  
2041.000000	65.370416  
2040.000000	65.378403  
2039.000000	65.387034  
2038.000000	65.396404  
2037.000000	65.406918  
2036.000000	65.419292  
2035.000000	65.434479  
2034.000000	65.453338  
2033.000000	65.476012  
2032.000000	65.501451  
2031.000000	65.527796  
2030.000000	65.552043  
2029.000000	65.570998  
2028.000000	65.581464  
2027.000000	65.581321  
2026.000000	65.569901  
2025.000000	65.548205  
2024.000000	65.518665  
2023.000000	65.484881  
2022.000000	65.450716  
2021.000000	65.419936  
2020.000000	65.395045  
2019.000000	65.377449  
2018.000000	65.366864  
2017.000000	65.361881  
2016.000000	65.360331  
2015.000000	65.359783  
2014.000000	65.358304  
2013.000000	65.355014  
2012.000000	65.350198  
2011.000000	65.344977  
2010.000000	65.340995  
2009.000000	65.339708  
2008.000000	65.341901  
2007.000000	65.347194  
2006.000000	65.353894  
2005.000000	65.359354  
2004.000000	65.360498  
2003.000000	65.354871  
2002.000000	65.341067  
2001.000000	65.319538  
2000.000000	65.292525  
1999.000000	65.263676  
1998.000000	65.237212  
1997.000000	65.217375  
1996.000000	65.207123  
1995.000000	65.207791  
1994.000000	65.218973  
1993.000000	65.238618  
1992.000000	65.263628  
1991.000000	65.290498  
1990.000000	65.315890  
1989.000000	65.337300  
1988.000000	65.353345  
1987.000000	65.363883  
1986.000000	65.369725  
1985.000000	65.372395  
1984.000000	65.373706  
1983.000000	65.375351  
1982.000000	65.378427  
1981.000000	65.383625  
1980.000000	65.390777  
1979.000000	65.399384  
1978.000000	65.408349  
1977.000000	65.416646  
1976.000000	65.423297  
1975.000000	65.427803  
1974.000000	65.429687  
1973.000000	65.429019  
1972.000000	65.425777  
1971.000000	65.419840  
1970.000000	65.410995  
1969.000000	65.398955  
1968.000000	65.383815  
1967.000000	65.366125  
1966.000000	65.347146  
1965.000000	65.329051  
1964.000000	65.314435  
1963.000000	65.305876  
1962.000000	65.305304  
1961.000000	65.313506  
1960.000000	65.329766  
1959.000000	65.352058  
1958.000000	65.377259  
1957.000000	65.401625  
1956.000000	65.421986  
1955.000000	65.436196  
1954.000000	65.443348  
1953.000000	65.444016  
1952.000000	65.439534  
1951.000000	65.431714  
1950.000000	65.422129  
1949.000000	65.411782  
1948.000000	65.401053  
1947.000000	65.389943  
1946.000000	65.378451  
1945.000000	65.366935  
1944.000000	65.356159  
1943.000000	65.347361  
1942.000000	65.341997  
1941.000000	65.341401  
1940.000000	65.346288  
1939.000000	65.356516  
1938.000000	65.371155  
1937.000000	65.388321  
1936.000000	65.405678  
1935.000000	65.420842  
1934.000000	65.431880  
1933.000000	65.437579  
1932.000000	65.437650  
1931.000000	65.432715  
1930.000000	65.424132  
1929.000000	65.413808  
1928.000000	65.403723  
1927.000000	65.395736  
1926.000000	65.390801  
1925.000000	65.389323  
1924.000000	65.390682  
1923.000000	65.393614  
1922.000000	65.396642  
1921.000000	65.398359  
1920.000000	65.398120  
1919.000000	65.395879  
1918.000000	65.392398  
1917.000000	65.388917  
1916.000000	65.386819  
1915.000000	65.386986  
1914.000000	65.389943  
1913.000000	65.395545  
1912.000000	65.403270  
1911.000000	65.412330  
1910.000000	65.422081  
1909.000000	65.432238  
1908.000000	65.442895  
1907.000000	65.454292  
1906.000000	65.466523  
1905.000000	65.479207  
1904.000000	65.491437  
1903.000000	65.501809  
1902.000000	65.508890  
1901.000000	65.511488  
1900.000000	65.509271  
1899.000000	65.502715  
1898.000000	65.493178  
1897.000000	65.482282  
1896.000000	65.471696  
1895.000000	65.462636  
1894.000000	65.455603  
1893.000000	65.450358  
1892.000000	65.446233  
1891.000000	65.442061  
1890.000000	65.436959  
1889.000000	65.430378  
1888.000000	65.422201  
1887.000000	65.412759  
1886.000000	65.402626  
1885.000000	65.392518  
1884.000000	65.382981  
1883.000000	65.374565  
1882.000000	65.367746  
1881.000000	65.363049  
1880.000000	65.360975  
1879.000000	65.362024  
1878.000000	65.366554  
1877.000000	65.374612  
1876.000000	65.385794  
1875.000000	65.399289  
1874.000000	65.413928  
1873.000000	65.428495  
1872.000000	65.441632  
1871.000000	65.452051  
1870.000000	65.458655  
1869.000000	65.460538  
1868.000000	65.457224  
1867.000000	65.448737  
1866.000000	65.435719  
1865.000000	65.419530  
1864.000000	65.402007  
1863.000000	65.385293  
1862.000000	65.371251  
1861.000000	65.361404  
1860.000000	65.356349  
1859.000000	65.355825  
1858.000000	65.358567  
1857.000000	65.362501  
1856.000000	65.365457  
1855.000000	65.365600  
1854.000000	65.362095  
1853.000000	65.355038  
1852.000000	65.345740  
1851.000000	65.336251  
1850.000000	65.328979  
1849.000000	65.326023  
1848.000000	65.328621  
1847.000000	65.336942  
1846.000000	65.349960  
1845.000000	65.365862  
1844.000000	65.382218  
1843.000000	65.396761  
1842.000000	65.407705  
1841.000000	65.414452  
1840.000000	65.417361  
1839.000000	65.417647  
1838.000000	65.417003  
1837.000000	65.416979  
1836.000000	65.418410  
1835.000000	65.421032  
1834.000000	65.423679  
1833.000000	65.424561  
1832.000000	65.421628  
1831.000000	65.413546  
1830.000000	65.399980  
1829.000000	65.381979  
1828.000000	65.361714  
1827.000000	65.342259  
1826.000000	65.326786  
1825.000000	65.318107  
1824.000000	65.318083  
1823.000000	65.327334  
1822.000000	65.345215  
1821.000000	65.370082  
1820.000000	65.399909  
1819.000000	65.432429  
1818.000000	65.465521  
1817.000000	65.497398  
1816.000000	65.526366  
1815.000000	65.551090  
1814.000000	65.570473  
1813.000000	65.583848  
1812.000000	65.590953  
1811.000000	65.592098  
1810.000000	65.587878  
1809.000000	65.579509  
1808.000000	65.568161  
1807.000000	65.555119  
1806.000000	65.541481  
1805.000000	65.528106  
1804.000000	65.515565  
1803.000000	65.504384  
1802.000000	65.494775  
1801.000000	65.486979  
1800.000000	65.480875  
1799.000000	65.476274  
1798.000000	65.472674  
1797.000000	65.469431  
1796.000000	65.465927  
1795.000000	65.461802  
1794.000000	65.457153  
1793.000000	65.452599  
1792.000000	65.449237  
1791.000000	65.448284  
1790.000000	65.450739  
1789.000000	65.456843  
1788.000000	65.465903  
1787.000000	65.476250  
1786.000000	65.485668  
1785.000000	65.491986  
1784.000000	65.493488  
1783.000000	65.489554  
1782.000000	65.480947  
1781.000000	65.469288  
1780.000000	65.456891  
1779.000000	65.445804  
1778.000000	65.437436  
1777.000000	65.431952  
1776.000000	65.428447  
1775.000000	65.424990  
1774.000000	65.419483  
1773.000000	65.410232  
1772.000000	65.396571  
1771.000000	65.379047  
1770.000000	65.359377  
1769.000000	65.340018  
1768.000000	65.323758  
1767.000000	65.313053  
1766.000000	65.309572  
1765.000000	65.313935  
1764.000000	65.325641  
1763.000000	65.343332  
1762.000000	65.364956  
1761.000000	65.388131  
1760.000000	65.410494  
1759.000000	65.430021  
1758.000000	65.445065  
1757.000000	65.454769  
1756.000000	65.458655  
1755.000000	65.456819  
1754.000000	65.449619  
1753.000000	65.437841  
1752.000000	65.422177  
1751.000000	65.403485  
1750.000000	65.382337  
1749.000000	65.359663  
1748.000000	65.336155  
1747.000000	65.312695  
1746.000000	65.290260  
1745.000000	65.270090  
1744.000000	65.253472  
1743.000000	65.241599  
1742.000000	65.235161  
1741.000000	65.234208  
1740.000000	65.238118  
1739.000000	65.245747  
1738.000000	65.255284  
1737.000000	65.264940  
1736.000000	65.273141  
1735.000000	65.279126  
1734.000000	65.282678  
1733.000000	65.284538  
1732.000000	65.285825  
1731.000000	65.287947  
1730.000000	65.291786  
1729.000000	65.297746  
1728.000000	65.305352  
1727.000000	65.313935  
1726.000000	65.322637  
1725.000000	65.331029  
1724.000000	65.339565  
1723.000000	65.349459  
1722.000000	65.362524  
1721.000000	65.380334  
1720.000000	65.403532  
1719.000000	65.431165  
1718.000000	65.460610  
1717.000000	65.487813  
1716.000000	65.507936  
1715.000000	65.516734  
1714.000000	65.511655  
1713.000000	65.492463  
1712.000000	65.461468  
1711.000000	65.423059  
1710.000000	65.382719  
1709.000000	65.345549  
1708.000000	65.315413  
1707.000000	65.293812  
1706.000000	65.280461  
1705.000000	65.273690  
1704.000000	65.271592  
1703.000000	65.272665  
1702.000000	65.276408  
1701.000000	65.283560  
1700.000000	65.295433  
1699.000000	65.312886  
1698.000000	65.336084  
1697.000000	65.363526  
1696.000000	65.392422  
1695.000000	65.419030  
1694.000000	65.439724  
1693.000000	65.452075  
1692.000000	65.455031  
1691.000000	65.449476  
1690.000000	65.437793  
1689.000000	65.422987  
1688.000000	65.407848  
1687.000000	65.394353  
1686.000000	65.383410  
1685.000000	65.374779  
1684.000000	65.367627  
1683.000000	65.360951  
1682.000000	65.353870  
1681.000000	65.345716  
1680.000000	65.336132  
1679.000000	65.325427  
1678.000000	65.313601  
1677.000000	65.301060  
1676.000000	65.288305  
1675.000000	65.276169  
1674.000000	65.265750  
1673.000000	65.258264  
1672.000000	65.254855  
1671.000000	65.256357  
1670.000000	65.263104  
1669.000000	65.274453  
1668.000000	65.288782  
1667.000000	65.303993  
1666.000000	65.317773  
1665.000000	65.328216  
1664.000000	65.334200  
1663.000000	65.335512  
1662.000000	65.332961  
1661.000000	65.327978  
1660.000000	65.322327  
1659.000000	65.317797  
1658.000000	65.315937  
1657.000000	65.317916  
1656.000000	65.324401  
1655.000000	65.335440  
1654.000000	65.350437  
1653.000000	65.368366  
1652.000000	65.387725  
1651.000000	65.406894  
1650.000000	65.423965  
1649.000000	65.437173  
1648.000000	65.444660  
1647.000000	65.445089  
1646.000000	65.437364  
1645.000000	65.421152  
1644.000000	65.396833  
1643.000000	65.365910  
1642.000000	65.330553  
1641.000000	65.293693  
1640.000000	65.258526  
1639.000000	65.228080  
1638.000000	65.204644  
1637.000000	65.189433  
1636.000000	65.182256  
1635.000000	65.181589  
1634.000000	65.184855  
1633.000000	65.189123  
1632.000000	65.191888  
1631.000000	65.191817  
1630.000000	65.188694  
1629.000000	65.183544  
1628.000000	65.178179  
1627.000000	65.174531  
1626.000000	65.173935  
1625.000000	65.176653  
1624.000000	65.181970  
1623.000000	65.188431  
1622.000000	65.194249  
1621.000000	65.197753  
1620.000000	65.197896  
1619.000000	65.194392  
1618.000000	65.187501  
1617.000000	65.178203  
1616.000000	65.167546  
1615.000000	65.156698  
1614.000000	65.146517  
1613.000000	65.138006  
1612.000000	65.132045  
1611.000000	65.129613  
1610.000000	65.131878  
1609.000000	65.139436  
1608.000000	65.152072  
1607.000000	65.168666  
1606.000000	65.187048  
1605.000000	65.204215  
1604.000000	65.216636  
1603.000000	65.221142  
1602.000000	65.215635  
1601.000000	65.199613  
1600.000000	65.174460  
1599.000000	65.143060  
1598.000000	65.109562  
1597.000000	65.078759  
1596.000000	65.055036  
1595.000000	65.041661  
1594.000000	65.040087  
1593.000000	65.050005  
1592.000000	65.069222  
1591.000000	65.094113  
1590.000000	65.120339  
1589.000000	65.143537  
1588.000000	65.160417  
1587.000000	65.168857  
1586.000000	65.168619  
1585.000000	65.161108  
1584.000000	65.149235  
1583.000000	65.136623  
1582.000000	65.126919  
1581.000000	65.122890  
1580.000000	65.125846  
1579.000000	65.135574  
1578.000000	65.150356  
1577.000000	65.167641  
1576.000000	65.184473  
1575.000000	65.198278  
1574.000000	65.207481  
1573.000000	65.211439  
1572.000000	65.210485  
1571.000000	65.205597  
1570.000000	65.197682  
1569.000000	65.187406  
1568.000000	65.174937  
1567.000000	65.160059  
1566.000000	65.142488  
1565.000000	65.122103  
1564.000000	65.099668  
1563.000000	65.076684  
1562.000000	65.055322  
1561.000000	65.037941  
1560.000000	65.026736  
1559.000000	65.022945  
1558.000000	65.026688  
1557.000000	65.036773  
1556.000000	65.050792  
1555.000000	65.065908  
1554.000000	65.079164  
1553.000000	65.088391  
1552.000000	65.092372  
1551.000000	65.090990  
1550.000000	65.085148  
1549.000000	65.076398  
1548.000000	65.066790  
1547.000000	65.058350  
1546.000000	65.052866  
1545.000000	65.051746  
1544.000000	65.055632  
1543.000000	65.064477  
1542.000000	65.077447  
1541.000000	65.093135  
1540.000000	65.109610  
1539.000000	65.124583  
1538.000000	65.135812  
1537.000000	65.141797  
1536.000000	65.141749  
1535.000000	65.135693  
1534.000000	65.124654  
1533.000000	65.110540  
1532.000000	65.095567  
1531.000000	65.082168  
1530.000000	65.072298  
1529.000000	65.067481  
1528.000000	65.068411  
1527.000000	65.075039  
1526.000000	65.086746  
1525.000000	65.102314  
1524.000000	65.120172  
1523.000000	65.138626  
1522.000000	65.155887  
1521.000000	65.170264  
1520.000000	65.180420  
1519.000000	65.185785  
1518.000000	65.186309  
1517.000000	65.182971  
1516.000000	65.177583  
1515.000000	65.172600  
1514.000000	65.170669  
1513.000000	65.173959  
1512.000000	65.183949  
1511.000000	65.200567  
1510.000000	65.222501  
1509.000000	65.247106  
1508.000000	65.271186  
1507.000000	65.291404  
1506.000000	65.305089  
1505.000000	65.310573  
1504.000000	65.307688  
1503.000000	65.297317  
1502.000000	65.281319  
1501.000000	65.261912  
1500.000000	65.241169  
1499.000000	65.220928  
1498.000000	65.202546  
1497.000000	65.187025  
1496.000000	65.175247  
1495.000000	65.168046  
1494.000000	65.166187  
1493.000000	65.170073  
1492.000000	65.179491  
1491.000000	65.193510  
1490.000000	65.210413  
1489.000000	65.227985  
1488.000000	65.243768  
1487.000000	65.255761  
1486.000000	65.262460  
1485.000000	65.263414  
1484.000000	65.258693  
1483.000000	65.249133  
1482.000000	65.235567  
1481.000000	65.219187  
1480.000000	65.200567  
1479.000000	65.180063  
1478.000000	65.157628  
1477.000000	65.133380  
1476.000000	65.107536  
1475.000000	65.080833  
1474.000000	65.054345  
1473.000000	65.029549  
1472.000000	65.008091  
1471.000000	64.991569  
1470.000000	64.981341  
1469.000000	64.978361  
1468.000000	64.982914  
1467.000000	64.995002  
1466.000000	65.013670  
1465.000000	65.037488  
1464.000000	65.064668  
1463.000000	65.093302  
1462.000000	65.121674  
1461.000000	65.148043  
1460.000000	65.171313  
1459.000000	65.189933  
1458.000000	65.202188  
1457.000000	65.205764  
1456.000000	65.198326  
1455.000000	65.177702  
1454.000000	65.142893  
1453.000000	65.094828  
1452.000000	65.036630  
1451.000000	64.973735  
1450.000000	64.913201  
1449.000000	64.862537  
1448.000000	64.828324  
1447.000000	64.814972  
1446.000000	64.823627  
1445.000000	64.852070  
1444.000000	64.895248  
1443.000000	64.946460  
1442.000000	64.998793  
1441.000000	65.046453  
1440.000000	65.085673  
1439.000000	65.115118  
1438.000000	65.135836  
1437.000000	65.149974  
1436.000000	65.160655  
1435.000000	65.170550  
1434.000000	65.181660  
1433.000000	65.195202  
1432.000000	65.211224  
1431.000000	65.229082  
1430.000000	65.247464  
1429.000000	65.265083  
1428.000000	65.280270  
1427.000000	65.291380  
1426.000000	65.296936  
1425.000000	65.295910  
1424.000000	65.288138  
1423.000000	65.274333  
1422.000000	65.256404  
1421.000000	65.237045  
1420.000000	65.219163  
1419.000000	65.205192  
1418.000000	65.196442  
1417.000000	65.192794  
1416.000000	65.192699  
1415.000000	65.193557  
1414.000000	65.192222  
1413.000000	65.186166  
1412.000000	65.173912  
1411.000000	65.155863  
1410.000000	65.133595  
1409.000000	65.110301  
1408.000000	65.089607  
1407.000000	65.075349  
1406.000000	65.070319  
1405.000000	65.076327  
1404.000000	65.093874  
1403.000000	65.122079  
1402.000000	65.158820  
1401.000000	65.200877  
1400.000000	65.244531  
1399.000000	65.285992  
1398.000000	65.321516  
1397.000000	65.348267  
1396.000000	65.364503  
1395.000000	65.370011  
1394.000000	65.365958  
1393.000000	65.354418  
1392.000000	65.337944  
1391.000000	65.318846  
1390.000000	65.298962  
1389.000000	65.278983  
1388.000000	65.258908  
1387.000000	65.238475  
1386.000000	65.217804  
1385.000000	65.198230  
1384.000000	65.182304  
1383.000000	65.173363  
1382.000000	65.174436  
1381.000000	65.187287  
1380.000000	65.211081  
1379.000000	65.242147  
1378.000000	65.274429  
1377.000000	65.300703  
1376.000000	65.314602  
1375.000000	65.312170  
1374.000000	65.293025  
1373.000000	65.260601  
1372.000000	65.221405  
1371.000000	65.183377  
1370.000000	65.154075  
1369.000000	65.138888  
1368.000000	65.139865  
1367.000000	65.155386  
1366.000000	65.181040  
1365.000000	65.211200  
1364.000000	65.240001  
1363.000000	65.262889  
1362.000000	65.277147  
1361.000000	65.281963  
1360.000000	65.277910  
1359.000000	65.266346  
1358.000000	65.248823  
1357.000000	65.226626  
1356.000000	65.201187  
1355.000000	65.173673  
1354.000000	65.145730  
1353.000000	65.119242  
1352.000000	65.096402  
1351.000000	65.079712  
1350.000000	65.071296  
1349.000000	65.072870  
1348.000000	65.084958  
1347.000000	65.107083  
1346.000000	65.137529  
1345.000000	65.173768  
1344.000000	65.212368  
1343.000000	65.249776  
1342.000000	65.282583  
1341.000000	65.307903  
1340.000000	65.323638  
1339.000000	65.328788  
1338.000000	65.323615  
1337.000000	65.309619  
1336.000000	65.289402  
1335.000000	65.266156  
1334.000000	65.243077  
1333.000000	65.222907  
1332.000000	65.207219  
1331.000000	65.196561  
1330.000000	65.189933  
1329.000000	65.185594  
1328.000000	65.181374  
1327.000000	65.175199  
1326.000000	65.165853  
1325.000000	65.153408  
1324.000000	65.139245  
1323.000000	65.125679  
1322.000000	65.115547  
1321.000000	65.111422  
1320.000000	65.114784  
1319.000000	65.125751  
1318.000000	65.142655  
1317.000000	65.162324  
1316.000000	65.180611  
1315.000000	65.193271  
1314.000000	65.196895  
1313.000000	65.189456  
1312.000000	65.170931  
1311.000000	65.143418  
1310.000000	65.110659  
1309.000000	65.077233  
1308.000000	65.047883  
1307.000000	65.026473  
1306.000000	65.015459  
1305.000000	65.015411  
1304.000000	65.025281  
1303.000000	65.042686  
1302.000000	65.064477  
1301.000000	65.087556  
1300.000000	65.109229  
1299.000000	65.127563  
1298.000000	65.141582  
1297.000000	65.150952  
1296.000000	65.155720  
1295.000000	65.156078  
1294.000000	65.152096  
1293.000000	65.143847  
1292.000000	65.131473  
1291.000000	65.115404  
1290.000000	65.096735  
1289.000000	65.077114  
1288.000000	65.058875  
1287.000000	65.044617  
1286.000000	65.036654  
1285.000000	65.036702  
1284.000000	65.045547  
1283.000000	65.062427  
1282.000000	65.085124  
1281.000000	65.110158  
1280.000000	65.133428  
1279.000000	65.150737  
1278.000000	65.158820  
1277.000000	65.155696  
1276.000000	65.141415  
1275.000000	65.117883  
1274.000000	65.088796  
1273.000000	65.058779  
1272.000000	65.032529  
1271.000000	65.013861  
1270.000000	65.004897  
1269.000000	65.005850  
1268.000000	65.014863  
1267.000000	65.028738  
1266.000000	65.043711  
1265.000000	65.056252  
1264.000000	65.064072  
1263.000000	65.066289  
1262.000000	65.063595  
1261.000000	65.057325  
1260.000000	65.049171  
1259.000000	65.040493  
1258.000000	65.031862  
1257.000000	65.023183  
1256.000000	65.013909  
1255.000000	65.003466  
1254.000000	64.991450  
1253.000000	64.978146  
1252.000000	64.964199  
1251.000000	64.950704  
1250.000000	64.939022  
1249.000000	64.930391  
1248.000000	64.925456  
1247.000000	64.924335  
1246.000000	64.926648  
1245.000000	64.931797  
1244.000000	64.939069  
1243.000000	64.948368  
1242.000000	64.959812  
1241.000000	64.974164  
1240.000000	64.992499  
1239.000000	65.015840  
1238.000000	65.044689  
1237.000000	65.078568  
1236.000000	65.115928  
1235.000000	65.153980  
1234.000000	65.189361  
1233.000000	65.218305  
1232.000000	65.237474  
1231.000000	65.244722  
1230.000000	65.239667  
1229.000000	65.223622  
1228.000000	65.199184  
1227.000000	65.169668  
1226.000000	65.138244  
1225.000000	65.107417  
1224.000000	65.078902  
1223.000000	65.053391  
1222.000000	65.031218  
1221.000000	65.012669  
1220.000000	64.998483  
1219.000000	64.989829  
1218.000000	64.988303  
1217.000000	64.994907  
1216.000000	65.010261  
1215.000000	65.033912  
1214.000000	65.064191  
1213.000000	65.098166  
1212.000000	65.131974  
1211.000000	65.161728  
1210.000000	65.183711  
1209.000000	65.195178  
1208.000000	65.194272  
1207.000000	65.180444  
1206.000000	65.154123  
1205.000000	65.116763  
1204.000000	65.070462  
1203.000000	65.018105  
1202.000000	64.963054  
1201.000000	64.909076  
1200.000000	64.860105  
1199.000000	64.820051  
1198.000000	64.792013  
1197.000000	64.778280  
1196.000000	64.779734  
1195.000000	64.795613  
1194.000000	64.823389  
1193.000000	64.859080  
1192.000000	64.897537  
1191.000000	64.933228  
1190.000000	64.960837  
1189.000000	64.976334  
1188.000000	64.977455  
1187.000000	64.964389  
1186.000000	64.939403  
1185.000000	64.906549  
1184.000000	64.870929  
1183.000000	64.837551  
1182.000000	64.810705  
1181.000000	64.793205  
1180.000000	64.786362  
1179.000000	64.789819  
1178.000000	64.802050  
1177.000000	64.820909  
1176.000000	64.844346  
1175.000000	64.870691  
1174.000000	64.898681  
1173.000000	64.927387  
1172.000000	64.955878  
1171.000000	64.983177  
1170.000000	65.007925  
1169.000000	65.028333  
1168.000000	65.042233  
1167.000000	65.047931  
1166.000000	65.044593  
1165.000000	65.032482  
1164.000000	65.013027  
1163.000000	64.989042  
1162.000000	64.963936  
1161.000000	64.941430  
1160.000000	64.924645  
1159.000000	64.915347  
1158.000000	64.913821  
1157.000000	64.918661  
1156.000000	64.927124  
1155.000000	64.935731  
1154.000000	64.940905  
1153.000000	64.939761  
1152.000000	64.930605  
1151.000000	64.913415  
1150.000000	64.889502  
1149.000000	64.861273  
1148.000000	64.831876  
1147.000000	64.804697  
1146.000000	64.783048  
1145.000000	64.769721  
1144.000000	64.766716  
1143.000000	64.774775  
1142.000000	64.793586  
1141.000000	64.821290  
1140.000000	64.854693  
1139.000000	64.889597  
1138.000000	64.921307  
1137.000000	64.945483  
1136.000000	64.958643  
1135.000000	64.958834  
1134.000000	64.946365  
1133.000000	64.923334  
1132.000000	64.893651  
1131.000000	64.861869  
1130.000000	64.832544  
1129.000000	64.809083  
1128.000000	64.793539  
1127.000000	64.786171  
1126.000000	64.785814  
1125.000000	64.790248  
1124.000000	64.797019  
1123.000000	64.803814  
1122.000000	64.809155  
1121.000000	64.812493  
1120.000000	64.813995  
1119.000000	64.814352  
1118.000000	64.814543  
1117.000000	64.815640  
1116.000000	64.818549  
1115.000000	64.823460  
1114.000000	64.829540  
1113.000000	64.835810  
1112.000000	64.840745  
1111.000000	64.842343  
1110.000000	64.838790  
1109.000000	64.828658  
1108.000000	64.811611  
1107.000000	64.788222  
1106.000000	64.760112  
1105.000000	64.730024  
1104.000000	64.700913  
1103.000000	64.675641  
1102.000000	64.655923  
1101.000000	64.642286  
1100.000000	64.633536  
1099.000000	64.627313  
1098.000000	64.620709  
1097.000000	64.610815  
1096.000000	64.596152  
1095.000000	64.577174  
1094.000000	64.556455  
1093.000000	64.538478  
1092.000000	64.529132  
1091.000000	64.534568  
1090.000000	64.559650  
1089.000000	64.606690  
1088.000000	64.675021  
1087.000000	64.760732  
1086.000000	64.856982  
1085.000000	64.955472  
1084.000000	65.047860  
1083.000000	65.127420  
1082.000000	65.189766  
1081.000000	65.233445  
1080.000000	65.259957  
1079.000000	65.272378  
1078.000000	65.275049  
1077.000000	65.271425  
1076.000000	65.263891  
1075.000000	65.252590  
1074.000000	65.237164  
1073.000000	65.215682  
1072.000000	65.186643  
1071.000000	65.148901  
1070.000000	65.103125  
1069.000000	65.050935  
1068.000000	64.994883  
1067.000000	64.937973  
1066.000000	64.883017  
1065.000000	64.832282  
1064.000000	64.787340  
1063.000000	64.749026  
1062.000000	64.717340  
1061.000000	64.691567  
1060.000000	64.670491  
1059.000000	64.652109  
1058.000000	64.634275  
1057.000000	64.614629  
1056.000000	64.591693  
1055.000000	64.563894  
1054.000000	64.531660  
1053.000000	64.497518  
1052.000000	64.465951  
1051.000000	64.441728  
1050.000000	64.429736  
1049.000000	64.433646  
1048.000000	64.454865  
1047.000000	64.491677  
1046.000000	64.540028  
1045.000000	64.594054  
1044.000000	64.647698  
1043.000000	64.695835  
1042.000000	64.734721  
1041.000000	64.762258  
1040.000000	64.778184  
1039.000000	64.783644  
1038.000000	64.780712  
1037.000000	64.771795  
1036.000000	64.760065  
1035.000000	64.748740  
1034.000000	64.740920  
1033.000000	64.738464  
1032.000000	64.742875  
1031.000000	64.753556  
1030.000000	64.767885  
1029.000000	64.781069  
1028.000000	64.787220  
1027.000000	64.780592  
1026.000000	64.756155  
1025.000000	64.712142  
1024.000000	64.650273  
1023.000000	64.576506  
1022.000000	64.499521  
1021.000000	64.429831  
1020.000000	64.377164  
1019.000000	64.349150  
1018.000000	64.349508  
1017.000000	64.377546  
1016.000000	64.428448  
1015.000000	64.494752  
1014.000000	64.568233  
1013.000000	64.641284  
1012.000000	64.707970  
1011.000000	64.765119  
1010.000000	64.812040  
1009.000000	64.849591  
1008.000000	64.879179  
1007.000000	64.902067  
1006.000000	64.918947  
1005.000000	64.930057  
1004.000000	64.935612  
1003.000000	64.936470  
1002.000000	64.934396  
1001.000000	64.932751  
1000.000000	64.935350  
999.000000	 64.946293  
998.000000	 64.968371  
997.000000	 65.002298  
996.000000	 65.045952  
995.000000	 65.095019  
994.000000	 65.142989  
993.000000	 65.182805  
992.000000	 65.207862  
991.000000	 65.213465  
990.000000	 65.197849  
989.000000	 65.162634  
988.000000	 65.112113  
987.000000	 65.052342  
986.000000	 64.990043  
985.000000	 64.931464  
984.000000	 64.881515  
983.000000	 64.843273  
982.000000	 64.817929  
981.000000	 64.804720  
980.000000	 64.801883  
979.000000	 64.807105  
978.000000	 64.817953  
977.000000	 64.832282  
976.000000	 64.848518  
975.000000	 64.865374  
974.000000	 64.881372  
973.000000	 64.894461  
972.000000	 64.901757  
971.000000	 64.899897  
970.000000	 64.885377  
969.000000	 64.856100  
968.000000	 64.812064  
967.000000	 64.756560  
966.000000	 64.695858  
965.000000	 64.638471  
964.000000	 64.593291  
963.000000	 64.567470  
962.000000	 64.565086  
961.000000	 64.585399  
960.000000	 64.623117  
959.000000	 64.669704  
958.000000	 64.715647  
957.000000	 64.752674  
956.000000	 64.775967  
955.000000	 64.785432  
954.000000	 64.785337  
953.000000	 64.782428  
952.000000	 64.783668  
951.000000	 64.794254  
950.000000	 64.815759  
949.000000	 64.845561  
948.000000	 64.877510  
947.000000	 64.904117  
946.000000	 64.918732  
945.000000	 64.917588  
944.000000	 64.901065  
943.000000	 64.873552  
942.000000	 64.842772  
941.000000	 64.817070  
940.000000	 64.804458  
939.000000	 64.810276  
938.000000	 64.836597  
937.000000	 64.882016  
936.000000	 64.942407  
935.000000	 65.012550  
934.000000	 65.086531  
933.000000	 65.158820  
932.000000	 65.224647  
931.000000	 65.280199  
930.000000	 65.323162  
929.000000	 65.352559  
928.000000	 65.368580  
927.000000	 65.372323  
926.000000	 65.366554  
925.000000	 65.354609  
924.000000	 65.340161  
923.000000	 65.326237  
922.000000	 65.315198  
921.000000	 65.308380  
920.000000	 65.305328  
919.000000	 65.305447  
918.000000	 65.308380  
917.000000	 65.315294  
916.000000	 65.328192  
915.000000	 65.350437  
914.000000	 65.385818  
913.000000	 65.437293  
912.000000	 65.505743  
911.000000	 65.589022  
910.000000	 65.681958  
909.000000	 65.776276  
908.000000	 65.862274  
907.000000	 65.929555  
906.000000	 65.969109  
905.000000	 65.974640  
904.000000	 65.943908  
903.000000	 65.879344  
902.000000	 65.787625  
901.000000	 65.678954  
900.000000	 65.564584  
899.000000	 65.455913  
898.000000	 65.361309  
897.000000	 65.285396  
896.000000	 65.227580  
895.000000	 65.182900  
894.000000	 65.143632  
893.000000	 65.100550  
892.000000	 65.047049  
891.000000	 64.980292  
890.000000	 64.903497  
889.000000	 64.823842  
888.000000	 64.752030  
887.000000	 64.698886  
886.000000	 64.672875  
885.000000	 64.676761  
884.000000	 64.707922  
883.000000	 64.758706  
882.000000	 64.818668  
881.000000	 64.877080  
880.000000	 64.925527  
879.000000	 64.959502  
878.000000	 64.978504  
877.000000	 64.985513  
876.000000	 64.984893  
875.000000	 64.980363  
874.000000	 64.973855  
873.000000	 64.964652  
872.000000	 64.950442  
871.000000	 64.928007  
870.000000	 64.895939  
869.000000	 64.854550  
868.000000	 64.806103  
867.000000	 64.754056  
866.000000	 64.702558  
865.000000	 64.654850  
864.000000	 64.612388  
863.000000	 64.574551  
862.000000	 64.539337  
861.000000	 64.504122  
860.000000	 64.465713  
859.000000	 64.422798  
858.000000	 64.375782  
857.000000	 64.328312  
856.000000	 64.286184  
855.000000	 64.256930  
854.000000	 64.247560  
853.000000	 64.263415  
852.000000	 64.306306  
851.000000	 64.373397  
850.000000	 64.457488  
849.000000	 64.548826  
848.000000	 64.636993  
847.000000	 64.712691  
846.000000	 64.769649  
845.000000	 64.805650  
844.000000	 64.822220  
843.000000	 64.823746  
842.000000	 64.815878  
841.000000	 64.803719  
840.000000	 64.791011  
839.000000	 64.779591  
838.000000	 64.769983  
837.000000	 64.762520  
836.000000	 64.757657  
835.000000	 64.757609  
834.000000	 64.764404  
833.000000	 64.779877  
832.000000	 64.803671  
831.000000	 64.833426  
830.000000	 64.863443  
829.000000	 64.885854  
828.000000	 64.892292  
827.000000	 64.875960  
826.000000	 64.833545  
825.000000	 64.766287  
824.000000	 64.680290  
823.000000	 64.585185  
822.000000	 64.491724  
821.000000	 64.409422  
820.000000	 64.344620  
819.000000	 64.299106  
818.000000	 64.270997  
817.000000	 64.255332  
816.000000	 64.245748  
815.000000	 64.236092  
814.000000	 64.221644  
813.000000	 64.200472  
812.000000	 64.171624  
811.000000	 64.137148  
810.000000	 64.100551  
809.000000	 64.067268  
808.000000	 64.042687  
807.000000	 64.031720  
806.000000	 64.037466  
805.000000	 64.060568  
804.000000	 64.098811  
803.000000	 64.147520  
802.000000	 64.200472  
801.000000	 64.251255  
800.000000	 64.294409  
799.000000	 64.326786  
798.000000	 64.347743  
797.000000	 64.359092  
796.000000	 64.364123  
795.000000	 64.366793  
794.000000	 64.370322  
793.000000	 64.376807  
792.000000	 64.386200  
791.000000	 64.396405  
790.000000	 64.403295  
789.000000	 64.403128  
788.000000	 64.392352  
787.000000	 64.368247  
786.000000	 64.329409  
785.000000	 64.276790  
784.000000	 64.213299  
783.000000	 64.142537  
782.000000	 64.069271  
781.000000	 63.998985  
780.000000	 63.937449  
779.000000	 63.890194  
778.000000	 63.861393  
777.000000	 63.853621  
776.000000	 63.866162  
775.000000	 63.894844  
774.000000	 63.932108  
773.000000	 63.967990  
772.000000	 63.992524  
771.000000	 63.997530  
770.000000	 63.978624  
769.000000	 63.936185  
768.000000	 63.875985  
767.000000	 63.808059  
766.000000	 63.744163  
765.000000	 63.695979  
764.000000	 63.672780  
763.000000	 63.680934  
762.000000	 63.722443  
761.000000	 63.796353  
760.000000	 63.899707  
759.000000	 64.028167  
758.000000	 64.176535  
757.000000	 64.338207  
756.000000	 64.505147  
755.000000	 64.667820  
754.000000	 64.814782  
753.000000	 64.935040  
752.000000	 65.019822  
751.000000	 65.064597  
750.000000	 65.071129  
749.000000	 65.045881  
748.000000	 64.999699  
747.000000	 64.944124  
746.000000	 64.889979  
745.000000	 64.843249  
744.000000	 64.804935  
743.000000	 64.770770  
742.000000	 64.734005  
741.000000	 64.687490  
740.000000	 64.626693  
739.000000	 64.551234  
738.000000	 64.465379  
737.000000	 64.377021  
736.000000	 64.295363  
735.000000	 64.227890  
734.000000	 64.178347  
733.000000	 64.145731  
732.000000	 64.124488  
731.000000	 64.106297  
730.000000	 64.082169  
729.000000	 64.045023  
728.000000	 63.991475  
727.000000	 63.921618  
726.000000	 63.840150  
725.000000	 63.754677  
724.000000	 63.674306  
723.000000	 63.606357  
722.000000	 63.556766  
721.000000	 63.529086  
720.000000	 63.524150  
719.000000	 63.539767  
718.000000	 63.572263  
717.000000	 63.617086  
716.000000	 63.669300  
715.000000	 63.723921  
714.000000	 63.775515  
713.000000	 63.818502  
712.000000	 63.847732  
711.000000	 63.859152  
710.000000	 63.850021  
709.000000	 63.819789  
708.000000	 63.771009  
707.000000	 63.709402  
706.000000	 63.642954  
705.000000	 63.580942  
704.000000	 63.532972  
703.000000	 63.506460  
702.000000	 63.505768  
701.000000	 63.529920  
700.000000	 63.574171  
699.000000	 63.628673  
698.000000	 63.681125  
697.000000	 63.718104  
696.000000	 63.728070  
695.000000	 63.703298  
694.000000	 63.641285  
693.000000	 63.546085  
692.000000	 63.427329  
691.000000	 63.299083  
690.000000	 63.176918  
689.000000	 63.075661  
688.000000	 63.006877  
687.000000	 62.976956  
686.000000	 62.986540  
685.000000	 63.030552  
684.000000	 63.099670  
683.000000	 63.182640  
682.000000	 63.268446  
681.000000	 63.347411  
680.000000	 63.412714  
679.000000	 63.460326  
678.000000	 63.488721  
677.000000	 63.498067  
676.000000	 63.489627  
675.000000	 63.465809  
674.000000	 63.429355  
673.000000	 63.384127  
672.000000	 63.333797  
671.000000	 63.282871  
670.000000	 63.235306  
669.000000	 63.194727  
668.000000	 63.164019  
667.000000	 63.145399  
666.000000	 63.140058  
665.000000	 63.147902  
664.000000	 63.167858  
663.000000	 63.197875  
662.000000	 63.235020  
661.000000	 63.275790  
660.000000	 63.316130  
659.000000	 63.351964  
658.000000	 63.380122  
657.000000	 63.398671  
656.000000	 63.407087  
655.000000	 63.406062  
654.000000	 63.397765  
653.000000	 63.384222  
652.000000	 63.367581  
651.000000	 63.348388  
650.000000	 63.326025  
649.000000	 63.298082  
648.000000	 63.262128  
647.000000	 63.215899  
646.000000	 63.158845  
645.000000	 63.091993  
644.000000	 63.018512  
643.000000	 62.942814  
642.000000	 62.870240  
641.000000	 62.805533  
640.000000	 62.751579  
639.000000	 62.709712  
638.000000	 62.679648  
637.000000	 62.659907  
636.000000	 62.648296  
635.000000	 62.643170  
634.000000	 62.643957  
633.000000	 62.650442  
632.000000	 62.662458  
631.000000	 62.679362  
630.000000	 62.699699  
629.000000	 62.720942  
628.000000	 62.739944  
627.000000	 62.753319  
626.000000	 62.758088  
625.000000	 62.752747  
624.000000	 62.737512  
623.000000	 62.713956  
622.000000	 62.685513  
621.000000	 62.656354  
620.000000	 62.631392  
619.000000	 62.614703  
618.000000	 62.609744  
617.000000	 62.618398  
616.000000	 62.641549  
615.000000	 62.678265  
614.000000	 62.727117  
613.000000	 62.785625  
612.000000	 62.851881  
611.000000	 62.924289  
610.000000	 63.002490  
609.000000	 63.086605  
608.000000	 63.177204  
607.000000	 63.274073  
606.000000	 63.375926  
605.000000	 63.479351  
604.000000	 63.578629  
603.000000	 63.665843  
602.000000	 63.732671  
601.000000	 63.771295  
600.000000	 63.776683  
599.000000	 63.747096  
598.000000	 63.685774  
597.000000	 63.599061  
596.000000	 63.496541  
595.000000	 63.387823  
594.000000	 63.281607  
593.000000	 63.183999  
592.000000	 63.097858  
591.000000	 63.023781  
590.000000	 62.961554  
589.000000	 62.911438  
588.000000	 62.874484  
587.000000	 62.853169  
586.000000	 62.850642  
585.000000	 62.868499  
584.000000	 62.905216  
583.000000	 62.954759  
582.000000	 63.006377  
581.000000	 63.046550  
580.000000	 63.061499  
579.000000	 63.040876  
578.000000	 62.980389  
577.000000	 62.883114  
576.000000	 62.758970  
575.000000	 62.622666  
574.000000	 62.490224  
573.000000	 62.375044  
572.000000	 62.285351  
571.000000	 62.223958  
570.000000	 62.187886  
569.000000	 62.171173  
568.000000	 62.165760  
567.000000	 62.164187  
566.000000	 62.160348  
565.000000	 62.149500  
564.000000	 62.129378  
563.000000	 62.097764  
562.000000	 62.054896  
561.000000	 62.001276  
560.000000	 61.941027  
559.000000	 61.880540  
558.000000	 61.829686  
557.000000	 61.799812  
556.000000	 61.801719  
555.000000	 61.842894  
554.000000	 61.924386  
553.000000	 62.039732  
552.000000	 62.174916  
551.000000	 62.310528  
550.000000	 62.425971  
549.000000	 62.503981  
548.000000	 62.533497  
547.000000	 62.512278  
546.000000	 62.447929  
545.000000	 62.355375  
544.000000	 62.252902  
543.000000	 62.157583  
542.000000	 62.083387  
541.000000	 62.036466  
540.000000	 62.015867  
539.000000	 62.013363  
538.000000	 62.017893  
537.000000	 62.017440  
536.000000	 62.003016  
535.000000	 61.970067  
534.000000	 61.918354  
533.000000	 61.852264  
532.000000	 61.778545  
531.000000	 61.704754  
530.000000	 61.636328  
529.000000	 61.577367  
528.000000	 61.530137  
527.000000	 61.496067  
526.000000	 61.476469  
525.000000	 61.474037  
524.000000	 61.492967  
523.000000	 61.538004  
522.000000	 61.613178  
521.000000	 61.720442  
520.000000	 61.858034  
519.000000	 62.019133  
518.000000	 62.192177  
517.000000	 62.363290  
516.000000	 62.517070  
515.000000	 62.639808  
514.000000	 62.720298  
513.000000	 62.753033  
512.000000	 62.736558  
511.000000	 62.675523  
510.000000	 62.577104  
509.000000	 62.451171  
508.000000	 62.306737  
507.000000	 62.153267  
506.000000	 61.996817  
505.000000	 61.842083  
504.000000	 61.691164  
503.000000	 61.545372  
502.000000	 61.406159  
501.000000	 61.276459  
500.000000	 61.160397  
499.000000	 61.062860  
498.000000	 60.989499  
497.000000	 60.945010  
496.000000	 60.931563  
495.000000	 60.947513  
494.000000	 60.986256  
493.000000	 61.036872  
492.000000	 61.085867  
491.000000	 61.119127  
490.000000	 61.124348  
489.000000	 61.093378  
488.000000	 61.023640  
487.000000	 60.918688  
486.000000	 60.787653  
485.000000	 60.643434  
484.000000	 60.498857  
483.000000	 60.366320  
482.000000	 60.257148  
481.000000	 60.178327  
480.000000	 60.132908  
479.000000	 60.118031  
478.000000	 60.126638  
477.000000	 60.146832  
476.000000	 60.163998  
475.000000	 60.163116  
474.000000	 60.131859  
473.000000	 60.063505  
472.000000	 59.959268  
471.000000	 59.827899  
470.000000	 59.685158  
469.000000	 59.553360  
468.000000	 59.457564  
467.000000	 59.420299  
466.000000	 59.457015  
465.000000	 59.573888  
464.000000	 59.763598  
463.000000	 60.007786  
462.000000	 60.276103  
461.000000	 60.531735  
460.000000	 60.735774  
459.000000	 60.855269  
458.000000	 60.867595  
457.000000	 60.765218  
456.000000	 60.555744  
455.000000	 60.261487  
454.000000	 59.913134  
453.000000	 59.547495  
452.000000	 59.195613  
451.000000	 58.878850  
450.000000	 58.607029  
449.000000	 58.380699  
448.000000	 58.196520  
447.000000	 58.052039  
446.000000	 57.952952  
445.000000	 57.913637  
444.000000	 57.955026  
443.000000	 58.097004  
442.000000	 58.349680  
441.000000	 58.704662  
440.000000	 59.134745  
439.000000	 59.592652  
438.000000	 60.013675  
437.000000	 60.328698  
436.000000	 60.484457  
435.000000	 60.452532  
434.000000	 60.230994  
433.000000	 59.850645  
432.000000	 59.371447  
431.000000	 58.869552  
430.000000	 58.420443  
429.000000	 58.087182  
428.000000	 57.909989  
427.000000	 57.900834  
426.000000	 58.050084  
425.000000	 58.323431  
424.000000	 58.666372  
423.000000	 59.027028  
422.000000	 59.367823  
421.000000	 59.668469  
420.000000	 59.921121  
419.000000	 60.142469  
418.000000	 60.362410  
417.000000	 60.592150  
416.000000	 60.808444  
415.000000	 60.975909  
414.000000	 61.037993  
413.000000	 60.912251  
412.000000	 60.506916  
411.000000	 59.752368  
410.000000	 58.614420  
409.000000	 57.130050  
408.000000	 55.393004  
407.000000	 53.507471  
406.000000	 51.604318  
405.000000	 49.831604  
404.000000	 48.340320  
403.000000	 47.223639  
402.000000	 46.563959  
401.000000	 46.437454  
400.000000	 46.894502  
399.000000	 47.895193  
398.000000	 49.393892  
397.000000	 51.341319  
396.000000	 53.670763  
395.000000	 56.279444  
394.000000	 59.047746  
393.000000	 61.831021  
392.000000	 64.544129  
391.000000	 67.168307  
390.000000	 69.837355  
389.000000	 72.761940  
388.000000	 76.235151  
387.000000	 80.436110  
386.000000	 85.267829  
385.000000	 90.261507  
384.000000	 94.619679  
383.000000	 97.365951  
382.000000	 97.624111  
381.000000	 94.800209  
380.000000	 89.028501  
379.000000	 80.878210  
378.000000	 71.228122  
377.000000	 60.960316  
376.000000	 50.847744  
375.000000	 41.278457  
374.000000	 32.239937  
373.000000	 23.435783  
372.000000	 14.496350  
371.000000	 5.235719   
370.000000	 -4.198217  

