PE IR       SPECTRUM    SPECTRUM    ASCII       PEDS        1.60        
  -1
C-1DE1~1.ASC
17/03/27
20:30:29.00
17/03/27
20:30:29.00
tln
$C-4040-8_t0073$<tbV0>[-2.6,2.6,8.0,0.0,27,1,0]
370.000000
64









2002,4.07    
MIRTGS : RIGHTBACK : INTERNAL 2
MIR : ON : INTERNAL 2
OPTKBR

0.200000
8
8.000000
FILLER
RATIO
SPECTRUM
UNLOCKED 256

DOUBLE
64
COMBINED
1
0
0


1.000000
RATIO


1
0
TRUE
51149
0
LEFT NOT FITTED RIGHT NOT FITTED 0
NONE
NONE
15600
12.000000
4.427000
51148
TRUE
1 0 8 72 0 0 0 0 

15798.010000






#HDR
-1
-1
#GR
CM-1
%T
0.00002384185791015625
0.0
5000.000000
-1.000000
4631
8
114.414477
39.846706
#DATA
5000.000000	64.781165  
4999.000000	64.798855  
4998.000000	64.810800  
4997.000000	64.813375  
4996.000000	64.805650  
4995.000000	64.788293  
4994.000000	64.765167  
4993.000000	64.741182  
4992.000000	64.723992  
4991.000000	64.721989  
4990.000000	64.743447  
4989.000000	64.794898  
4988.000000	64.878034  
4987.000000	64.988899  
4986.000000	65.116906  
4985.000000	65.246582  
4984.000000	65.358996  
4983.000000	65.435600  
4982.000000	65.462231  
4981.000000	65.432453  
4980.000000	65.348839  
4979.000000	65.222764  
4978.000000	65.072536  
4977.000000	64.919400  
4976.000000	64.783978  
4975.000000	64.681267  
4974.000000	64.619183  
4973.000000	64.596509  
4972.000000	64.604926  
4971.000000	64.631104  
4970.000000	64.660239  
4969.000000	64.680242  
4968.000000	64.683389  
4967.000000	64.669275  
4966.000000	64.641928  
4965.000000	64.610934  
4964.000000	64.586925  
4963.000000	64.580488  
4962.000000	64.598369  
4961.000000	64.643049  
4960.000000	64.712071  
4959.000000	64.799189  
4958.000000	64.896178  
4957.000000	64.994525  
4956.000000	65.087199  
4955.000000	65.169286  
4954.000000	65.237879  
4953.000000	65.290880  
4952.000000	65.326118  
4951.000000	65.340948  
4950.000000	65.332317  
4949.000000	65.297770  
4948.000000	65.236425  
4947.000000	65.151715  
4946.000000	65.050315  
4945.000000	64.941787  
4944.000000	64.836692  
4943.000000	64.745903  
4942.000000	64.677691  
4941.000000	64.636349  
4940.000000	64.622044  
4939.000000	64.630675  
4938.000000	64.656257  
4937.000000	64.692091  
4936.000000	64.732813  
4935.000000	64.774417  
4934.000000	64.815425  
4933.000000	64.855813  
4932.000000	64.896583  
4931.000000	64.938187  
4930.000000	64.980721  
4929.000000	65.023422  
4928.000000	65.064859  
4927.000000	65.103363  
4926.000000	65.137887  
4925.000000	65.168356  
4924.000000	65.195298  
4923.000000	65.219616  
4922.000000	65.243172  
4921.000000	65.268039  
4920.000000	65.296077  
4919.000000	65.328097  
4918.000000	65.364122  
4917.000000	65.402412  
4916.000000	65.440630  
4915.000000	65.475082  
4914.000000	65.501284  
4913.000000	65.515017  
4912.000000	65.513348  
4911.000000	65.495419  
4910.000000	65.462851  
4909.000000	65.420031  
4908.000000	65.373611  
4907.000000	65.330958  
4906.000000	65.298724  
4905.000000	65.281295  
4904.000000	65.279865  
4903.000000	65.292072  
4902.000000	65.312647  
4901.000000	65.334272  
4900.000000	65.348911  
4899.000000	65.349292  
4898.000000	65.330362  
4897.000000	65.289568  
4896.000000	65.228080  
4895.000000	65.150117  
4894.000000	65.062975  
4893.000000	64.975571  
4892.000000	64.897298  
4891.000000	64.836788  
4890.000000	64.800381  
4889.000000	64.790916  
4888.000000	64.806723  
4887.000000	64.841771  
4886.000000	64.887189  
4885.000000	64.932036  
4884.000000	64.967250  
4883.000000	64.987158  
4882.000000	64.991402  
4881.000000	64.984250  
4880.000000	64.973092  
4879.000000	64.965963  
4878.000000	64.969062  
4877.000000	64.984893  
4876.000000	65.011501  
4875.000000	65.043020  
4874.000000	65.072250  
4873.000000	65.092587  
4872.000000	65.100216  
4871.000000	65.094757  
4870.000000	65.079164  
4869.000000	65.058398  
4868.000000	65.037369  
4867.000000	65.019845  
4866.000000	65.006971  
4865.000000	64.997744  
4864.000000	64.990353  
4863.000000	64.982366  
4862.000000	64.973306  
4861.000000	64.963316  
4860.000000	64.953041  
4859.000000	64.942955  
4858.000000	64.932060  
4857.000000	64.919400  
4856.000000	64.903640  
4855.000000	64.885234  
4854.000000	64.866328  
4853.000000	64.851713  
4852.000000	64.847779  
4851.000000	64.860773  
4850.000000	64.894676  
4849.000000	64.949107  
4848.000000	65.018701  
4847.000000	65.093660  
4846.000000	65.161824  
4845.000000	65.211534  
4844.000000	65.234446  
4843.000000	65.228176  
4842.000000	65.196347  
4841.000000	65.147781  
4840.000000	65.093851  
4839.000000	65.045499  
4838.000000	65.010285  
4837.000000	64.991259  
4836.000000	64.986181  
4835.000000	64.989638  
4834.000000	64.994001  
4833.000000	64.992356  
4832.000000	64.979720  
4831.000000	64.954185  
4830.000000	64.917373  
4829.000000	64.873099  
4828.000000	64.827299  
4827.000000	64.785552  
4826.000000	64.753365  
4825.000000	64.734792  
4824.000000	64.732432  
4823.000000	64.747452  
4822.000000	64.779162  
4821.000000	64.824962  
4820.000000	64.880394  
4819.000000	64.939761  
4818.000000	64.996862  
4817.000000	65.046381  
4816.000000	65.084290  
4815.000000	65.108799  
4814.000000	65.120768  
4813.000000	65.122938  
4812.000000	65.119433  
4811.000000	65.113997  
4810.000000	65.109515  
4809.000000	65.106534  
4808.000000	65.104007  
4807.000000	65.099358  
4806.000000	65.089583  
4805.000000	65.072488  
4804.000000	65.047788  
4803.000000	65.017747  
4802.000000	64.986801  
4801.000000	64.961004  
4800.000000	64.946532  
4799.000000	64.948487  
4798.000000	64.969587  
4797.000000	65.009284  
4796.000000	65.063905  
4795.000000	65.126323  
4794.000000	65.187406  
4793.000000	65.237379  
4792.000000	65.267920  
4791.000000	65.273714  
4790.000000	65.253686  
4789.000000	65.211248  
4788.000000	65.153455  
4787.000000	65.090084  
4786.000000	65.030837  
4785.000000	64.983582  
4784.000000	64.952135  
4783.000000	64.936399  
4782.000000	64.931893  
4781.000000	64.931702  
4780.000000	64.928388  
4779.000000	64.916086  
4778.000000	64.892530  
4777.000000	64.859127  
4776.000000	64.821505  
4775.000000	64.786934  
4774.000000	64.763140  
4773.000000	64.755463  
4772.000000	64.766073  
4771.000000	64.793229  
4770.000000	64.832186  
4769.000000	64.876461  
4768.000000	64.919686  
4767.000000	64.957046  
4766.000000	64.986276  
4765.000000	65.007472  
4764.000000	65.022540  
4763.000000	65.033841  
4762.000000	65.042686  
4761.000000	65.048575  
4760.000000	65.049481  
4759.000000	65.042471  
4758.000000	65.025234  
4757.000000	64.996933  
4756.000000	64.959359  
4755.000000	64.916968  
4754.000000	64.876556  
4753.000000	64.845347  
4752.000000	64.828920  
4751.000000	64.829897  
4750.000000	64.847421  
4749.000000	64.877009  
4748.000000	64.911532  
4747.000000	64.943146  
4746.000000	64.965248  
4745.000000	64.974355  
4744.000000	64.970397  
4743.000000	64.956927  
4742.000000	64.939618  
4741.000000	64.924216  
4740.000000	64.914441  
4739.000000	64.911127  
4738.000000	64.911723  
4737.000000	64.911699  
4736.000000	64.906001  
4735.000000	64.890313  
4734.000000	64.862751  
4733.000000	64.824557  
4732.000000	64.780306  
4731.000000	64.735984  
4730.000000	64.698672  
4729.000000	64.674973  
4728.000000	64.670133  
4727.000000	64.687013  
4726.000000	64.725637  
4725.000000	64.783120  
4724.000000	64.854288  
4723.000000	64.932274  
4722.000000	65.009880  
4721.000000	65.079736  
4720.000000	65.136861  
4719.000000	65.178751  
4718.000000	65.206527  
4717.000000	65.224266  
4716.000000	65.237808  
4715.000000	65.253448  
4714.000000	65.274834  
4713.000000	65.301632  
4712.000000	65.328717  
4711.000000	65.347194  
4710.000000	65.346622  
4709.000000	65.317702  
4708.000000	65.255665  
4707.000000	65.161681  
4706.000000	65.042686  
4705.000000	64.910721  
4704.000000	64.779877  
4703.000000	64.664435  
4702.000000	64.575457  
4701.000000	64.520025  
4700.000000	64.500117  
4699.000000	64.513611  
4698.000000	64.555120  
4697.000000	64.617896  
4696.000000	64.694523  
4695.000000	64.778661  
4694.000000	64.864516  
4693.000000	64.947843  
4692.000000	65.024256  
4691.000000	65.090799  
4690.000000	65.145230  
4689.000000	65.186071  
4688.000000	65.212488  
4687.000000	65.224194  
4686.000000	65.221691  
4685.000000	65.205764  
4684.000000	65.177941  
4683.000000	65.140938  
4682.000000	65.098762  
4681.000000	65.057110  
4680.000000	65.022349  
4679.000000	65.000844  
4678.000000	64.997363  
4677.000000	65.013837  
4676.000000	65.049123  
4675.000000	65.098166  
4674.000000	65.153813  
4673.000000	65.208244  
4672.000000	65.254449  
4671.000000	65.287351  
4670.000000	65.304970  
4669.000000	65.309309  
4668.000000	65.304446  
4667.000000	65.295338  
4666.000000	65.285801  
4665.000000	65.277719  
4664.000000	65.269851  
4663.000000	65.258908  
4662.000000	65.240263  
4661.000000	65.210056  
4660.000000	65.166831  
4659.000000	65.112757  
4658.000000	65.052986  
4657.000000	64.994692  
4656.000000	64.945292  
4655.000000	64.910554  
4654.000000	64.892458  
4653.000000	64.888930  
4652.000000	64.894199  
4651.000000	64.901256  
4650.000000	64.903116  
4649.000000	64.895963  
4648.000000	64.880108  
4647.000000	64.860701  
4646.000000	64.845776  
4645.000000	64.844417  
4644.000000	64.863324  
4643.000000	64.905476  
4642.000000	64.968299  
4641.000000	65.044903  
4640.000000	65.125703  
4639.000000	65.200781  
4638.000000	65.262699  
4637.000000	65.307068  
4636.000000	65.333342  
4635.000000	65.343737  
4634.000000	65.341949  
4633.000000	65.331292  
4632.000000	65.313577  
4631.000000	65.288996  
4630.000000	65.256261  
4629.000000	65.213823  
4628.000000	65.160775  
4627.000000	65.097975  
4626.000000	65.028405  
4625.000000	64.956426  
4624.000000	64.887380  
4623.000000	64.826297  
4622.000000	64.777874  
4621.000000	64.744400  
4620.000000	64.726877  
4619.000000	64.724659  
4618.000000	64.736318  
4617.000000	64.759635  
4616.000000	64.792394  
4615.000000	64.831757  
4614.000000	64.875173  
4613.000000	64.919781  
4612.000000	64.962935  
4611.000000	65.002179  
4610.000000	65.035462  
4609.000000	65.061211  
4608.000000	65.078234  
4607.000000	65.085840  
4606.000000	65.083336  
4605.000000	65.070366  
4604.000000	65.046334  
4603.000000	65.011167  
4602.000000	64.965462  
4601.000000	64.911413  
4600.000000	64.852976  
4599.000000	64.796328  
4598.000000	64.749097  
4597.000000	64.719319  
4596.000000	64.713811  
4595.000000	64.736604  
4594.000000	64.787459  
4593.000000	64.861440  
4592.000000	64.949631  
4591.000000	65.040802  
4590.000000	65.123057  
4589.000000	65.186882  
4588.000000	65.226674  
4587.000000	65.242242  
4586.000000	65.238118  
4585.000000	65.222239  
4584.000000	65.203762  
4583.000000	65.190410  
4582.000000	65.187025  
4581.000000	65.194153  
4580.000000	65.208482  
4579.000000	65.224432  
4578.000000	65.236139  
4577.000000	65.238809  
4576.000000	65.230083  
4575.000000	65.210556  
4574.000000	65.183329  
4573.000000	65.152311  
4572.000000	65.121340  
4571.000000	65.092706  
4570.000000	65.067481  
4569.000000	65.045285  
4568.000000	65.025782  
4567.000000	65.008902  
4566.000000	64.995980  
4565.000000	64.989495  
4564.000000	64.992594  
4563.000000	65.007209  
4562.000000	65.033864  
4561.000000	65.070748  
4560.000000	65.113997  
4559.000000	65.158104  
4558.000000	65.197062  
4557.000000	65.226054  
4556.000000	65.241265  
4555.000000	65.240740  
4554.000000	65.223360  
4553.000000	65.188884  
4552.000000	65.137171  
4551.000000	65.068411  
4550.000000	64.983391  
4549.000000	64.884305  
4548.000000	64.775562  
4547.000000	64.663982  
4546.000000	64.558029  
4545.000000	64.466881  
4544.000000	64.398050  
4543.000000	64.356827  
4542.000000	64.343714  
4541.000000	64.356470  
4540.000000	64.389324  
4539.000000	64.437270  
4538.000000	64.495611  
4537.000000	64.563512  
4536.000000	64.642643  
4535.000000	64.737224  
4534.000000	64.850878  
4533.000000	64.985036  
4532.000000	65.137004  
4531.000000	65.298485  
4530.000000	65.456795  
4529.000000	65.595936  
4528.000000	65.700387  
4527.000000	65.757513  
4526.000000	65.760922  
4525.000000	65.711331  
4524.000000	65.616726  
4523.000000	65.490508  
4522.000000	65.349173  
4521.000000	65.208601  
4520.000000	65.081739  
4519.000000	64.977598  
4518.000000	64.900445  
4517.000000	64.850616  
4516.000000	64.825749  
4515.000000	64.822578  
4514.000000	64.838004  
4513.000000	64.868664  
4512.000000	64.911508  
4511.000000	64.962100  
4510.000000	65.015482  
4509.000000	65.065097  
4508.000000	65.104317  
4507.000000	65.126562  
4506.000000	65.127420  
4505.000000	65.106010  
4504.000000	65.064859  
4503.000000	65.009546  
4502.000000	64.947438  
4501.000000	64.886355  
4500.000000	64.832377  
4499.000000	64.788866  
4498.000000	64.756655  
4497.000000	64.734601  
4496.000000	64.720439  
4495.000000	64.712142  
4494.000000	64.708733  
4493.000000	64.710617  
4492.000000	64.718818  
4491.000000	64.734745  
4490.000000	64.758658  
4489.000000	64.789390  
4488.000000	64.824295  
4487.000000	64.859271  
4486.000000	64.889407  
4485.000000	64.909768  
4484.000000	64.917016  
4483.000000	64.909696  
4482.000000	64.888334  
4481.000000	64.855575  
4480.000000	64.815640  
4479.000000	64.773440  
4478.000000	64.733529  
4477.000000	64.699721  
4476.000000	64.674830  
4475.000000	64.660310  
4474.000000	64.656448  
4473.000000	64.662647  
4472.000000	64.677858  
4471.000000	64.700174  
4470.000000	64.727139  
4469.000000	64.755630  
4468.000000	64.782142  
4467.000000	64.802670  
4466.000000	64.813065  
4465.000000	64.809679  
4464.000000	64.790296  
4463.000000	64.754533  
4462.000000	64.704585  
4461.000000	64.644885  
4460.000000	64.582347  
4459.000000	64.525127  
4458.000000	64.481925  
4457.000000	64.460062  
4456.000000	64.464712  
4455.000000	64.497590  
4454.000000	64.557075  
4453.000000	64.637303  
4452.000000	64.730548  
4451.000000	64.828586  
4450.000000	64.924168  
4449.000000	65.011501  
4448.000000	65.086913  
4447.000000	65.148305  
4446.000000	65.195059  
4445.000000	65.227246  
4444.000000	65.245532  
4443.000000	65.251088  
4442.000000	65.245437  
4441.000000	65.230131  
4440.000000	65.206527  
4439.000000	65.175843  
4438.000000	65.139174  
4437.000000	65.097975  
4436.000000	65.054488  
4435.000000	65.011811  
4434.000000	64.974927  
4433.000000	64.948272  
4432.000000	64.935660  
4431.000000	64.937376  
4430.000000	64.949631  
4429.000000	64.964795  
4428.000000	64.973139  
4427.000000	64.964771  
4426.000000	64.931488  
4425.000000	64.870190  
4424.000000	64.784169  
4423.000000	64.682650  
4422.000000	64.578771  
4421.000000	64.486360  
4420.000000	64.416408  
4419.000000	64.375042  
4418.000000	64.364075  
4417.000000	64.372897  
4416.000000	64.379572  
4415.000000	64.370250  
4414.000000	64.343452  
4413.000000	64.297819  
4412.000000	64.236402  
4411.000000	64.169335  
4410.000000	64.110517  
4409.000000	64.085316  
4408.000000	64.115762  
4407.000000	64.203071  
4406.000000	64.330577  
4405.000000	64.465832  
4404.000000	64.569997  
4403.000000	64.618301  
4402.000000	64.595103  
4401.000000	64.499163  
4400.000000	64.339089  
4399.000000	64.114785  
4398.000000	63.839268  
4397.000000	63.541197  
4396.000000	63.259768  
4395.000000	63.045477  
4394.000000	62.937045  
4393.000000	62.939810  
4392.000000	63.074183  
4391.000000	63.356900  
4390.000000	63.937592  
4389.000000	65.054321  
4388.000000	67.005681  
4387.000000	70.015406  
4386.000000	74.000167  
4385.000000	78.538370  
4384.000000	82.821297  
4383.000000	85.904979  
4382.000000	87.039351  
4381.000000	85.874223  
4380.000000	82.723307  
4379.000000	78.368902  
4378.000000	73.828125  
4377.000000	70.058250  
4376.000000	67.588973  
4375.000000	66.522622  
4374.000000	66.583085  
4373.000000	67.248177  
4372.000000	68.083715  
4371.000000	68.734288  
4370.000000	69.050621  
4369.000000	69.034528  
4368.000000	68.721151  
4367.000000	68.219733  
4366.000000	67.613840  
4365.000000	66.997241  
4364.000000	66.449737  
4363.000000	66.019010  
4362.000000	65.722489  
4361.000000	65.535378  
4360.000000	65.406632  
4359.000000	65.291714  
4358.000000	65.166330  
4357.000000	65.031528  
4356.000000	64.911389  
4355.000000	64.832234  
4354.000000	64.818191  
4353.000000	64.864158  
4352.000000	64.950132  
4351.000000	65.058445  
4350.000000	65.171885  
4349.000000	65.278434  
4348.000000	65.372991  
4347.000000	65.447998  
4346.000000	65.503001  
4345.000000	65.550398  
4344.000000	65.601563  
4343.000000	65.656518  
4342.000000	65.711116  
4341.000000	65.759992  
4340.000000	65.795373  
4339.000000	65.812325  
4338.000000	65.806245  
4337.000000	65.774488  
4336.000000	65.718674  
4335.000000	65.644669  
4334.000000	65.564012  
4333.000000	65.491437  
4332.000000	65.438795  
4331.000000	65.412139  
4330.000000	65.411925  
4329.000000	65.432500  
4328.000000	65.463852  
4327.000000	65.493631  
4326.000000	65.511250  
4325.000000	65.509104  
4324.000000	65.483117  
4323.000000	65.433907  
4322.000000	65.364766  
4321.000000	65.282678  
4320.000000	65.196728  
4319.000000	65.116810  
4318.000000	65.052342  
4317.000000	65.009903  
4316.000000	64.993095  
4315.000000	65.000224  
4314.000000	65.024781  
4313.000000	65.056705  
4312.000000	65.084743  
4311.000000	65.098714  
4310.000000	65.091729  
4309.000000	65.062141  
4308.000000	65.013408  
4307.000000	64.953565  
4306.000000	64.893150  
4305.000000	64.843511  
4304.000000	64.814066  
4303.000000	64.811038  
4302.000000	64.835715  
4301.000000	64.884519  
4300.000000	64.949250  
4299.000000	65.019440  
4298.000000	65.083718  
4297.000000	65.132212  
4296.000000	65.157961  
4295.000000	65.157818  
4294.000000	65.132880  
4293.000000	65.087366  
4292.000000	65.028190  
4291.000000	64.963841  
4290.000000	64.902496  
4289.000000	64.850974  
4288.000000	64.813709  
4287.000000	64.793086  
4286.000000	64.788293  
4285.000000	64.796042  
4284.000000	64.811205  
4283.000000	64.828157  
4282.000000	64.841628  
4281.000000	64.847612  
4280.000000	64.844298  
4279.000000	64.831972  
4278.000000	64.812970  
4277.000000	64.790678  
4276.000000	64.768600  
4275.000000	64.749336  
4274.000000	64.733552  
4273.000000	64.720630  
4272.000000	64.708375  
4271.000000	64.695334  
4270.000000	64.681434  
4269.000000	64.669489  
4268.000000	64.664030  
4267.000000	64.671158  
4266.000000	64.696526  
4265.000000	64.743542  
4264.000000	64.811253  
4263.000000	64.894509  
4262.000000	64.984416  
4261.000000	65.070652  
4260.000000	65.143370  
4259.000000	65.195918  
4258.000000	65.225839  
4257.000000	65.235900  
4256.000000	65.232944  
4255.000000	65.225672  
4254.000000	65.222120  
4253.000000	65.227961  
4252.000000	65.244936  
4251.000000	65.270948  
4250.000000	65.300583  
4249.000000	65.327262  
4248.000000	65.344381  
4247.000000	65.347290  
4246.000000	65.333914  
4245.000000	65.304803  
4244.000000	65.262770  
4243.000000	65.212130  
4242.000000	65.157651  
4241.000000	65.104126  
4240.000000	65.055084  
4239.000000	65.012741  
4238.000000	64.977598  
4237.000000	64.949512  
4236.000000	64.927387  
4235.000000	64.909672  
4234.000000	64.895296  
4233.000000	64.883613  
4232.000000	64.875531  
4231.000000	64.872717  
4230.000000	64.877533  
4229.000000	64.891719  
4228.000000	64.916086  
4227.000000	64.949703  
4226.000000	64.989280  
4225.000000	65.029191  
4224.000000	65.062808  
4223.000000	65.083527  
4222.000000	65.086317  
4221.000000	65.069031  
4220.000000	65.032625  
4219.000000	64.981460  
4218.000000	64.922618  
4217.000000	64.865183  
4216.000000	64.817380  
4215.000000	64.786863  
4214.000000	64.778947  
4213.000000	64.797115  
4212.000000	64.842152  
4211.000000	64.912724  
4210.000000	65.005350  
4209.000000	65.114617  
4208.000000	65.233230  
4207.000000	65.352582  
4206.000000	65.463161  
4205.000000	65.555739  
4204.000000	65.622448  
4203.000000	65.658187  
4202.000000	65.661501  
4201.000000	65.634489  
4200.000000	65.582728  
4199.000000	65.513563  
4198.000000	65.435290  
4197.000000	65.355944  
4196.000000	65.283298  
4195.000000	65.223670  
4194.000000	65.183043  
4193.000000	65.167927  
4192.000000	65.184974  
4191.000000	65.240049  
4190.000000	65.336036  
4189.000000	65.471577  
4188.000000	65.638375  
4187.000000	65.821480  
4186.000000	65.999889  
4185.000000	66.149640  
4184.000000	66.248607  
4183.000000	66.281080  
4182.000000	66.242194  
4181.000000	66.139411  
4180.000000	65.991377  
4179.000000	65.824627  
4178.000000	65.666937  
4177.000000	65.542149  
4176.000000	65.463805  
4175.000000	65.433430  
4174.000000	65.440726  
4173.000000	65.467596  
4172.000000	65.492773  
4171.000000	65.497803  
4170.000000	65.471267  
4169.000000	65.411043  
4168.000000	65.323352  
4167.000000	65.220785  
4166.000000	65.117454  
4165.000000	65.026402  
4164.000000	64.956068  
4163.000000	64.910054  
4162.000000	64.887809  
4161.000000	64.885568  
4160.000000	64.899373  
4159.000000	64.925265  
4158.000000	64.960432  
4157.000000	65.002703  
4156.000000	65.048694  
4155.000000	65.094709  
4154.000000	65.135812  
4153.000000	65.167021  
4152.000000	65.183663  
4151.000000	65.183067  
4150.000000	65.165424  
4149.000000	65.133881  
4148.000000	65.094351  
4147.000000	65.053486  
4146.000000	65.017127  
4145.000000	64.989733  
4144.000000	64.973735  
4143.000000	64.968919  
4142.000000	64.973020  
4141.000000	64.983201  
4140.000000	64.996457  
4139.000000	65.010356  
4138.000000	65.023469  
4137.000000	65.034651  
4136.000000	65.043544  
4135.000000	65.049314  
4134.000000	65.051722  
4133.000000	65.050792  
4132.000000	65.047287  
4131.000000	65.042519  
4130.000000	65.038013  
4129.000000	65.035676  
4128.000000	65.036988  
4127.000000	65.042924  
4126.000000	65.053272  
4125.000000	65.066504  
4124.000000	65.080285  
4123.000000	65.092396  
4122.000000	65.100955  
4121.000000	65.104842  
4120.000000	65.104198  
4119.000000	65.100073  
4118.000000	65.094041  
4117.000000	65.087676  
4116.000000	65.081787  
4115.000000	65.076422  
4114.000000	65.071105  
4113.000000	65.065264  
4112.000000	65.058660  
4111.000000	65.051555  
4110.000000	65.045213  
4109.000000	65.041303  
4108.000000	65.041542  
4107.000000	65.046739  
4106.000000	65.056586  
4105.000000	65.069103  
4104.000000	65.081381  
4103.000000	65.089726  
4102.000000	65.090751  
4101.000000	65.081596  
4100.000000	65.060758  
4099.000000	65.028429  
4098.000000	64.986205  
4097.000000	64.937186  
4096.000000	64.885163  
4095.000000	64.834666  
4094.000000	64.790129  
4093.000000	64.755892  
4092.000000	64.735460  
4091.000000	64.731192  
4090.000000	64.743828  
4089.000000	64.771866  
4088.000000	64.811968  
4087.000000	64.858889  
4086.000000	64.906597  
4085.000000	64.949154  
4084.000000	64.981675  
4083.000000	65.001487  
4082.000000	65.007901  
4081.000000	65.002155  
4080.000000	64.986634  
4079.000000	64.964437  
4078.000000	64.938235  
4077.000000	64.909839  
4076.000000	64.880371  
4075.000000	64.850902  
4074.000000	64.822554  
4073.000000	64.796853  
4072.000000	64.775776  
4071.000000	64.761710  
4070.000000	64.756464  
4069.000000	64.760828  
4068.000000	64.774060  
4067.000000	64.794063  
4066.000000	64.818000  
4065.000000	64.843082  
4064.000000	64.867520  
4063.000000	64.890885  
4062.000000	64.913868  
4061.000000	64.937639  
4060.000000	64.963150  
4059.000000	64.990448  
4058.000000	65.018153  
4057.000000	65.043711  
4056.000000	65.063905  
4055.000000	65.076327  
4054.000000	65.079998  
4053.000000	65.076303  
4052.000000	65.068626  
4051.000000	65.061902  
4050.000000	65.061473  
4049.000000	65.071749  
4048.000000	65.094971  
4047.000000	65.130758  
4046.000000	65.176391  
4045.000000	65.226888  
4044.000000	65.276670  
4043.000000	65.319895  
4042.000000	65.351867  
4041.000000	65.369367  
4040.000000	65.371108  
4039.000000	65.358138  
4038.000000	65.333414  
4037.000000	65.301632  
4036.000000	65.268349  
4035.000000	65.239453  
4034.000000	65.220093  
4033.000000	65.213847  
4032.000000	65.221905  
4031.000000	65.243148  
4030.000000	65.274119  
4029.000000	65.309429  
4028.000000	65.343165  
4027.000000	65.369939  
4026.000000	65.386104  
4025.000000	65.390110  
4024.000000	65.382719  
4023.000000	65.366506  
4022.000000	65.344691  
4021.000000	65.320658  
4020.000000	65.296506  
4019.000000	65.273332  
4018.000000	65.250825  
4017.000000	65.228033  
4016.000000	65.203571  
4015.000000	65.176463  
4014.000000	65.146589  
4013.000000	65.115046  
4012.000000	65.084004  
4011.000000	65.056371  
4010.000000	65.035009  
4009.000000	65.021944  
4008.000000	65.017700  
4007.000000	65.020990  
4006.000000	65.028882  
4005.000000	65.037560  
4004.000000	65.042901  
4003.000000	65.042090  
4002.000000	65.033912  
4001.000000	65.019607  
4000.000000	65.002632  
3999.000000	64.987707  
3998.000000	64.979529  
3997.000000	64.981460  
3996.000000	64.994454  
3995.000000	65.016746  
3994.000000	65.044140  
3993.000000	65.071487  
3992.000000	65.094137  
3991.000000	65.109682  
3990.000000	65.118670  
3989.000000	65.124320  
3988.000000	65.131378  
3987.000000	65.144801  
3986.000000	65.167951  
3985.000000	65.201544  
3984.000000	65.243363  
3983.000000	65.288710  
3982.000000	65.331578  
3981.000000	65.366029  
3980.000000	65.387701  
3979.000000	65.394616  
3978.000000	65.387654  
3977.000000	65.369796  
3976.000000	65.345358  
3975.000000	65.319013  
3974.000000	65.294551  
3973.000000	65.274691  
3972.000000	65.260648  
3971.000000	65.252566  
3970.000000	65.249776  
3969.000000	65.251541  
3968.000000	65.257263  
3967.000000	65.266394  
3966.000000	65.278625  
3965.000000	65.293717  
3964.000000	65.310931  
3963.000000	65.328836  
3962.000000	65.344953  
3961.000000	65.356326  
3960.000000	65.359568  
3959.000000	65.351629  
3958.000000	65.330743  
3957.000000	65.296983  
3956.000000	65.252590  
3955.000000	65.201711  
3954.000000	65.149664  
3953.000000	65.102171  
3952.000000	65.064144  
3951.000000	65.038895  
3950.000000	65.027809  
3949.000000	65.030050  
3948.000000	65.043091  
3947.000000	65.062904  
3946.000000	65.085148  
3945.000000	65.105581  
3944.000000	65.120577  
3943.000000	65.127658  
3942.000000	65.125060  
3941.000000	65.112566  
3940.000000	65.090966  
3939.000000	65.062522  
3938.000000	65.030407  
3937.000000	64.998531  
3936.000000	64.971017  
3935.000000	64.951395  
3934.000000	64.942002  
3933.000000	64.943408  
3932.000000	64.954376  
3931.000000	64.972257  
3930.000000	64.993691  
3929.000000	65.015578  
3928.000000	65.035557  
3927.000000	65.052914  
3926.000000	65.068149  
3925.000000	65.082645  
3924.000000	65.097808  
3923.000000	65.114188  
3922.000000	65.131258  
3921.000000	65.147256  
3920.000000	65.160012  
3919.000000	65.167641  
3918.000000	65.169286  
3917.000000	65.165996  
3916.000000	65.160202  
3915.000000	65.155386  
3914.000000	65.154886  
3913.000000	65.160727  
3912.000000	65.173149  
3911.000000	65.190672  
3910.000000	65.210318  
3909.000000	65.228629  
3908.000000	65.242576  
3907.000000	65.250492  
3906.000000	65.252232  
3905.000000	65.249347  
3904.000000	65.243649  
3903.000000	65.236687  
3902.000000	65.229010  
3901.000000	65.220093  
3900.000000	65.208506  
3899.000000	65.192508  
3898.000000	65.171265  
3897.000000	65.145182  
3896.000000	65.116286  
3895.000000	65.087556  
3894.000000	65.062379  
3893.000000	65.043520  
3892.000000	65.032505  
3891.000000	65.029096  
3890.000000	65.031218  
3889.000000	65.035557  
3888.000000	65.038776  
3887.000000	65.038037  
3886.000000	65.031433  
3885.000000	65.018653  
3884.000000	65.000724  
3883.000000	64.979863  
3882.000000	64.958500  
3881.000000	64.939308  
3880.000000	64.924597  
3879.000000	64.916229  
3878.000000	64.915275  
3877.000000	64.922261  
3876.000000	64.937114  
3875.000000	64.959430  
3874.000000	64.988327  
3873.000000	65.022706  
3872.000000	65.061330  
3871.000000	65.102958  
3870.000000	65.146374  
3869.000000	65.189981  
3868.000000	65.231561  
3867.000000	65.268826  
3866.000000	65.298628  
3865.000000	65.317368  
3864.000000	65.321516  
3863.000000	65.308690  
3862.000000	65.278005  
3861.000000	65.231156  
3860.000000	65.171885  
3859.000000	65.106511  
3858.000000	65.041685  
3857.000000	64.984011  
3856.000000	64.937901  
3855.000000	64.905023  
3854.000000	64.884448  
3853.000000	64.873147  
3852.000000	64.867544  
3851.000000	64.864635  
3850.000000	64.863276  
3849.000000	64.864587  
3848.000000	64.871382  
3847.000000	64.887094  
3846.000000	64.914274  
3845.000000	64.953660  
3844.000000	65.003180  
3843.000000	65.058374  
3842.000000	65.113663  
3841.000000	65.163636  
3840.000000	65.204644  
3839.000000	65.235233  
3838.000000	65.256428  
3837.000000	65.270566  
3836.000000	65.280532  
3835.000000	65.288162  
3834.000000	65.294027  
3833.000000	65.296626  
3832.000000	65.293836  
3831.000000	65.282773  
3830.000000	65.261507  
3829.000000	65.229392  
3828.000000	65.188479  
3827.000000	65.142583  
3826.000000	65.096735  
3825.000000	65.056180  
3824.000000	65.025377  
3823.000000	65.006732  
3822.000000	65.000200  
3821.000000	65.003418  
3820.000000	65.012741  
3819.000000	65.024232  
3818.000000	65.035080  
3817.000000	65.044021  
3816.000000	65.051889  
3815.000000	65.061378  
3814.000000	65.075802  
3813.000000	65.098023  
3812.000000	65.129256  
3811.000000	65.168356  
3810.000000	65.212130  
3809.000000	65.255308  
3808.000000	65.292334  
3807.000000	65.319228  
3806.000000	65.334081  
3805.000000	65.337777  
3804.000000	65.333366  
3803.000000	65.325117  
3802.000000	65.316939  
3801.000000	65.311455  
3800.000000	65.309166  
3799.000000	65.308737  
3798.000000	65.307617  
3797.000000	65.303516  
3796.000000	65.294861  
3795.000000	65.281820  
3794.000000	65.266346  
3793.000000	65.251946  
3792.000000	65.242481  
3791.000000	65.241265  
3790.000000	65.250134  
3789.000000	65.268921  
3788.000000	65.295624  
3787.000000	65.326571  
3786.000000	65.357160  
3785.000000	65.382695  
3784.000000	65.399289  
3783.000000	65.404200  
3782.000000	65.396237  
3781.000000	65.375947  
3780.000000	65.345382  
3779.000000	65.307807  
3778.000000	65.267133  
3777.000000	65.227270  
3776.000000	65.191698  
3775.000000	65.162873  
3774.000000	65.142035  
3773.000000	65.129518  
3772.000000	65.124988  
3771.000000	65.127778  
3770.000000	65.137076  
3769.000000	65.152263  
3768.000000	65.172600  
3767.000000	65.197062  
3766.000000	65.223956  
3765.000000	65.250968  
3764.000000	65.274882  
3763.000000	65.292239  
3762.000000	65.299820  
3761.000000	65.295171  
3760.000000	65.277218  
3759.000000	65.247011  
3758.000000	65.207529  
3757.000000	65.163111  
3756.000000	65.118956  
3755.000000	65.080165  
3754.000000	65.050816  
3753.000000	65.033483  
3752.000000	65.028810  
3751.000000	65.035724  
3750.000000	65.051603  
3749.000000	65.072798  
3748.000000	65.095424  
3747.000000	65.115904  
3746.000000	65.131568  
3745.000000	65.140676  
3744.000000	65.142893  
3743.000000	65.138912  
3742.000000	65.130519  
3741.000000	65.119862  
3740.000000	65.109419  
3739.000000	65.101456  
3738.000000	65.098023  
3737.000000	65.100646  
3736.000000	65.109920  
3735.000000	65.125751  
3734.000000	65.147185  
3733.000000	65.172791  
3732.000000	65.200376  
3731.000000	65.227770  
3730.000000	65.253043  
3729.000000	65.274715  
3728.000000	65.292048  
3727.000000	65.304923  
3726.000000	65.313792  
3725.000000	65.319347  
3724.000000	65.322756  
3723.000000	65.324640  
3722.000000	65.325236  
3721.000000	65.324258  
3720.000000	65.321326  
3719.000000	65.315890  
3718.000000	65.307569  
3717.000000	65.296220  
3716.000000	65.282154  
3715.000000	65.265893  
3714.000000	65.248036  
3713.000000	65.229105  
3712.000000	65.209388  
3711.000000	65.188932  
3710.000000	65.167522  
3709.000000	65.145063  
3708.000000	65.121626  
3707.000000	65.097451  
3706.000000	65.073204  
3705.000000	65.049529  
3704.000000	65.027260  
3703.000000	65.007328  
3702.000000	64.990615  
3701.000000	64.977693  
3700.000000	64.969229  
3699.000000	64.965891  
3698.000000	64.968681  
3697.000000	64.978098  
3696.000000	64.994382  
3695.000000	65.017271  
3694.000000	65.045785  
3693.000000	65.078091  
3692.000000	65.111923  
3691.000000	65.144777  
3690.000000	65.174484  
3689.000000	65.199613  
3688.000000	65.219688  
3687.000000	65.235066  
3686.000000	65.246868  
3685.000000	65.256595  
3684.000000	65.265512  
3683.000000	65.274357  
3682.000000	65.283203  
3681.000000	65.291333  
3680.000000	65.297698  
3679.000000	65.300941  
3678.000000	65.300202  
3677.000000	65.294909  
3676.000000	65.285062  
3675.000000	65.271043  
3674.000000	65.253806  
3673.000000	65.234327  
3672.000000	65.213513  
3671.000000	65.192246  
3670.000000	65.171599  
3669.000000	65.152788  
3668.000000	65.137195  
3667.000000	65.126323  
3666.000000	65.121507  
3665.000000	65.123701  
3664.000000	65.133094  
3663.000000	65.148854  
3662.000000	65.168929  
3661.000000	65.190625  
3660.000000	65.210938  
3659.000000	65.226936  
3658.000000	65.236282  
3657.000000	65.237283  
3656.000000	65.229249  
3655.000000	65.212178  
3654.000000	65.187025  
3653.000000	65.155434  
3652.000000	65.119910  
3651.000000	65.083551  
3650.000000	65.050053  
3649.000000	65.023350  
3648.000000	65.007209  
3647.000000	65.004587  
3646.000000	65.017127  
3645.000000	65.044736  
3644.000000	65.085196  
3643.000000	65.134334  
3642.000000	65.186429  
3641.000000	65.235185  
3640.000000	65.274596  
3639.000000	65.300154  
3638.000000	65.309429  
3637.000000	65.302491  
3636.000000	65.282130  
3635.000000	65.253043  
3634.000000	65.221357  
3633.000000	65.193271  
3632.000000	65.174150  
3631.000000	65.167403  
3630.000000	65.173840  
3629.000000	65.191841  
3628.000000	65.217685  
3627.000000	65.246701  
3626.000000	65.274238  
3625.000000	65.297031  
3624.000000	65.313506  
3623.000000	65.324163  
3622.000000	65.330886  
3621.000000	65.336060  
3620.000000	65.341639  
3619.000000	65.348434  
3618.000000	65.355753  
3617.000000	65.361475  
3616.000000	65.363264  
3615.000000	65.359139  
3614.000000	65.348577  
3613.000000	65.332603  
3612.000000	65.314030  
3611.000000	65.296435  
3610.000000	65.283370  
3609.000000	65.277242  
3608.000000	65.278291  
3607.000000	65.284991  
3606.000000	65.294766  
3605.000000	65.304446  
3604.000000	65.311527  
3603.000000	65.315079  
3602.000000	65.316009  
3601.000000	65.316390  
3600.000000	65.318965  
3599.000000	65.325927  
3598.000000	65.338158  
3597.000000	65.354609  
3596.000000	65.372490  
3595.000000	65.388131  
3594.000000	65.397930  
3593.000000	65.399599  
3592.000000	65.392827  
3591.000000	65.379619  
3590.000000	65.363931  
3589.000000	65.350627  
3588.000000	65.344262  
3587.000000	65.347909  
3586.000000	65.362286  
3585.000000	65.385794  
3584.000000	65.414381  
3583.000000	65.442824  
3582.000000	65.465521  
3581.000000	65.477991  
3580.000000	65.477347  
3579.000000	65.462517  
3578.000000	65.434408  
3577.000000	65.395522  
3576.000000	65.349388  
3575.000000	65.299892  
3574.000000	65.250897  
3573.000000	65.205550  
3572.000000	65.166449  
3571.000000	65.135049  
3570.000000	65.111923  
3569.000000	65.096807  
3568.000000	65.088677  
3567.000000	65.086078  
3566.000000	65.087223  
3565.000000	65.090847  
3564.000000	65.095543  
3563.000000	65.100955  
3562.000000	65.107011  
3561.000000	65.114378  
3560.000000	65.123891  
3559.000000	65.136575  
3558.000000	65.153169  
3557.000000	65.173768  
3556.000000	65.197730  
3555.000000	65.223574  
3554.000000	65.249204  
3553.000000	65.272140  
3552.000000	65.289902  
3551.000000	65.300297  
3550.000000	65.301728  
3549.000000	65.293526  
3548.000000	65.276026  
3547.000000	65.250730  
3546.000000	65.220379  
3545.000000	65.188431  
3544.000000	65.158915  
3543.000000	65.136003  
3542.000000	65.123367  
3541.000000	65.123462  
3540.000000	65.137195  
3539.000000	65.163826  
3538.000000	65.201091  
3537.000000	65.245556  
3536.000000	65.293478  
3535.000000	65.341091  
3534.000000	65.384984  
3533.000000	65.422725  
3532.000000	65.452313  
3531.000000	65.472364  
3530.000000	65.481424  
3529.000000	65.478301  
3528.000000	65.462136  
3527.000000	65.432834  
3526.000000	65.391707  
3525.000000	65.341925  
3524.000000	65.288591  
3523.000000	65.238070  
3522.000000	65.196919  
3521.000000	65.170502  
3520.000000	65.161800  
3519.000000	65.170550  
3518.000000	65.193557  
3517.000000	65.225243  
3516.000000	65.258836  
3515.000000	65.288233  
3514.000000	65.308785  
3513.000000	65.318465  
3512.000000	65.317869  
3511.000000	65.309834  
3510.000000	65.298151  
3509.000000	65.286779  
3508.000000	65.278363  
3507.000000	65.273928  
3506.000000	65.272879  
3505.000000	65.273141  
3504.000000	65.272164  
3503.000000	65.267419  
3502.000000	65.257573  
3501.000000	65.242624  
3500.000000	65.223813  
3499.000000	65.203666  
3498.000000	65.185451  
3497.000000	65.172243  
3496.000000	65.166449  
3495.000000	65.168929  
3494.000000	65.178871  
3493.000000	65.194320  
3492.000000	65.212535  
3491.000000	65.230488  
3490.000000	65.245532  
3489.000000	65.256547  
3488.000000	65.263319  
3487.000000	65.266227  
3486.000000	65.265583  
3485.000000	65.261554  
3484.000000	65.253734  
3483.000000	65.241289  
3482.000000	65.223383  
3481.000000	65.199780  
3480.000000	65.171146  
3479.000000	65.139627  
3478.000000	65.108251  
3477.000000	65.080761  
3476.000000	65.060329  
3475.000000	65.048813  
3474.000000	65.046358  
3473.000000	65.051126  
3472.000000	65.059900  
3471.000000	65.068864  
3470.000000	65.074872  
3469.000000	65.076303  
3468.000000	65.073776  
3467.000000	65.070176  
3466.000000	65.069627  
3465.000000	65.076804  
3464.000000	65.095734  
3463.000000	65.128731  
3462.000000	65.175604  
3461.000000	65.233373  
3460.000000	65.297174  
3459.000000	65.360593  
3458.000000	65.417242  
3457.000000	65.461635  
3456.000000	65.490126  
3455.000000	65.501427  
3454.000000	65.496754  
3453.000000	65.479326  
3452.000000	65.453386  
3451.000000	65.423679  
3450.000000	65.394997  
3449.000000	65.371203  
3448.000000	65.355181  
3447.000000	65.348267  
3446.000000	65.350914  
3445.000000	65.361762  
3444.000000	65.378022  
3443.000000	65.395593  
3442.000000	65.409827  
3441.000000	65.415978  
3440.000000	65.409970  
3439.000000	65.389156  
3438.000000	65.353012  
3437.000000	65.303444  
3436.000000	65.244865  
3435.000000	65.182995  
3434.000000	65.124416  
3433.000000	65.075516  
3432.000000	65.041851  
3431.000000	65.026497  
3430.000000	65.030550  
3429.000000	65.053319  
3428.000000	65.092372  
3427.000000	65.143632  
3426.000000	65.202736  
3425.000000	65.265083  
3424.000000	65.326809  
3423.000000	65.384316  
3422.000000	65.435123  
3421.000000	65.477585  
3420.000000	65.511202  
3419.000000	65.536355  
3418.000000	65.553808  
3417.000000	65.564346  
3416.000000	65.568542  
3415.000000	65.566492  
3414.000000	65.557456  
3413.000000	65.540170  
3412.000000	65.513324  
3411.000000	65.475869  
3410.000000	65.427589  
3409.000000	65.369296  
3408.000000	65.303230  
3407.000000	65.232729  
3406.000000	65.161681  
3405.000000	65.093851  
3404.000000	65.032434  
3403.000000	64.979791  
3402.000000	64.936780  
3401.000000	64.903736  
3400.000000	64.880013  
3399.000000	64.865279  
3398.000000	64.859461  
3397.000000	64.863204  
3396.000000	64.876699  
3395.000000	64.900231  
3394.000000	64.933061  
3393.000000	64.973282  
3392.000000	65.017366  
3391.000000	65.060997  
3390.000000	65.099811  
3389.000000	65.130186  
3388.000000	65.150237  
3387.000000	65.160512  
3386.000000	65.163707  
3385.000000	65.164303  
3384.000000	65.167093  
3383.000000	65.176129  
3382.000000	65.193176  
3381.000000	65.217828  
3380.000000	65.246939  
3379.000000	65.275859  
3378.000000	65.299081  
3377.000000	65.312314  
3376.000000	65.312647  
3375.000000	65.299201  
3374.000000	65.273451  
3373.000000	65.238618  
3372.000000	65.199041  
3371.000000	65.159034  
3370.000000	65.122675  
3369.000000	65.093135  
3368.000000	65.072393  
3367.000000	65.061330  
3366.000000	65.059542  
3365.000000	65.065717  
3364.000000	65.077757  
3363.000000	65.093231  
3362.000000	65.109491  
3361.000000	65.124106  
3360.000000	65.135765  
3359.000000	65.144228  
3358.000000	65.150356  
3357.000000	65.155506  
3356.000000	65.161395  
3355.000000	65.168905  
3354.000000	65.177989  
3353.000000	65.187335  
3352.000000	65.194487  
3351.000000	65.196895  
3350.000000	65.192532  
3349.000000	65.180635  
3348.000000	65.162181  
3347.000000	65.139746  
3346.000000	65.116977  
3345.000000	65.097665  
3344.000000	65.085124  
3343.000000	65.081191  
3342.000000	65.086007  
3341.000000	65.097856  
3340.000000	65.113687  
3339.000000	65.129923  
3338.000000	65.143394  
3337.000000	65.151596  
3336.000000	65.153121  
3335.000000	65.147733  
3334.000000	65.136194  
3333.000000	65.120100  
3332.000000	65.101480  
3331.000000	65.082740  
3330.000000	65.066266  
3329.000000	65.054655  
3328.000000	65.050125  
3327.000000	65.054512  
3326.000000	65.068626  
3325.000000	65.092325  
3324.000000	65.123867  
3323.000000	65.160059  
3322.000000	65.196514  
3321.000000	65.227985  
3320.000000	65.249371  
3319.000000	65.256428  
3318.000000	65.246987  
3317.000000	65.221333  
3316.000000	65.182542  
3315.000000	65.135741  
3314.000000	65.087461  
3313.000000	65.044307  
3312.000000	65.012025  
3311.000000	64.994406  
3310.000000	64.993000  
3309.000000	65.006804  
3308.000000	65.032887  
3307.000000	65.067100  
3306.000000	65.104722  
3305.000000	65.141415  
3304.000000	65.173482  
3303.000000	65.198230  
3302.000000	65.214014  
3301.000000	65.220379  
3300.000000	65.217757  
3299.000000	65.207648  
3298.000000	65.192365  
3297.000000	65.174746  
3296.000000	65.158057  
3295.000000	65.144944  
3294.000000	65.137386  
3293.000000	65.135693  
3292.000000	65.138745  
3291.000000	65.144252  
3290.000000	65.149331  
3289.000000	65.151500  
3288.000000	65.149331  
3287.000000	65.143036  
3286.000000	65.134596  
3285.000000	65.127420  
3284.000000	65.125250  
3283.000000	65.131306  
3282.000000	65.147113  
3281.000000	65.172266  
3280.000000	65.204286  
3279.000000	65.239405  
3278.000000	65.273141  
3277.000000	65.301609  
3276.000000	65.322113  
3275.000000	65.333890  
3274.000000	65.337872  
3273.000000	65.335798  
3272.000000	65.329813  
3271.000000	65.321898  
3270.000000	65.313267  
3269.000000	65.304422  
3268.000000	65.295195  
3267.000000	65.285372  
3266.000000	65.274930  
3265.000000	65.264844  
3264.000000	65.256571  
3263.000000	65.251994  
3262.000000	65.252900  
3261.000000	65.260338  
3260.000000	65.274333  
3259.000000	65.293717  
3258.000000	65.316367  
3257.000000	65.339589  
3256.000000	65.360760  
3255.000000	65.378093  
3254.000000	65.390610  
3253.000000	65.398192  
3252.000000	65.401291  
3251.000000	65.400600  
3250.000000	65.396189  
3249.000000	65.387487  
3248.000000	65.373253  
3247.000000	65.352106  
3246.000000	65.322971  
3245.000000	65.285849  
3244.000000	65.242624  
3243.000000	65.197110  
3242.000000	65.154504  
3241.000000	65.120625  
3240.000000	65.100502  
3239.000000	65.097475  
3238.000000	65.112257  
3237.000000	65.142583  
3236.000000	65.183854  
3235.000000	65.229797  
3234.000000	65.273785  
3233.000000	65.309858  
3232.000000	65.333676  
3231.000000	65.342974  
3230.000000	65.337419  
3229.000000	65.318298  
3228.000000	65.287923  
3227.000000	65.249109  
3226.000000	65.204691  
3225.000000	65.157270  
3224.000000	65.109252  
3223.000000	65.062952  
3222.000000	65.020585  
3221.000000	64.984059  
3220.000000	64.955234  
3219.000000	64.935398  
3218.000000	64.925646  
3217.000000	64.926171  
3216.000000	64.936876  
3215.000000	64.956855  
3214.000000	64.984941  
3213.000000	65.018868  
3212.000000	65.056037  
3211.000000	65.093255  
3210.000000	65.127301  
3209.000000	65.155243  
3208.000000	65.174889  
3207.000000	65.185117  
3206.000000	65.186023  
3205.000000	65.178990  
3204.000000	65.166282  
3203.000000	65.150642  
3202.000000	65.134739  
3201.000000	65.121054  
3200.000000	65.111112  
3199.000000	65.105867  
3198.000000	65.105342  
3197.000000	65.109014  
3196.000000	65.116119  
3195.000000	65.125989  
3194.000000	65.137863  
3193.000000	65.151262  
3192.000000	65.165853  
3191.000000	65.181589  
3190.000000	65.198349  
3189.000000	65.215778  
3188.000000	65.233802  
3187.000000	65.251731  
3186.000000	65.268611  
3185.000000	65.282654  
3184.000000	65.291905  
3183.000000	65.293884  
3182.000000	65.286445  
3181.000000	65.267992  
3180.000000	65.237998  
3179.000000	65.197730  
3178.000000	65.150308  
3177.000000	65.100502  
3176.000000	65.054082  
3175.000000	65.017008  
3174.000000	64.994192  
3173.000000	64.988541  
3172.000000	65.000414  
3171.000000	65.027308  
3170.000000	65.064454  
3169.000000	65.105605  
3168.000000	65.144681  
3167.000000	65.176582  
3166.000000	65.198564  
3165.000000	65.210223  
3164.000000	65.213680  
3163.000000	65.212512  
3162.000000	65.210628  
3161.000000	65.211224  
3160.000000	65.215849  
3159.000000	65.224456  
3158.000000	65.235137  
3157.000000	65.245413  
3156.000000	65.252351  
3155.000000	65.253758  
3154.000000	65.248560  
3153.000000	65.237188  
3152.000000	65.221524  
3151.000000	65.204644  
3150.000000	65.189909  
3149.000000	65.180039  
3148.000000	65.176749  
3147.000000	65.180325  
3146.000000	65.189695  
3145.000000	65.202879  
3144.000000	65.217685  
3143.000000	65.232586  
3142.000000	65.247011  
3141.000000	65.261411  
3140.000000	65.276694  
3139.000000	65.293693  
3138.000000	65.312409  
3137.000000	65.331816  
3136.000000	65.349936  
3135.000000	65.364313  
3134.000000	65.372943  
3133.000000	65.375041  
3132.000000	65.371751  
3131.000000	65.365815  
3130.000000	65.361380  
3129.000000	65.361976  
3128.000000	65.369796  
3127.000000	65.384125  
3126.000000	65.401577  
3125.000000	65.416169  
3124.000000	65.421104  
3123.000000	65.410184  
3122.000000	65.379929  
3121.000000	65.330266  
3120.000000	65.265083  
3119.000000	65.191388  
3118.000000	65.118122  
3117.000000	65.054345  
3116.000000	65.007734  
3115.000000	64.982986  
3114.000000	64.981555  
3113.000000	65.001678  
3112.000000	65.039038  
3111.000000	65.087699  
3110.000000	65.141391  
3109.000000	65.194344  
3108.000000	65.242290  
3107.000000	65.282106  
3106.000000	65.312290  
3105.000000	65.332651  
3104.000000	65.343999  
3103.000000	65.347790  
3102.000000	65.345692  
3101.000000	65.339636  
3100.000000	65.331411  
3099.000000	65.322875  
3098.000000	65.315461  
3097.000000	65.310406  
3096.000000	65.308380  
3095.000000	65.309810  
3094.000000	65.314483  
3093.000000	65.321683  
3092.000000	65.330123  
3091.000000	65.338158  
3090.000000	65.343809  
3089.000000	65.344953  
3088.000000	65.339994  
3087.000000	65.328264  
3086.000000	65.309715  
3085.000000	65.285563  
3084.000000	65.257930  
3083.000000	65.229916  
3082.000000	65.204882  
3081.000000	65.185761  
3080.000000	65.174365  
3079.000000	65.171241  
3078.000000	65.175771  
3077.000000	65.186285  
3076.000000	65.200066  
3075.000000	65.214443  
3074.000000	65.227556  
3073.000000	65.238356  
3072.000000	65.246653  
3071.000000	65.252876  
3070.000000	65.257525  
3069.000000	65.260934  
3068.000000	65.262889  
3067.000000	65.262889  
3066.000000	65.260410  
3065.000000	65.255594  
3064.000000	65.249657  
3063.000000	65.244984  
3062.000000	65.244579  
3061.000000	65.251779  
3060.000000	65.268826  
3059.000000	65.296435  
3058.000000	65.332746  
3057.000000	65.373682  
3056.000000	65.413379  
3055.000000	65.445208  
3054.000000	65.463066  
3053.000000	65.462851  
3052.000000	65.443158  
3051.000000	65.405392  
3050.000000	65.353512  
3049.000000	65.293240  
3048.000000	65.231156  
3047.000000	65.173435  
3046.000000	65.125322  
3045.000000	65.090322  
3044.000000	65.070199  
3043.000000	65.065312  
3042.000000	65.074634  
3041.000000	65.096068  
3040.000000	65.127205  
3039.000000	65.165352  
3038.000000	65.207743  
3037.000000	65.251398  
3036.000000	65.293383  
3035.000000	65.330958  
3034.000000	65.361571  
3033.000000	65.383243  
3032.000000	65.395021  
3031.000000	65.397286  
3030.000000	65.391683  
3029.000000	65.380811  
3028.000000	65.367960  
3027.000000	65.356135  
3026.000000	65.347862  
3025.000000	65.344214  
3024.000000	65.345001  
3023.000000	65.348625  
3022.000000	65.352773  
3021.000000	65.354871  
3020.000000	65.353083  
3019.000000	65.346598  
3018.000000	65.335893  
3017.000000	65.322613  
3016.000000	65.308833  
3015.000000	65.296697  
3014.000000	65.287804  
3013.000000	65.282750  
3012.000000	65.281033  
3011.000000	65.281367  
3010.000000	65.282034  
3009.000000	65.281414  
3008.000000	65.278363  
3007.000000	65.272378  
3006.000000	65.263581  
3005.000000	65.252923  
3004.000000	65.241742  
3003.000000	65.231275  
3002.000000	65.222382  
3001.000000	65.215730  
3000.000000	65.211582  
2999.000000	65.209770  
2998.000000	65.209722  
2997.000000	65.210890  
2996.000000	65.212392  
2995.000000	65.213465  
2994.000000	65.213251  
2993.000000	65.210795  
2992.000000	65.205383  
2991.000000	65.196490  
2990.000000	65.184044  
2989.000000	65.168642  
2988.000000	65.151548  
2987.000000	65.134668  
2986.000000	65.120220  
2985.000000	65.110397  
2984.000000	65.106821  
2983.000000	65.110135  
2982.000000	65.119695  
2981.000000	65.133333  
2980.000000	65.147805  
2979.000000	65.159249  
2978.000000	65.163874  
2977.000000	65.158772  
2976.000000	65.142464  
2975.000000	65.115427  
2974.000000	65.079808  
2973.000000	65.039324  
2972.000000	64.998507  
2971.000000	64.961791  
2970.000000	64.932680  
2969.000000	64.913225  
2968.000000	64.903879  
2967.000000	64.903569  
2966.000000	64.909934  
2965.000000	64.920163  
2964.000000	64.931607  
2963.000000	64.942479  
2962.000000	64.952135  
2961.000000	64.960980  
2960.000000	64.970111  
2959.000000	64.980649  
2958.000000	64.993286  
2957.000000	65.007805  
2956.000000	65.023016  
2955.000000	65.037107  
2954.000000	65.047979  
2953.000000	65.053963  
2952.000000	65.054321  
2951.000000	65.049457  
2950.000000	65.040898  
2949.000000	65.030837  
2948.000000	65.021681  
2947.000000	65.015602  
2946.000000	65.014052  
2945.000000	65.017628  
2944.000000	65.026140  
2943.000000	65.038657  
2942.000000	65.053844  
2941.000000	65.070199  
2940.000000	65.086364  
2939.000000	65.100765  
2938.000000	65.112209  
2937.000000	65.119791  
2936.000000	65.123057  
2935.000000	65.122008  
2934.000000	65.117406  
2933.000000	65.110683  
2932.000000	65.103840  
2931.000000	65.099024  
2930.000000	65.097856  
2929.000000	65.101170  
2928.000000	65.108013  
2927.000000	65.116095  
2926.000000	65.121889  
2925.000000	65.121722  
2924.000000	65.112829  
2923.000000	65.094327  
2922.000000	65.067625  
2921.000000	65.036153  
2920.000000	65.004611  
2919.000000	64.977908  
2918.000000	64.959645  
2917.000000	64.951610  
2916.000000	64.953470  
2915.000000	64.963150  
2914.000000	64.977717  
2913.000000	64.994263  
2912.000000	65.010738  
2911.000000	65.026354  
2910.000000	65.041399  
2909.000000	65.057063  
2908.000000	65.074515  
2907.000000	65.094566  
2906.000000	65.116953  
2905.000000	65.140485  
2904.000000	65.163254  
2903.000000	65.183520  
2902.000000	65.200066  
2901.000000	65.212273  
2900.000000	65.220284  
2899.000000	65.225028  
2898.000000	65.227699  
2897.000000	65.229153  
2896.000000	65.229725  
2895.000000	65.229296  
2894.000000	65.227293  
2893.000000	65.223097  
2892.000000	65.216469  
2891.000000	65.207624  
2890.000000	65.197396  
2889.000000	65.187358  
2888.000000	65.179038  
2887.000000	65.173816  
2886.000000	65.172219  
2885.000000	65.173912  
2884.000000	65.177369  
2883.000000	65.180468  
2882.000000	65.181159  
2881.000000	65.178084  
2880.000000	65.171074  
2879.000000	65.161252  
2878.000000	65.151214  
2877.000000	65.144371  
2876.000000	65.144252  
2875.000000	65.153527  
2874.000000	65.173411  
2873.000000	65.203213  
2872.000000	65.240502  
2871.000000	65.281009  
2870.000000	65.319848  
2869.000000	65.351724  
2868.000000	65.372323  
2867.000000	65.378427  
2866.000000	65.368556  
2865.000000	65.342640  
2864.000000	65.302515  
2863.000000	65.251088  
2862.000000	65.192532  
2861.000000	65.131187  
2860.000000	65.071868  
2859.000000	65.018725  
2858.000000	64.975094  
2857.000000	64.943170  
2856.000000	64.923667  
2855.000000	64.915895  
2854.000000	64.917731  
2853.000000	64.926338  
2852.000000	64.938378  
2851.000000	64.951014  
2850.000000	64.962124  
2849.000000	64.970779  
2848.000000	64.977145  
2847.000000	64.982390  
2846.000000	64.988255  
2845.000000	64.996457  
2844.000000	65.008282  
2843.000000	65.024495  
2842.000000	65.044927  
2841.000000	65.068769  
2840.000000	65.094327  
2839.000000	65.119719  
2838.000000	65.142941  
2837.000000	65.162301  
2836.000000	65.176725  
2835.000000	65.185928  
2834.000000	65.190553  
2833.000000	65.192294  
2832.000000	65.193390  
2831.000000	65.195822  
2830.000000	65.201187  
2829.000000	65.210390  
2828.000000	65.223360  
2827.000000	65.239000  
2826.000000	65.255618  
2825.000000	65.271520  
2824.000000	65.285277  
2823.000000	65.296196  
2822.000000	65.304255  
2821.000000	65.309977  
2820.000000	65.314078  
2819.000000	65.316939  
2818.000000	65.318393  
2817.000000	65.317559  
2816.000000	65.312981  
2815.000000	65.303421  
2814.000000	65.287995  
2813.000000	65.266966  
2812.000000	65.242171  
2811.000000	65.216732  
2810.000000	65.194582  
2809.000000	65.179753  
2808.000000	65.175580  
2807.000000	65.183830  
2806.000000	65.204143  
2805.000000	65.234041  
2804.000000	65.269374  
2803.000000	65.304803  
2802.000000	65.335130  
2801.000000	65.355992  
2800.000000	65.364551  
2799.000000	65.360093  
2798.000000	65.343856  
2797.000000	65.318942  
2796.000000	65.289545  
2795.000000	65.260386  
2794.000000	65.235519  
2793.000000	65.217947  
2792.000000	65.209031  
2791.000000	65.208506  
2790.000000	65.214633  
2789.000000	65.224575  
2788.000000	65.235066  
2787.000000	65.243029  
2786.000000	65.246534  
2785.000000	65.244460  
2784.000000	65.237236  
2783.000000	65.226197  
2782.000000	65.213608  
2781.000000	65.201950  
2780.000000	65.193533  
2779.000000	65.190291  
2778.000000	65.193176  
2777.000000	65.202426  
2776.000000	65.217161  
2775.000000	65.235924  
2774.000000	65.256285  
2773.000000	65.275859  
2772.000000	65.291857  
2771.000000	65.301895  
2770.000000	65.304565  
2769.000000	65.299725  
2768.000000	65.288758  
2767.000000	65.274310  
2766.000000	65.260028  
2765.000000	65.249729  
2764.000000	65.246868  
2763.000000	65.253663  
2762.000000	65.270447  
2761.000000	65.295553  
2760.000000	65.325999  
2759.000000	65.357685  
2758.000000	65.386724  
2757.000000	65.410041  
2756.000000	65.425992  
2755.000000	65.434575  
2754.000000	65.437483  
2753.000000	65.437221  
2752.000000	65.436220  
2751.000000	65.436244  
2750.000000	65.437746  
2749.000000	65.439724  
2748.000000	65.440344  
2747.000000	65.437150  
2746.000000	65.428113  
2745.000000	65.412282  
2744.000000	65.390276  
2743.000000	65.364122  
2742.000000	65.337061  
2741.000000	65.312671  
2740.000000	65.294075  
2739.000000	65.283298  
2738.000000	65.280842  
2737.000000	65.285706  
2736.000000	65.295696  
2735.000000	65.308380  
2734.000000	65.321302  
2733.000000	65.332722  
2732.000000	65.341567  
2731.000000	65.347456  
2730.000000	65.350270  
2729.000000	65.349864  
2728.000000	65.345859  
2727.000000	65.337944  
2726.000000	65.325784  
2725.000000	65.309381  
2724.000000	65.289497  
2723.000000	65.267872  
2722.000000	65.246868  
2721.000000	65.228986  
2720.000000	65.216517  
2719.000000	65.211129  
2718.000000	65.213489  
2717.000000	65.223050  
2716.000000	65.238666  
2715.000000	65.258812  
2714.000000	65.282130  
2713.000000	65.307378  
2712.000000	65.333557  
2711.000000	65.359592  
2710.000000	65.384125  
2709.000000	65.405797  
2708.000000	65.422677  
2707.000000	65.433120  
2706.000000	65.436220  
2705.000000	65.432190  
2704.000000	65.422821  
2703.000000	65.410828  
2702.000000	65.399813  
2701.000000	65.392827  
2700.000000	65.392255  
2699.000000	65.398263  
2698.000000	65.409350  
2697.000000	65.422010  
2696.000000	65.431857  
2695.000000	65.434479  
2694.000000	65.426802  
2693.000000	65.407633  
2692.000000	65.378046  
2691.000000	65.341019  
2690.000000	65.300846  
2689.000000	65.262055  
2688.000000	65.228438  
2687.000000	65.202569  
2686.000000	65.185499  
2685.000000	65.177059  
2684.000000	65.176367  
2683.000000	65.182137  
2682.000000	65.193104  
2681.000000	65.208435  
2680.000000	65.227460  
2679.000000	65.249133  
2678.000000	65.272235  
2677.000000	65.294885  
2676.000000	65.315008  
2675.000000	65.330505  
2674.000000	65.339994  
2673.000000	65.343022  
2672.000000	65.340352  
2671.000000	65.334010  
2670.000000	65.326309  
2669.000000	65.319371  
2668.000000	65.314412  
2667.000000	65.311717  
2666.000000	65.310645  
2665.000000	65.310096  
2664.000000	65.309119  
2663.000000	65.307521  
2662.000000	65.305995  
2661.000000	65.305948  
2660.000000	65.309095  
2659.000000	65.316748  
2658.000000	65.329217  
2657.000000	65.345692  
2656.000000	65.364193  
2655.000000	65.382099  
2654.000000	65.396952  
2653.000000	65.406751  
2652.000000	65.410757  
2651.000000	65.409183  
2650.000000	65.403199  
2649.000000	65.394401  
2648.000000	65.384244  
2647.000000	65.374135  
2646.000000	65.365338  
2645.000000	65.359020  
2644.000000	65.356326  
2643.000000	65.358161  
2642.000000	65.365195  
2641.000000	65.377449  
2640.000000	65.393900  
2639.000000	65.412664  
2638.000000	65.431046  
2637.000000	65.446019  
2636.000000	65.454840  
2635.000000	65.455412  
2634.000000	65.446829  
2633.000000	65.429496  
2632.000000	65.405201  
2631.000000	65.376496  
2630.000000	65.346479  
2629.000000	65.318179  
2628.000000	65.293979  
2627.000000	65.275859  
2626.000000	65.264773  
2625.000000	65.260934  
2624.000000	65.263652  
2623.000000	65.271520  
2622.000000	65.282678  
2621.000000	65.294599  
2620.000000	65.304875  
2619.000000	65.311503  
2618.000000	65.313243  
2617.000000	65.309715  
2616.000000	65.301513  
2615.000000	65.289711  
2614.000000	65.275788  
2613.000000	65.261220  
2612.000000	65.247368  
2611.000000	65.235376  
2610.000000	65.226173  
2609.000000	65.220522  
2608.000000	65.218901  
2607.000000	65.221571  
2606.000000	65.228295  
2605.000000	65.238165  
2604.000000	65.249562  
2603.000000	65.260314  
2602.000000	65.267825  
2601.000000	65.269804  
2600.000000	65.264725  
2599.000000	65.252327  
2598.000000	65.233898  
2597.000000	65.211939  
2596.000000	65.189504  
2595.000000	65.169668  
2594.000000	65.154790  
2593.000000	65.146255  
2592.000000	65.144205  
2591.000000	65.147900  
2590.000000	65.155982  
2589.000000	65.167117  
2588.000000	65.180015  
2587.000000	65.193939  
2586.000000	65.208530  
2585.000000	65.223836  
2584.000000	65.239977  
2583.000000	65.257120  
2582.000000	65.275168  
2581.000000	65.293765  
2580.000000	65.312051  
2579.000000	65.328907  
2578.000000	65.342926  
2577.000000	65.352439  
2576.000000	65.355706  
2575.000000	65.351247  
2574.000000	65.338253  
2573.000000	65.317034  
2572.000000	65.289163  
2571.000000	65.257406  
2570.000000	65.225553  
2569.000000	65.197777  
2568.000000	65.177893  
2567.000000	65.168595  
2566.000000	65.171051  
2565.000000	65.184712  
2564.000000	65.207505  
2563.000000	65.236258  
2562.000000	65.267562  
2561.000000	65.298104  
2560.000000	65.325260  
2559.000000	65.347218  
2558.000000	65.363168  
2557.000000	65.372824  
2556.000000	65.376424  
2555.000000	65.374445  
2554.000000	65.367650  
2553.000000	65.356922  
2552.000000	65.343427  
2551.000000	65.328502  
2550.000000	65.313220  
2549.000000	65.298414  
2548.000000	65.284371  
2547.000000	65.270924  
2546.000000	65.257358  
2545.000000	65.243029  
2544.000000	65.227675  
2543.000000	65.211725  
2542.000000	65.196394  
2541.000000	65.183496  
2540.000000	65.174961  
2539.000000	65.172457  
2538.000000	65.176510  
2537.000000	65.186619  
2536.000000	65.200829  
2535.000000	65.216398  
2534.000000	65.230345  
2533.000000	65.240240  
2532.000000	65.244698  
2531.000000	65.243768  
2530.000000	65.238690  
2529.000000	65.231537  
2528.000000	65.224456  
2527.000000	65.219235  
2526.000000	65.216922  
2525.000000	65.217685  
2524.000000	65.221071  
2523.000000	65.226531  
2522.000000	65.233898  
2521.000000	65.243363  
2520.000000	65.255618  
2519.000000	65.271162  
2518.000000	65.289831  
2517.000000	65.310692  
2516.000000	65.331625  
2515.000000	65.349602  
2514.000000	65.361189  
2513.000000	65.363645  
2512.000000	65.355324  
2511.000000	65.336179  
2510.000000	65.307879  
2509.000000	65.273666  
2508.000000	65.237832  
2507.000000	65.204787  
2506.000000	65.178632  
2505.000000	65.162324  
2504.000000	65.157175  
2503.000000	65.162825  
2502.000000	65.177297  
2501.000000	65.197396  
2500.000000	65.218997  
2499.000000	65.237903  
2498.000000	65.250372  
2497.000000	65.253734  
2496.000000	65.247011  
2495.000000	65.231132  
2494.000000	65.208768  
2493.000000	65.183925  
2492.000000	65.161180  
2491.000000	65.144848  
2490.000000	65.137934  
2489.000000	65.141940  
2488.000000	65.156722  
2487.000000	65.180659  
2486.000000	65.211081  
2485.000000	65.244913  
2484.000000	65.279197  
2483.000000	65.311646  
2482.000000	65.340399  
2481.000000	65.364646  
2480.000000	65.384078  
2479.000000	65.398979  
2478.000000	65.409946  
2477.000000	65.417480  
2476.000000	65.421986  
2475.000000	65.423774  
2474.000000	65.423393  
2473.000000	65.421485  
2472.000000	65.418982  
2471.000000	65.417003  
2470.000000	65.416669  
2469.000000	65.419054  
2468.000000	65.424728  
2467.000000	65.433526  
2466.000000	65.444302  
2465.000000	65.455245  
2464.000000	65.463972  
2463.000000	65.468168  
2462.000000	65.466308  
2461.000000	65.457868  
2460.000000	65.443634  
2459.000000	65.425491  
2458.000000	65.406012  
2457.000000	65.388035  
2456.000000	65.373778  
2455.000000	65.364193  
2454.000000	65.359354  
2453.000000	65.358567  
2452.000000	65.360856  
2451.000000	65.365552  
2450.000000	65.372109  
2449.000000	65.380406  
2448.000000	65.390324  
2447.000000	65.401673  
2446.000000	65.413522  
2445.000000	65.424060  
2444.000000	65.431261  
2443.000000	65.433096  
2442.000000	65.428471  
2441.000000	65.417575  
2440.000000	65.402507  
2439.000000	65.386414  
2438.000000	65.373659  
2437.000000	65.367674  
2436.000000	65.370464  
2435.000000	65.381097  
2434.000000	65.396046  
2433.000000	65.409231  
2432.000000	65.413498  
2431.000000	65.402555  
2430.000000	65.372610  
2429.000000	65.324354  
2428.000000	65.262508  
2427.000000	65.196037  
2426.000000	65.135908  
2425.000000	65.093445  
2424.000000	65.077424  
2423.000000	65.092730  
2422.000000	65.139031  
2421.000000	65.211296  
2420.000000	65.300726  
2419.000000	65.396666  
2418.000000	65.488624  
2417.000000	65.567755  
2416.000000	65.628051  
2415.000000	65.666627  
2414.000000	65.683007  
2413.000000	65.678930  
2412.000000	65.656876  
2411.000000	65.619921  
2410.000000	65.570783  
2409.000000	65.512657  
2408.000000	65.448594  
2407.000000	65.382289  
2406.000000	65.317511  
2405.000000	65.258407  
2404.000000	65.208840  
2403.000000	65.171957  
2402.000000	65.149879  
2401.000000	65.142822  
2400.000000	65.149736  
2399.000000	65.168070  
2398.000000	65.194559  
2397.000000	65.225410  
2396.000000	65.257263  
2395.000000	65.287041  
2394.000000	65.312647  
2393.000000	65.332746  
2392.000000	65.346813  
2391.000000	65.354824  
2390.000000	65.357208  
2389.000000	65.354537  
2388.000000	65.347743  
2387.000000	65.337920  
2386.000000	65.326118  
2385.000000	65.313220  
2384.000000	65.300178  
2383.000000	65.287756  
2382.000000	65.276503  
2381.000000	65.266227  
2380.000000	65.256237  
2379.000000	65.245413  
2378.000000	65.232467  
2377.000000	65.216588  
2376.000000	65.197300  
2375.000000	65.175485  
2374.000000	65.153050  
2373.000000	65.133070  
2372.000000	65.118622  
2371.000000	65.112686  
2370.000000	65.117216  
2369.000000	65.132784  
2368.000000	65.158224  
2367.000000	65.190839  
2366.000000	65.226745  
2365.000000	65.261769  
2364.000000	65.292072  
2363.000000	65.314817  
2362.000000	65.328502  
2361.000000	65.333080  
2360.000000	65.329718  
2359.000000	65.320587  
2358.000000	65.308046  
2357.000000	65.294480  
2356.000000	65.281581  
2355.000000	65.270447  
2354.000000	65.261387  
2353.000000	65.254306  
2352.000000	65.248680  
2351.000000	65.244317  
2350.000000	65.241360  
2349.000000	65.240430  
2348.000000	65.242671  
2347.000000	65.249419  
2346.000000	65.261650  
2345.000000	65.279531  
2344.000000	65.302109  
2343.000000	65.327382  
2342.000000	65.352535  
2341.000000	65.374326  
2340.000000	65.390062  
2339.000000	65.398144  
2338.000000	65.398764  
2337.000000	65.393614  
2336.000000	65.385580  
2335.000000	65.378022  
2334.000000	65.373682  
2333.000000	65.373826  
2332.000000	65.377879  
2331.000000	65.383505  
2330.000000	65.387344  
2329.000000	65.386080  
2328.000000	65.377402  
2327.000000	65.360784  
2326.000000	65.337634  
2325.000000	65.311169  
2324.000000	65.285420  
2323.000000	65.264630  
2322.000000	65.252017  
2321.000000	65.249371  
2320.000000	65.256786  
2319.000000	65.272688  
2318.000000	65.294504  
2317.000000	65.319132  
2316.000000	65.343785  
2315.000000	65.366387  
2314.000000	65.385556  
2313.000000	65.400910  
2312.000000	65.412259  
2311.000000	65.419769  
2310.000000	65.423417  
2309.000000	65.423059  
2308.000000	65.418410  
2307.000000	65.409135  
2306.000000	65.395355  
2305.000000	65.377473  
2304.000000	65.356612  
2303.000000	65.334463  
2302.000000	65.312838  
2301.000000	65.293622  
2300.000000	65.278434  
2299.000000	65.268206  
2298.000000	65.263247  
2297.000000	65.263128  
2296.000000	65.267014  
2295.000000	65.273785  
2294.000000	65.282535  
2293.000000	65.292668  
2292.000000	65.303945  
2291.000000	65.316200  
2290.000000	65.329217  
2289.000000	65.342545  
2288.000000	65.355515  
2287.000000	65.367150  
2286.000000	65.376234  
2285.000000	65.381693  
2284.000000	65.382742  
2283.000000	65.379190  
2282.000000	65.371346  
2281.000000	65.360045  
2280.000000	65.346455  
2279.000000	65.331721  
2278.000000	65.316987  
2277.000000	65.303015  
2276.000000	65.290284  
2275.000000	65.278863  
2274.000000	65.268731  
2273.000000	65.260028  
2272.000000	65.253067  
2271.000000	65.248560  
2270.000000	65.247201  
2269.000000	65.250086  
2268.000000	65.257883  
2267.000000	65.270805  
2266.000000	65.288305  
2265.000000	65.309047  
2264.000000	65.331053  
2263.000000	65.351867  
2262.000000	65.368914  
2261.000000	65.380167  
2260.000000	65.384578  
2259.000000	65.382122  
2258.000000	65.373873  
2257.000000	65.361714  
2256.000000	65.347981  
2255.000000	65.334820  
2254.000000	65.323853  
2253.000000	65.316200  
2252.000000	65.312242  
2251.000000	65.311813  
2250.000000	65.314412  
2249.000000	65.319418  
2248.000000	65.326547  
2247.000000	65.335488  
2246.000000	65.346169  
2245.000000	65.358543  
2244.000000	65.372490  
2243.000000	65.387701  
2242.000000	65.403509  
2241.000000	65.418958  
2240.000000	65.432667  
2239.000000	65.443301  
2238.000000	65.449452  
2237.000000	65.450096  
2236.000000	65.444660  
2235.000000	65.433359  
2234.000000	65.417337  
2233.000000	65.398502  
2232.000000	65.379524  
2231.000000	65.363121  
2230.000000	65.351676  
2229.000000	65.346527  
2228.000000	65.347671  
2227.000000	65.353775  
2226.000000	65.362262  
2225.000000	65.370178  
2224.000000	65.374660  
2223.000000	65.373802  
2222.000000	65.366864  
2221.000000	65.354537  
2220.000000	65.338540  
2219.000000	65.321302  
2218.000000	65.305447  
2217.000000	65.293192  
2216.000000	65.285849  
2215.000000	65.283679  
2214.000000	65.286135  
2213.000000	65.291833  
2212.000000	65.299081  
2211.000000	65.306234  
2210.000000	65.312051  
2209.000000	65.316152  
2208.000000	65.318536  
2207.000000	65.320348  
2206.000000	65.323090  
2205.000000	65.328502  
2204.000000	65.338182  
2203.000000	65.353059  
2202.000000	65.373015  
2201.000000	65.397047  
2200.000000	65.423274  
2199.000000	65.449285  
2198.000000	65.472459  
2197.000000	65.490698  
2196.000000	65.502643  
2195.000000	65.507626  
2194.000000	65.505671  
2193.000000	65.497374  
2192.000000	65.483713  
2191.000000	65.466070  
2190.000000	65.446066  
2189.000000	65.425372  
2188.000000	65.405607  
2187.000000	65.388250  
2186.000000	65.374517  
2185.000000	65.365004  
2184.000000	65.359830  
2183.000000	65.358591  
2182.000000	65.360283  
2181.000000	65.363526  
2180.000000	65.367078  
2179.000000	65.369987  
2178.000000	65.371704  
2177.000000	65.372037  
2176.000000	65.371394  
2175.000000	65.370273  
2174.000000	65.369606  
2173.000000	65.370321  
2172.000000	65.373563  
2171.000000	65.380096  
2170.000000	65.390658  
2169.000000	65.405154  
2168.000000	65.422534  
2167.000000	65.440368  
2166.000000	65.455245  
2165.000000	65.462994  
2164.000000	65.459871  
2163.000000	65.443205  
2162.000000	65.412497  
2161.000000	65.369272  
2160.000000	65.317201  
2159.000000	65.261030  
2158.000000	65.206027  
2157.000000	65.156555  
2156.000000	65.115189  
2155.000000	65.082573  
2154.000000	65.057539  
2153.000000	65.038228  
2152.000000	65.022826  
2151.000000	65.010786  
2150.000000	65.002822  
2149.000000	65.001535  
2148.000000	65.010380  
2147.000000	65.032625  
2146.000000	65.070199  
2145.000000	65.122842  
2144.000000	65.187668  
2143.000000	65.259552  
2142.000000	65.331530  
2141.000000	65.396046  
2140.000000	65.446400  
2139.000000	65.477752  
2138.000000	65.488362  
2137.000000	65.479636  
2136.000000	65.455842  
2135.000000	65.423536  
2134.000000	65.389776  
2133.000000	65.361166  
2132.000000	65.342116  
2131.000000	65.334987  
2130.000000	65.338921  
2129.000000	65.350961  
2128.000000	65.366411  
2127.000000	65.380740  
2126.000000	65.389990  
2125.000000	65.391707  
2124.000000	65.385222  
2123.000000	65.371775  
2122.000000	65.353870  
2121.000000	65.334320  
2120.000000	65.315866  
2119.000000	65.300822  
2118.000000	65.290689  
2117.000000	65.286278  
2116.000000	65.287971  
2115.000000	65.295696  
2114.000000	65.308928  
2113.000000	65.326762  
2112.000000	65.347409  
2111.000000	65.368604  
2110.000000	65.387701  
2109.000000	65.402150  
2108.000000	65.409564  
2107.000000	65.408658  
2106.000000	65.399718  
2105.000000	65.384531  
2104.000000	65.366196  
2103.000000	65.348362  
2102.000000	65.334630  
2101.000000	65.327668  
2100.000000	65.328741  
2099.000000	65.337967  
2098.000000	65.354371  
2097.000000	65.376377  
2096.000000	65.402221  
2095.000000	65.430665  
2094.000000	65.461254  
2093.000000	65.493869  
2092.000000	65.528440  
2091.000000	65.564799  
2090.000000	65.602350  
2089.000000	65.639996  
2088.000000	65.675997  
2087.000000	65.708398  
2086.000000	65.734767  
2085.000000	65.753459  
2084.000000	65.763115  
2083.000000	65.762996  
2082.000000	65.752959  
2081.000000	65.733814  
2080.000000	65.706849  
2079.000000	65.674614  
2078.000000	65.639877  
2077.000000	65.606021  
2076.000000	65.575838  
2075.000000	65.551424  
2074.000000	65.533328  
2073.000000	65.520572  
2072.000000	65.510559  
2071.000000	65.499734  
2070.000000	65.484166  
2069.000000	65.460681  
2068.000000	65.427279  
2067.000000	65.383958  
2066.000000	65.332627  
2065.000000	65.277004  
2064.000000	65.222430  
2063.000000	65.175151  
2062.000000	65.141081  
2061.000000	65.124893  
2060.000000	65.129685  
2059.000000	65.155863  
2058.000000	65.201044  
2057.000000	65.260100  
2056.000000	65.325617  
2055.000000	65.389180  
2054.000000	65.442204  
2053.000000	65.478062  
2052.000000	65.492773  
2051.000000	65.486097  
2050.000000	65.461397  
2049.000000	65.424704  
2048.000000	65.383291  
2047.000000	65.344095  
2046.000000	65.312743  
2045.000000	65.292191  
2044.000000	65.282893  
2043.000000	65.282893  
2042.000000	65.289258  
2041.000000	65.298438  
2040.000000	65.307283  
2039.000000	65.313315  
2038.000000	65.315127  
2037.000000	65.312027  
2036.000000	65.303897  
2035.000000	65.290999  
2034.000000	65.274047  
2033.000000	65.254163  
2032.000000	65.233016  
2031.000000	65.212750  
2030.000000	65.195965  
2029.000000	65.185046  
2028.000000	65.181851  
2027.000000	65.186953  
2026.000000	65.199971  
2025.000000	65.219354  
2024.000000	65.243172  
2023.000000	65.268969  
2022.000000	65.294599  
2021.000000	65.318512  
2020.000000	65.339756  
2019.000000	65.357875  
2018.000000	65.372538  
2017.000000	65.383315  
2016.000000	65.389823  
2015.000000	65.391755  
2014.000000	65.388798  
2013.000000	65.381050  
2012.000000	65.369296  
2011.000000	65.354943  
2010.000000	65.339946  
2009.000000	65.326094  
2008.000000	65.314841  
2007.000000	65.306806  
2006.000000	65.301895  
2005.000000	65.298986  
2004.000000	65.296673  
2003.000000	65.293455  
2002.000000	65.288019  
2001.000000	65.279603  
2000.000000	65.268301  
1999.000000	65.254926  
1998.000000	65.240693  
1997.000000	65.227198  
1996.000000	65.215992  
1995.000000	65.208220  
1994.000000	65.204477  
1993.000000	65.204763  
1992.000000	65.208339  
1991.000000	65.214252  
1990.000000	65.221428  
1989.000000	65.228939  
1988.000000	65.235972  
1987.000000	65.242266  
1986.000000	65.247869  
1985.000000	65.253090  
1984.000000	65.258336  
1983.000000	65.263819  
1982.000000	65.269565  
1981.000000	65.275406  
1980.000000	65.280914  
1979.000000	65.285730  
1978.000000	65.289568  
1977.000000	65.292549  
1976.000000	65.295052  
1975.000000	65.297865  
1974.000000	65.302062  
1973.000000	65.308475  
1972.000000	65.317821  
1971.000000	65.330410  
1970.000000	65.346074  
1969.000000	65.364122  
1968.000000	65.383529  
1967.000000	65.403032  
1966.000000	65.421295  
1965.000000	65.437316  
1964.000000	65.450024  
1963.000000	65.458559  
1962.000000	65.462231  
1961.000000	65.460705  
1960.000000	65.454006  
1959.000000	65.442633  
1958.000000	65.427732  
1957.000000	65.410971  
1956.000000	65.394258  
1955.000000	65.379285  
1954.000000	65.367388  
1953.000000	65.359210  
1952.000000	65.354514  
1951.000000	65.352249  
1950.000000	65.350651  
1949.000000	65.347647  
1948.000000	65.341210  
1947.000000	65.329766  
1946.000000	65.312242  
1945.000000	65.288877  
1944.000000	65.260696  
1943.000000	65.229964  
1942.000000	65.199470  
1941.000000	65.172576  
1940.000000	65.152430  
1939.000000	65.141677  
1938.000000	65.141701  
1937.000000	65.152716  
1936.000000	65.173482  
1935.000000	65.201711  
1934.000000	65.234208  
1933.000000	65.267896  
1932.000000	65.300178  
1931.000000	65.329527  
1930.000000	65.355300  
1929.000000	65.377616  
1928.000000	65.396928  
1927.000000	65.413761  
1926.000000	65.428256  
1925.000000	65.439915  
1924.000000	65.447688  
1923.000000	65.450668  
1922.000000	65.448212  
1921.000000	65.440559  
1920.000000	65.428495  
1919.000000	65.413904  
1918.000000	65.398907  
1917.000000	65.385508  
1916.000000	65.375232  
1915.000000	65.368819  
1914.000000	65.366077  
1913.000000	65.366315  
1912.000000	65.368366  
1911.000000	65.371346  
1910.000000	65.374541  
1909.000000	65.377712  
1908.000000	65.380907  
1907.000000	65.384221  
1906.000000	65.387725  
1905.000000	65.391349  
1904.000000	65.394878  
1903.000000	65.398144  
1902.000000	65.401291  
1901.000000	65.404796  
1900.000000	65.409398  
1899.000000	65.415716  
1898.000000	65.423989  
1897.000000	65.434074  
1896.000000	65.444707  
1895.000000	65.454268  
1894.000000	65.460991  
1893.000000	65.463352  
1892.000000	65.460848  
1891.000000	65.453839  
1890.000000	65.443801  
1889.000000	65.432524  
1888.000000	65.422010  
1887.000000	65.413618  
1886.000000	65.407848  
1885.000000	65.404272  
1884.000000	65.401721  
1883.000000	65.398907  
1882.000000	65.394783  
1881.000000	65.389132  
1880.000000	65.382528  
1879.000000	65.376353  
1878.000000	65.372180  
1877.000000	65.371322  
1876.000000	65.374183  
1875.000000	65.380358  
1874.000000	65.388560  
1873.000000	65.396928  
1872.000000	65.403413  
1871.000000	65.406203  
1870.000000	65.404176  
1869.000000	65.397047  
1868.000000	65.385580  
1867.000000	65.371131  
1866.000000	65.355753  
1865.000000	65.341544  
1864.000000	65.330553  
1863.000000	65.324163  
1862.000000	65.322971  
1861.000000	65.326738  
1860.000000	65.334486  
1859.000000	65.344643  
1858.000000	65.355467  
1857.000000	65.365386  
1856.000000	65.372967  
1855.000000	65.377211  
1854.000000	65.377640  
1853.000000	65.374207  
1852.000000	65.367078  
1851.000000	65.356540  
1850.000000	65.342998  
1849.000000	65.327024  
1848.000000	65.309572  
1847.000000	65.291976  
1846.000000	65.275979  
1845.000000	65.263533  
1844.000000	65.256452  
1843.000000	65.256094  
1842.000000	65.262770  
1841.000000	65.275764  
1840.000000	65.293264  
1839.000000	65.312814  
1838.000000	65.331578  
1837.000000	65.346980  
1836.000000	65.357232  
1835.000000	65.361833  
1834.000000	65.361166  
1833.000000	65.357017  
1832.000000	65.351581  
1831.000000	65.347313  
1830.000000	65.346384  
1829.000000	65.350270  
1828.000000	65.359640  
1827.000000	65.374135  
1826.000000	65.392732  
1825.000000	65.413665  
1824.000000	65.435004  
1823.000000	65.454673  
1822.000000	65.470767  
1821.000000	65.481925  
1820.000000	65.487146  
1819.000000	65.486431  
1818.000000	65.480303  
1817.000000	65.469861  
1816.000000	65.456247  
1815.000000	65.441012  
1814.000000	65.425324  
1813.000000	65.410017  
1812.000000	65.395474  
1811.000000	65.381765  
1810.000000	65.368819  
1809.000000	65.356707  
1808.000000	65.345788  
1807.000000	65.336775  
1806.000000	65.330410  
1805.000000	65.327453  
1804.000000	65.328145  
1803.000000	65.332078  
1802.000000	65.338063  
1801.000000	65.344166  
1800.000000	65.348148  
1799.000000	65.348172  
1798.000000	65.343093  
1797.000000	65.333056  
1796.000000	65.319466  
1795.000000	65.304851  
1794.000000	65.292310  
1793.000000	65.285015  
1792.000000	65.285301  
1791.000000	65.294170  
1790.000000	65.311264  
1789.000000	65.334773  
1788.000000	65.361857  
1787.000000	65.389132  
1786.000000	65.413331  
1785.000000	65.431880  
1784.000000	65.443110  
1783.000000	65.446519  
1782.000000	65.442848  
1781.000000	65.433645  
1780.000000	65.421104  
1779.000000	65.407443  
1778.000000	65.394687  
1777.000000	65.384197  
1776.000000	65.376710  
1775.000000	65.371990  
1774.000000	65.369462  
1773.000000	65.368008  
1772.000000	65.366554  
1771.000000	65.364408  
1770.000000	65.361380  
1769.000000	65.357804  
1768.000000	65.354490  
1767.000000	65.352559  
1766.000000	65.352964  
1765.000000	65.356230  
1764.000000	65.362215  
1763.000000	65.370059  
1762.000000	65.378046  
1761.000000	65.384197  
1760.000000	65.386486  
1759.000000	65.383386  
1758.000000	65.374040  
1757.000000	65.358495  
1756.000000	65.337777  
1755.000000	65.313792  
1754.000000	65.288853  
1753.000000	65.265011  
1752.000000	65.243911  
1751.000000	65.226387  
1750.000000	65.212464  
1749.000000	65.201425  
1748.000000	65.192151  
1747.000000	65.183281  
1746.000000	65.173673  
1745.000000	65.162873  
1744.000000	65.151071  
1743.000000	65.139031  
1742.000000	65.127921  
1741.000000	65.119194  
1740.000000	65.114402  
1739.000000	65.115070  
1738.000000	65.122270  
1737.000000	65.136408  
1736.000000	65.157389  
1735.000000	65.183949  
1734.000000	65.214109  
1733.000000	65.244889  
1732.000000	65.272521  
1731.000000	65.293192  
1730.000000	65.303325  
1729.000000	65.300822  
1728.000000	65.285134  
1727.000000	65.257883  
1726.000000	65.222859  
1725.000000	65.185284  
1724.000000	65.151214  
1723.000000	65.126228  
1722.000000	65.114545  
1721.000000	65.118026  
1720.000000	65.135836  
1719.000000	65.164470  
1718.000000	65.198826  
1717.000000	65.232896  
1716.000000	65.260982  
1715.000000	65.278697  
1714.000000	65.283870  
1713.000000	65.276384  
1712.000000	65.258359  
1711.000000	65.233349  
1710.000000	65.205907  
1709.000000	65.180540  
1708.000000	65.161395  
1707.000000	65.151643  
1706.000000	65.152883  
1705.000000	65.165352  
1704.000000	65.187692  
1703.000000	65.217232  
1702.000000	65.250253  
1701.000000	65.282726  
1700.000000	65.310788  
1699.000000	65.331292  
1698.000000	65.342378  
1697.000000	65.343809  
1696.000000	65.336894  
1695.000000	65.324378  
1694.000000	65.309691  
1693.000000	65.296339  
1692.000000	65.287113  
1691.000000	65.283894  
1690.000000	65.286970  
1689.000000	65.295243  
1688.000000	65.306568  
1687.000000	65.318274  
1686.000000	65.327858  
1685.000000	65.333390  
1684.000000	65.333795  
1683.000000	65.329027  
1682.000000	65.319824  
1681.000000	65.307688  
1680.000000	65.294289  
1679.000000	65.281581  
1678.000000	65.271234  
1677.000000	65.264487  
1676.000000	65.262436  
1675.000000	65.265417  
1674.000000	65.273332  
1673.000000	65.285468  
1672.000000	65.300226  
1671.000000	65.315723  
1670.000000	65.330100  
1669.000000	65.341711  
1668.000000	65.349078  
1667.000000	65.351605  
1666.000000	65.349626  
1665.000000	65.344166  
1664.000000	65.336537  
1663.000000	65.328264  
1662.000000	65.320682  
1661.000000	65.314579  
1660.000000	65.310478  
1659.000000	65.308403  
1658.000000	65.308260  
1657.000000	65.309977  
1656.000000	65.313720  
1655.000000	65.319824  
1654.000000	65.328955  
1653.000000	65.341424  
1652.000000	65.357255  
1651.000000	65.375971  
1650.000000	65.396332  
1649.000000	65.416789  
1648.000000	65.435051  
1647.000000	65.448951  
1646.000000	65.456247  
1645.000000	65.455389  
1644.000000	65.445303  
1643.000000	65.425872  
1642.000000	65.397691  
1641.000000	65.362215  
1640.000000	65.321540  
1639.000000	65.278625  
1638.000000	65.236616  
1637.000000	65.198612  
1636.000000	65.167355  
1635.000000	65.144944  
1634.000000	65.132188  
1633.000000	65.128755  
1632.000000	65.133118  
1631.000000	65.142822  
1630.000000	65.154838  
1629.000000	65.166211  
1628.000000	65.174460  
1627.000000	65.178394  
1626.000000	65.177536  
1625.000000	65.172743  
1624.000000	65.165615  
1623.000000	65.158367  
1622.000000	65.153074  
1621.000000	65.151309  
1620.000000	65.153789  
1619.000000	65.160012  
1618.000000	65.168714  
1617.000000	65.177774  
1616.000000	65.184903  
1615.000000	65.187978  
1614.000000	65.185594  
1613.000000	65.177154  
1612.000000	65.163016  
1611.000000	65.144491  
1610.000000	65.123629  
1609.000000	65.102958  
1608.000000	65.084862  
1607.000000	65.071535  
1606.000000	65.064501  
1605.000000	65.064120  
1604.000000	65.069341  
1603.000000	65.077972  
1602.000000	65.087175  
1601.000000	65.094017  
1600.000000	65.096235  
1599.000000	65.092658  
1598.000000	65.083646  
1597.000000	65.070939  
1596.000000	65.057325  
1595.000000	65.045833  
1594.000000	65.038990  
1593.000000	65.038537  
1592.000000	65.044832  
1591.000000	65.056920  
1590.000000	65.072965  
1589.000000	65.090537  
1588.000000	65.107321  
1587.000000	65.121722  
1586.000000	65.133070  
1585.000000	65.141534  
1584.000000	65.148091  
1583.000000	65.153884  
1582.000000	65.159916  
1581.000000	65.166616  
1580.000000	65.173816  
1579.000000	65.180635  
1578.000000	65.185689  
1577.000000	65.187430  
1576.000000	65.184760  
1575.000000	65.177106  
1574.000000	65.164804  
1573.000000	65.148663  
1572.000000	65.130066  
1571.000000	65.110397  
1570.000000	65.090703  
1569.000000	65.071535  
1568.000000	65.052866  
1567.000000	65.034413  
1566.000000	65.015864  
1565.000000	64.997410  
1564.000000	64.979791  
1563.000000	64.964461  
1562.000000	64.953112  
1561.000000	64.947366  
1560.000000	64.948177  
1559.000000	64.955544  
1558.000000	64.968276  
1557.000000	64.984178  
1556.000000	65.000438  
1555.000000	65.014481  
1554.000000	65.024471  
1553.000000	65.029597  
1552.000000	65.030312  
1551.000000	65.027737  
1550.000000	65.023422  
1549.000000	65.018701  
1548.000000	65.014481  
1547.000000	65.010976  
1546.000000	65.008044  
1545.000000	65.005493  
1544.000000	65.003323  
1543.000000	65.001940  
1542.000000	65.002131  
1541.000000	65.004920  
1540.000000	65.011262  
1539.000000	65.021467  
1538.000000	65.035295  
1537.000000	65.051889  
1536.000000	65.069937  
1535.000000	65.087985  
1534.000000	65.104937  
1533.000000	65.120244  
1532.000000	65.133762  
1531.000000	65.145611  
1530.000000	65.155935  
1529.000000	65.164732  
1528.000000	65.171670  
1527.000000	65.176129  
1526.000000	65.177440  
1525.000000	65.175104  
1524.000000	65.169095  
1523.000000	65.159940  
1522.000000	65.148711  
1521.000000	65.136885  
1520.000000	65.126085  
1519.000000	65.117931  
1518.000000	65.113759  
1517.000000	65.114450  
1516.000000	65.120315  
1515.000000	65.131163  
1514.000000	65.146160  
1513.000000	65.164113  
1512.000000	65.183258  
1511.000000	65.201830  
1510.000000	65.217971  
1509.000000	65.230178  
1508.000000	65.237617  
1507.000000	65.240216  
1506.000000	65.238618  
1505.000000	65.234041  
1504.000000	65.227961  
1503.000000	65.221643  
1502.000000	65.215921  
1501.000000	65.211081  
1500.000000	65.207171  
1499.000000	65.203833  
1498.000000	65.200901  
1497.000000	65.198469  
1496.000000	65.196800  
1495.000000	65.196466  
1494.000000	65.197896  
1493.000000	65.201187  
1492.000000	65.206027  
1491.000000	65.211391  
1490.000000	65.216040  
1489.000000	65.218758  
1488.000000	65.218901  
1487.000000	65.216255  
1486.000000	65.211439  
1485.000000	65.205526  
1484.000000	65.199804  
1483.000000	65.195250  
1482.000000	65.192508  
1481.000000	65.191793  
1480.000000	65.192914  
1479.000000	65.195393  
1478.000000	65.198469  
1477.000000	65.201425  
1476.000000	65.203523  
1475.000000	65.204215  
1474.000000	65.203094  
1473.000000	65.200018  
1472.000000	65.195131  
1471.000000	65.188980  
1470.000000	65.182280  
1469.000000	65.175628  
1468.000000	65.169572  
1467.000000	65.164351  
1466.000000	65.159964  
1465.000000	65.155887  
1464.000000	65.151214  
1463.000000	65.144920  
1462.000000	65.135955  
1461.000000	65.123629  
1460.000000	65.107583  
1459.000000	65.088105  
1458.000000	65.066027  
1457.000000	65.042924  
1456.000000	65.020251  
1455.000000	65.000009  
1454.000000	64.983820  
1453.000000	64.973282  
1452.000000	64.969468  
1451.000000	64.973115  
1450.000000	64.984297  
1449.000000	65.002894  
1448.000000	65.028405  
1447.000000	65.060091  
1446.000000	65.097045  
1445.000000	65.138030  
1444.000000	65.181350  
1443.000000	65.224695  
1442.000000	65.265011  
1441.000000	65.298867  
1440.000000	65.322780  
1439.000000	65.334033  
1438.000000	65.331029  
1437.000000	65.313935  
1436.000000	65.284562  
1435.000000	65.246534  
1434.000000	65.204048  
1433.000000	65.161681  
1432.000000	65.123224  
1431.000000	65.091228  
1430.000000	65.067028  
1429.000000	65.050792  
1428.000000	65.042042  
1427.000000	65.039944  
1426.000000	65.044116  
1425.000000	65.054416  
1424.000000	65.071082  
1423.000000	65.094113  
1422.000000	65.122985  
1421.000000	65.155959  
1420.000000	65.190410  
1419.000000	65.223050  
1418.000000	65.250396  
1417.000000	65.269398  
1416.000000	65.278077  
1415.000000	65.275883  
1414.000000	65.263557  
1413.000000	65.242624  
1412.000000	65.214896  
1411.000000	65.182042  
1410.000000	65.145230  
1409.000000	65.105485  
1408.000000	65.063738  
1407.000000	65.021824  
1406.000000	64.982175  
1405.000000	64.948415  
1404.000000	64.924573  
1403.000000	64.914560  
1402.000000	64.920949  
1401.000000	64.944267  
1400.000000	64.982271  
1399.000000	65.030217  
1398.000000	65.081548  
1397.000000	65.129041  
1396.000000	65.166044  
1395.000000	65.187788  
1394.000000	65.192246  
1393.000000	65.180444  
1392.000000	65.155887  
1391.000000	65.123796  
1390.000000	65.089750  
1389.000000	65.058994  
1388.000000	65.035319  
1387.000000	65.020942  
1386.000000	65.016150  
1385.000000	65.020132  
1384.000000	65.030837  
1383.000000	65.045833  
1382.000000	65.062355  
1381.000000	65.077519  
1380.000000	65.088701  
1379.000000	65.093636  
1378.000000	65.090990  
1377.000000	65.079951  
1376.000000	65.061306  
1375.000000	65.037155  
1374.000000	65.011024  
1373.000000	64.986968  
1372.000000	64.969205  
1371.000000	64.961385  
1370.000000	64.965200  
1369.000000	64.980220  
1368.000000	65.003848  
1367.000000	65.031862  
1366.000000	65.059208  
1365.000000	65.081286  
1364.000000	65.094804  
1363.000000	65.098333  
1362.000000	65.092253  
1361.000000	65.078544  
1360.000000	65.059995  
1359.000000	65.039515  
1358.000000	65.019464  
1357.000000	65.001344  
1356.000000	64.986062  
1355.000000	64.973855  
1354.000000	64.964771  
1353.000000	64.958596  
1352.000000	64.955115  
1351.000000	64.954209  
1350.000000	64.955639  
1349.000000	64.959406  
1348.000000	64.965152  
1347.000000	64.972901  
1346.000000	64.982843  
1345.000000	64.995837  
1344.000000	65.012860  
1343.000000	65.034723  
1342.000000	65.061497  
1341.000000	65.092325  
1340.000000	65.125370  
1339.000000	65.157890  
1338.000000	65.186595  
1337.000000	65.208649  
1336.000000	65.222024  
1335.000000	65.226030  
1334.000000	65.221548  
1333.000000	65.210604  
1332.000000	65.195798  
1331.000000	65.179944  
1330.000000	65.165281  
1329.000000	65.153360  
1328.000000	65.144610  
1327.000000	65.138506  
1326.000000	65.133738  
1325.000000	65.128946  
1324.000000	65.122723  
1323.000000	65.113830  
1322.000000	65.101838  
1321.000000	65.086698  
1320.000000	65.069317  
1319.000000	65.051293  
1318.000000	65.034937  
1317.000000	65.022778  
1316.000000	65.017271  
1315.000000	65.020346  
1314.000000	65.032672  
1313.000000	65.053343  
1312.000000	65.079879  
1311.000000	65.108704  
1310.000000	65.135407  
1309.000000	65.155673  
1308.000000	65.166258  
1307.000000	65.165638  
1306.000000	65.154147  
1305.000000	65.134072  
1304.000000	65.109157  
1303.000000	65.083885  
1302.000000	65.062522  
1301.000000	65.048193  
1300.000000	65.042519  
1299.000000	65.045499  
1298.000000	65.055537  
1297.000000	65.070152  
1296.000000	65.086412  
1295.000000	65.101695  
1294.000000	65.114068  
1293.000000	65.122485  
1292.000000	65.126800  
1291.000000	65.127491  
1290.000000	65.125513  
1289.000000	65.121817  
1288.000000	65.117025  
1287.000000	65.111541  
1286.000000	65.105628  
1285.000000	65.099310  
1284.000000	65.092611  
1283.000000	65.085649  
1282.000000	65.078806  
1281.000000	65.072512  
1280.000000	65.067362  
1279.000000	65.063691  
1278.000000	65.061569  
1277.000000	65.060853  
1276.000000	65.061044  
1275.000000	65.061402  
1274.000000	65.060997  
1273.000000	65.058803  
1272.000000	65.054082  
1271.000000	65.046381  
1270.000000	65.035915  
1269.000000	65.023303  
1268.000000	65.009808  
1267.000000	64.996933  
1266.000000	64.986348  
1265.000000	64.979219  
1264.000000	64.976239  
1263.000000	64.977383  
1262.000000	64.981889  
1261.000000	64.988589  
1260.000000	64.996218  
1259.000000	65.003657  
1258.000000	65.010237  
1257.000000	65.015506  
1256.000000	65.019392  
1255.000000	65.021944  
1254.000000	65.022754  
1253.000000	65.021252  
1252.000000	65.016460  
1251.000000	65.007472  
1250.000000	64.993834  
1249.000000	64.975857  
1248.000000	64.954805  
1247.000000	64.933061  
1246.000000	64.913439  
1245.000000	64.898777  
1244.000000	64.891433  
1243.000000	64.892745  
1242.000000	64.902687  
1241.000000	64.919996  
1240.000000	64.942479  
1239.000000	64.967632  
1238.000000	64.992880  
1237.000000	65.016222  
1236.000000	65.036344  
1235.000000	65.052652  
1234.000000	65.065145  
1233.000000	65.074133  
1232.000000	65.079998  
1231.000000	65.083074  
1230.000000	65.083622  
1229.000000	65.081858  
1228.000000	65.078043  
1227.000000	65.072584  
1226.000000	65.066075  
1225.000000	65.059208  
1224.000000	65.052652  
1223.000000	65.047097  
1222.000000	65.042901  
1221.000000	65.040349  
1220.000000	65.039563  
1219.000000	65.040516  
1218.000000	65.043163  
1217.000000	65.047454  
1216.000000	65.053367  
1215.000000	65.060758  
1214.000000	65.069508  
1213.000000	65.079355  
1212.000000	65.089917  
1211.000000	65.100741  
1210.000000	65.111088  
1209.000000	65.120196  
1208.000000	65.127086  
1207.000000	65.131044  
1206.000000	65.131068  
1205.000000	65.126204  
1204.000000	65.115737  
1203.000000	65.099334  
1202.000000	65.077328  
1201.000000	65.050697  
1200.000000	65.021347  
1199.000000	64.992022  
1198.000000	64.966011  
1197.000000	64.946556  
1196.000000	64.936351  
1195.000000	64.936804  
1194.000000	64.947652  
1193.000000	64.967203  
1192.000000	64.992403  
1191.000000	65.019559  
1190.000000	65.044951  
1189.000000	65.065622  
1188.000000	65.079855  
1187.000000	65.087175  
1186.000000	65.088391  
1185.000000	65.084862  
1184.000000	65.078282  
1183.000000	65.069651  
1182.000000	65.059208  
1181.000000	65.046286  
1180.000000	65.029716  
1179.000000	65.008044  
1178.000000	64.980387  
1177.000000	64.946651  
1176.000000	64.908051  
1175.000000	64.866995  
1174.000000	64.827084  
1173.000000	64.792490  
1172.000000	64.767265  
1171.000000	64.754796  
1170.000000	64.757013  
1169.000000	64.773583  
1168.000000	64.802384  
1167.000000	64.839196  
1166.000000	64.879107  
1165.000000	64.916992  
1164.000000	64.948773  
1163.000000	64.972019  
1162.000000	64.986062  
1161.000000	64.991903  
1160.000000	64.991331  
1159.000000	64.986515  
1158.000000	64.978837  
1157.000000	64.968824  
1156.000000	64.955925  
1155.000000	64.939117  
1154.000000	64.917540  
1153.000000	64.891314  
1152.000000	64.861726  
1151.000000	64.831542  
1150.000000	64.804410  
1149.000000	64.784121  
1148.000000	64.773821  
1147.000000	64.775061  
1146.000000	64.787912  
1145.000000	64.810633  
1144.000000	64.840269  
1143.000000	64.873290  
1142.000000	64.905834  
1141.000000	64.934563  
1140.000000	64.956712  
1139.000000	64.970779  
1138.000000	64.976215  
1137.000000	64.973640  
1136.000000	64.964699  
1135.000000	64.951825  
1134.000000	64.938092  
1133.000000	64.926409  
1132.000000	64.919495  
1131.000000	64.918971  
1130.000000	64.925456  
1129.000000	64.938068  
1128.000000	64.954662  
1127.000000	64.972209  
1126.000000	64.987516  
1125.000000	64.997649  
1124.000000	65.000581  
1123.000000	64.995336  
1122.000000	64.982056  
1121.000000	64.961886  
1120.000000	64.936685  
1119.000000	64.908790  
1118.000000	64.880609  
1117.000000	64.854574  
1116.000000	64.833045  
1115.000000	64.818048  
1114.000000	64.811277  
1113.000000	64.813804  
1112.000000	64.826035  
1111.000000	64.847326  
1110.000000	64.876389  
1109.000000	64.910840  
1108.000000	64.947843  
1107.000000	64.984226  
1106.000000	65.016913  
1105.000000	65.043306  
1104.000000	65.061521  
1103.000000	65.070533  
1102.000000	65.070152  
1101.000000	65.060877  
1100.000000	65.043854  
1099.000000	65.020966  
1098.000000	64.994311  
1097.000000	64.966368  
1096.000000	64.939427  
1095.000000	64.915537  
1094.000000	64.895915  
1093.000000	64.881014  
1092.000000	64.870190  
1091.000000	64.862155  
1090.000000	64.855146  
1089.000000	64.847826  
1088.000000	64.839363  
1087.000000	64.830088  
1086.000000	64.821743  
1085.000000	64.817047  
1084.000000	64.819526  
1083.000000	64.832043  
1082.000000	64.856219  
1081.000000	64.891028  
1080.000000	64.932942  
1079.000000	64.975738  
1078.000000	65.011787  
1077.000000	65.033555  
1076.000000	65.035247  
1075.000000	65.014529  
1074.000000	64.973139  
1073.000000	64.916777  
1072.000000	64.853739  
1071.000000	64.793348  
1070.000000	64.743781  
1069.000000	64.710688  
1068.000000	64.696025  
1067.000000	64.698529  
1066.000000	64.714503  
1065.000000	64.739418  
1064.000000	64.769148  
1063.000000	64.801049  
1062.000000	64.833903  
1061.000000	64.867305  
1060.000000	64.900803  
1059.000000	64.932703  
1058.000000	64.959669  
1057.000000	64.976882  
1056.000000	64.979219  
1055.000000	64.962697  
1054.000000	64.926147  
1053.000000	64.872670  
1052.000000	64.809322  
1051.000000	64.746165  
1050.000000	64.693951  
1049.000000	64.661550  
1048.000000	64.654040  
1047.000000	64.671611  
1046.000000	64.709830  
1045.000000	64.760804  
1044.000000	64.815378  
1043.000000	64.865493  
1042.000000	64.904904  
1041.000000	64.930057  
1040.000000	64.939880  
1039.000000	64.935421  
1038.000000	64.918875  
1037.000000	64.892959  
1036.000000	64.861154  
1035.000000	64.826703  
1034.000000	64.793038  
1033.000000	64.762592  
1032.000000	64.737176  
1031.000000	64.717078  
1030.000000	64.701032  
1029.000000	64.686608  
1028.000000	64.670157  
1027.000000	64.648866  
1026.000000	64.620566  
1025.000000	64.586281  
1024.000000	64.549326  
1023.000000	64.516520  
1022.000000	64.496111  
1021.000000	64.496541  
1020.000000	64.523673  
1019.000000	64.579176  
1018.000000	64.659404  
1017.000000	64.755630  
1016.000000	64.855480  
1015.000000	64.946079  
1014.000000	65.016770  
1013.000000	65.061473  
1012.000000	65.079641  
1011.000000	65.076017  
1010.000000	65.058851  
1009.000000	65.037512  
1008.000000	65.019869  
1007.000000	65.010261  
1006.000000	65.008974  
1005.000000	65.013670  
1004.000000	65.020608  
1003.000000	65.026235  
1002.000000	65.028858  
1001.000000	65.029907  
1000.000000	65.032982  
999.000000	 65.042161  
998.000000	 65.060377  
997.000000	 65.087842  
996.000000	 65.121364  
995.000000	 65.155315  
994.000000	 65.181899  
993.000000	 65.193486  
992.000000	 65.183997  
991.000000	 65.150785  
990.000000	 65.094900  
989.000000	 65.020918  
988.000000	 64.936447  
987.000000	 64.850592  
986.000000	 64.772701  
985.000000	 64.710807  
984.000000	 64.671325  
983.000000	 64.658713  
982.000000	 64.674448  
981.000000	 64.717698  
980.000000	 64.785957  
979.000000	 64.875888  
978.000000	 64.982843  
977.000000	 65.102124  
976.000000	 65.229201  
975.000000	 65.358972  
974.000000	 65.486717  
973.000000	 65.605521  
972.000000	 65.707325  
971.000000	 65.781784  
970.000000	 65.818786  
969.000000	 65.809583  
968.000000	 65.749883  
967.000000	 65.641379  
966.000000	 65.493583  
965.000000	 65.322160  
964.000000	 65.147185  
963.000000	 64.989233  
962.000000	 64.866018  
961.000000	 64.788675  
960.000000	 64.760088  
959.000000	 64.774632  
958.000000	 64.820122  
957.000000	 64.880323  
956.000000	 64.938998  
955.000000	 64.982604  
954.000000	 65.003275  
953.000000	 64.998817  
952.000000	 64.973139  
951.000000	 64.933276  
950.000000	 64.888262  
949.000000	 64.847326  
948.000000	 64.817833  
947.000000	 64.804244  
946.000000	 64.807057  
945.000000	 64.824295  
944.000000	 64.851355  
943.000000	 64.881825  
942.000000	 64.909720  
941.000000	 64.930653  
940.000000	 64.943003  
939.000000	 64.947438  
938.000000	 64.947319  
937.000000	 64.946961  
936.000000	 64.951086  
935.000000	 64.963340  
934.000000	 64.985322  
933.000000	 65.016126  
932.000000	 65.052962  
931.000000	 65.092015  
930.000000	 65.128445  
929.000000	 65.157198  
928.000000	 65.174150  
927.000000	 65.176081  
926.000000	 65.160965  
925.000000	 65.127587  
924.000000	 65.075945  
923.000000	 65.007185  
922.000000	 64.924311  
921.000000	 64.831972  
920.000000	 64.736437  
919.000000	 64.644718  
918.000000	 64.563584  
917.000000	 64.498710  
916.000000	 64.453601  
915.000000	 64.429736  
914.000000	 64.426088  
913.000000	 64.440083  
912.000000	 64.467501  
911.000000	 64.504003  
910.000000	 64.544916  
909.000000	 64.585971  
908.000000	 64.623022  
907.000000	 64.652824  
906.000000	 64.673042  
905.000000	 64.682650  
904.000000	 64.681887  
903.000000	 64.672470  
902.000000	 64.657139  
901.000000	 64.639592  
900.000000	 64.623355  
899.000000	 64.611148  
898.000000	 64.604115  
897.000000	 64.601755  
896.000000	 64.601969  
895.000000	 64.601850  
894.000000	 64.598488  
893.000000	 64.590167  
892.000000	 64.576935  
891.000000	 64.560651  
890.000000	 64.544630  
889.000000	 64.532828  
888.000000	 64.528632  
887.000000	 64.533782  
886.000000	 64.548015  
885.000000	 64.568924  
884.000000	 64.592528  
883.000000	 64.614081  
882.000000	 64.629340  
881.000000	 64.635729  
880.000000	 64.632940  
879.000000	 64.622950  
878.000000	 64.609622  
877.000000	 64.597630  
876.000000	 64.591336  
875.000000	 64.593887  
874.000000	 64.606451  
873.000000	 64.628100  
872.000000	 64.656472  
871.000000	 64.688014  
870.000000	 64.719128  
869.000000	 64.746189  
868.000000	 64.766073  
867.000000	 64.776253  
866.000000	 64.775061  
865.000000	 64.761567  
864.000000	 64.735698  
863.000000	 64.698529  
862.000000	 64.652466  
861.000000	 64.600777  
860.000000	 64.547395  
859.000000	 64.496397  
858.000000	 64.451360  
857.000000	 64.415383  
856.000000	 64.390611  
855.000000	 64.378571  
854.000000	 64.379453  
853.000000	 64.393162  
852.000000	 64.419102  
851.000000	 64.456009  
850.000000	 64.501643  
849.000000	 64.552831  
848.000000	 64.605545  
847.000000	 64.654850  
846.000000	 64.695549  
845.000000	 64.722776  
844.000000	 64.733219  
843.000000	 64.725708  
842.000000	 64.701700  
841.000000	 64.665484  
840.000000	 64.623188  
839.000000	 64.581942  
838.000000	 64.548492  
837.000000	 64.528608  
836.000000	 64.525294  
835.000000	 64.538908  
834.000000	 64.566087  
833.000000	 64.600968  
832.000000	 64.635801  
831.000000	 64.662718  
830.000000	 64.674711  
829.000000	 64.666938  
828.000000	 64.637756  
827.000000	 64.588856  
826.000000	 64.524817  
825.000000	 64.452266  
824.000000	 64.378714  
823.000000	 64.311385  
822.000000	 64.256405  
821.000000	 64.218235  
820.000000	 64.199233  
819.000000	 64.199566  
818.000000	 64.217638  
817.000000	 64.250111  
816.000000	 64.292240  
815.000000	 64.338159  
814.000000	 64.381170  
813.000000	 64.414978  
812.000000	 64.433765  
811.000000	 64.434051  
810.000000	 64.414834  
809.000000	 64.378714  
808.000000	 64.331507  
807.000000	 64.281249  
806.000000	 64.236736  
805.000000	 64.205503  
804.000000	 64.192795  
803.000000	 64.199781  
802.000000	 64.223909  
801.000000	 64.258980  
800.000000	 64.297008  
799.000000	 64.329504  
798.000000	 64.349317  
797.000000	 64.352202  
796.000000	 64.337444  
795.000000	 64.307403  
794.000000	 64.266943  
793.000000	 64.222502  
792.000000	 64.180827  
791.000000	 64.147591  
790.000000	 64.126539  
789.000000	 64.119482  
788.000000	 64.126086  
787.000000	 64.144468  
786.000000	 64.171648  
785.000000	 64.204192  
784.000000	 64.238810  
783.000000	 64.272761  
782.000000	 64.304018  
781.000000	 64.331030  
780.000000	 64.353036  
779.000000	 64.369773  
778.000000	 64.381241  
777.000000	 64.387392  
776.000000	 64.388442  
775.000000	 64.384818  
774.000000	 64.377665  
773.000000	 64.368772  
772.000000	 64.361381  
771.000000	 64.359855  
770.000000	 64.368867  
769.000000	 64.392066  
768.000000	 64.431190  
767.000000	 64.484930  
766.000000	 64.548158  
765.000000	 64.612579  
764.000000	 64.668226  
763.000000	 64.705681  
762.000000	 64.718341  
761.000000	 64.704346  
760.000000	 64.667201  
759.000000	 64.614796  
758.000000	 64.558386  
757.000000	 64.508843  
756.000000	 64.474248  
755.000000	 64.457178  
754.000000	 64.455413  
753.000000	 64.461445  
752.000000	 64.465594  
751.000000	 64.457917  
750.000000	 64.431929  
749.000000	 64.384961  
748.000000	 64.318966  
747.000000	 64.239215  
746.000000	 64.152359  
745.000000	 64.064908  
744.000000	 63.981580  
743.000000	 63.904953  
742.000000	 63.835334  
741.000000	 63.772153  
740.000000	 63.714814  
739.000000	 63.663482  
738.000000	 63.619637  
737.000000	 63.585686  
736.000000	 63.564968  
735.000000	 63.559222  
734.000000	 63.569402  
733.000000	 63.594675  
732.000000	 63.633608  
731.000000	 63.683485  
730.000000	 63.742208  
729.000000	 63.807940  
728.000000	 63.879871  
727.000000	 63.957405  
726.000000	 64.039397  
725.000000	 64.123463  
724.000000	 64.205527  
723.000000	 64.280581  
722.000000	 64.342522  
721.000000	 64.385747  
720.000000	 64.406323  
719.000000	 64.403367  
718.000000	 64.379119  
717.000000	 64.338707  
716.000000	 64.288997  
715.000000	 64.237165  
714.000000	 64.188480  
713.000000	 64.145088  
712.000000	 64.106249  
711.000000	 64.068627  
710.000000	 64.027452  
709.000000	 63.978528  
708.000000	 63.919830  
707.000000	 63.852691  
706.000000	 63.781571  
705.000000	 63.713502  
704.000000	 63.655686  
703.000000	 63.614368  
702.000000	 63.592815  
701.000000	 63.591027  
700.000000	 63.605046  
699.000000	 63.628983  
698.000000	 63.656663  
697.000000	 63.682985  
696.000000	 63.704323  
695.000000	 63.719367  
694.000000	 63.729190  
693.000000	 63.735413  
692.000000	 63.738846  
691.000000	 63.739442  
690.000000	 63.735866  
689.000000	 63.726258  
688.000000	 63.708829  
687.000000	 63.683199  
686.000000	 63.650798  
685.000000	 63.614988  
684.000000	 63.580346  
683.000000	 63.551020  
682.000000	 63.529634  
681.000000	 63.516950  
680.000000	 63.511466  
679.000000	 63.509654  
678.000000	 63.507103  
677.000000	 63.500571  
676.000000	 63.487720  
675.000000	 63.468003  
674.000000	 63.441562  
673.000000	 63.409280  
672.000000	 63.371372  
671.000000	 63.326907  
670.000000	 63.274097  
669.000000	 63.210988  
668.000000	 63.137125  
667.000000	 63.054275  
666.000000	 62.967228  
665.000000	 62.883162  
664.000000	 62.810683  
663.000000	 62.757921  
662.000000	 62.730336  
661.000000	 62.729310  
660.000000	 62.751817  
659.000000	 62.791132  
658.000000	 62.838554  
657.000000	 62.885761  
656.000000	 62.926959  
655.000000	 62.960457  
654.000000	 62.988018  
653.000000	 63.014268  
652.000000	 63.044118  
651.000000	 63.081026  
650.000000	 63.125419  
649.000000	 63.174438  
648.000000	 63.222908  
647.000000	 63.264250  
646.000000	 63.293457  
645.000000	 63.307237  
644.000000	 63.305640  
643.000000	 63.291168  
642.000000	 63.268113  
641.000000	 63.240909  
640.000000	 63.213062  
639.000000	 63.186669  
638.000000	 63.162398  
637.000000	 63.139986  
636.000000	 63.119029  
635.000000	 63.099598  
634.000000	 63.082790  
633.000000	 63.069415  
632.000000	 63.059639  
631.000000	 63.052654  
630.000000	 63.046813  
629.000000	 63.039994  
628.000000	 63.030290  
627.000000	 63.016819  
626.000000	 62.999629  
625.000000	 62.980103  
624.000000	 62.959837  
623.000000	 62.939548  
622.000000	 62.919139  
621.000000	 62.897467  
620.000000	 62.872815  
619.000000	 62.843608  
618.000000	 62.808871  
617.000000	 62.768602  
616.000000	 62.723946  
615.000000	 62.677168  
614.000000	 62.631082  
613.000000	 62.588310  
612.000000	 62.551450  
611.000000	 62.522411  
610.000000	 62.503123  
609.000000	 62.495136  
608.000000	 62.500262  
607.000000	 62.519836  
606.000000	 62.554430  
605.000000	 62.603116  
604.000000	 62.662672  
603.000000	 62.727689  
602.000000	 62.791132  
601.000000	 62.845182  
600.000000	 62.882852  
599.000000	 62.899208  
598.000000	 62.892031  
597.000000	 62.862873  
596.000000	 62.816214  
595.000000	 62.759733  
594.000000	 62.702822  
593.000000	 62.655401  
592.000000	 62.626266  
591.000000	 62.621641  
590.000000	 62.644672  
589.000000	 62.694525  
588.000000	 62.766671  
587.000000	 62.853693  
586.000000	 62.946748  
585.000000	 63.036727  
584.000000	 63.115763  
583.000000	 63.177299  
582.000000	 63.216328  
581.000000	 63.230299  
580.000000	 63.219213  
579.000000	 63.184785  
578.000000	 63.130187  
577.000000	 63.060617  
576.000000	 62.982702  
575.000000	 62.904071  
574.000000	 62.832045  
573.000000	 62.773275  
572.000000	 62.731981  
571.000000	 62.710332  
570.000000	 62.706828  
569.000000	 62.716531  
568.000000	 62.731266  
567.000000	 62.742185  
566.000000	 62.740468  
565.000000	 62.718033  
564.000000	 62.670469  
563.000000	 62.597537  
562.000000	 62.504601  
561.000000	 62.400102  
560.000000	 62.296938  
559.000000	 62.209701  
558.000000	 62.153315  
557.000000	 62.139725  
556.000000	 62.177062  
555.000000	 62.267637  
554.000000	 62.407255  
553.000000	 62.585425  
552.000000	 62.787055  
551.000000	 62.994480  
550.000000	 63.189840  
549.000000	 63.356971  
548.000000	 63.483691  
547.000000	 63.562107  
546.000000	 63.590335  
545.000000	 63.570117  
544.000000	 63.506627  
543.000000	 63.405036  
542.000000	 63.273239  
541.000000	 63.116979  
540.000000	 62.942147  
539.000000	 62.752628  
538.000000	 62.553334  
537.000000	 62.349200  
536.000000	 62.147045  
535.000000	 61.954951  
534.000000	 61.780905  
533.000000	 61.633610  
532.000000	 61.520624  
531.000000	 61.447501  
530.000000	 61.415195  
529.000000	 61.421418  
528.000000	 61.460232  
527.000000	 61.522507  
526.000000	 61.597037  
525.000000	 61.672282  
524.000000	 61.738181  
523.000000	 61.787199  
522.000000	 61.815834  
521.000000	 61.825180  
520.000000	 61.820936  
519.000000	 61.811351  
518.000000	 61.805772  
517.000000	 61.813759  
516.000000	 61.841273  
515.000000	 61.890983  
514.000000	 61.958575  
513.000000	 62.034797  
512.000000	 62.104964  
511.000000	 62.154197  
510.000000	 62.167668  
509.000000	 62.134814  
508.000000	 62.050318  
507.000000	 61.917281  
506.000000	 61.743640  
505.000000	 61.540365  
504.000000	 61.320114  
503.000000	 61.095476  
502.000000	 60.878753  
501.000000	 60.681319  
500.000000	 60.513949  
499.000000	 60.386037  
498.000000	 60.305023  
497.000000	 60.275387  
496.000000	 60.295748  
495.000000	 60.359048  
494.000000	 60.452318  
493.000000	 60.559511  
492.000000	 60.662364  
491.000000	 60.745716  
490.000000	 60.799622  
489.000000	 60.822081  
488.000000	 60.818362  
487.000000	 60.799479  
486.000000	 60.777521  
485.000000	 60.763812  
484.000000	 60.765957  
483.000000	 60.786747  
482.000000	 60.825800  
481.000000	 60.878109  
480.000000	 60.938358  
479.000000	 60.997867  
478.000000	 61.047863  
477.000000	 61.077237  
476.000000	 61.074948  
475.000000	 61.030507  
474.000000	 60.936260  
473.000000	 60.791397  
472.000000	 60.603737  
471.000000	 60.388755  
470.000000	 60.167646  
469.000000	 59.965205  
468.000000	 59.804964  
467.000000	 59.702229  
466.000000	 59.662818  
465.000000	 59.680128  
464.000000	 59.740281  
463.000000	 59.828972  
462.000000	 59.934830  
461.000000	 60.048842  
460.000000	 60.166549  
459.000000	 60.289382  
458.000000	 60.418033  
457.000000	 60.546135  
456.000000	 60.661721  
455.000000	 60.748481  
454.000000	 60.789752  
453.000000	 60.774207  
452.000000	 60.698962  
451.000000	 60.571360  
450.000000	 60.410714  
449.000000	 60.245895  
448.000000	 60.107946  
447.000000	 60.023283  
446.000000	 60.010910  
445.000000	 60.078358  
444.000000	 60.226416  
443.000000	 60.447120  
442.000000	 60.724544  
441.000000	 61.031103  
440.000000	 61.332821  
439.000000	 61.584615  
438.000000	 61.735296  
437.000000	 61.729955  
436.000000	 61.520004  
435.000000	 61.072468  
434.000000	 60.384058  
433.000000	 59.483909  
432.000000	 58.433413  
431.000000	 57.320690  
430.000000	 56.240558  
429.000000	 55.292177  
428.000000	 54.564785  
427.000000	 54.126358  
426.000000	 54.001355  
425.000000	 54.189229  
424.000000	 54.666137  
423.000000	 55.386972  
422.000000	 56.289744  
421.000000	 57.290458  
420.000000	 58.285737  
419.000000	 59.159541  
418.000000	 59.796524  
417.000000	 60.087966  
416.000000	 59.951162  
415.000000	 59.367942  
414.000000	 58.392357  
413.000000	 57.117795  
412.000000	 55.678725  
411.000000	 54.253196  
410.000000	 53.025937  
409.000000	 52.166986  
408.000000	 51.779913  
407.000000	 51.914644  
406.000000	 52.505493  
405.000000	 53.382205  
404.000000	 54.282021  
403.000000	 54.915738  
402.000000	 55.012750  
401.000000	 54.352664  
400.000000	 52.863621  
399.000000	 50.644707  
398.000000	 47.958016  
397.000000	 45.159578  
396.000000	 42.652177  
395.000000	 40.800237  
394.000000	 39.846706  
393.000000	 39.868545  
392.000000	 40.804338  
391.000000	 42.492341  
390.000000	 44.815969  
389.000000	 47.748446  
388.000000	 51.329231  
387.000000	 55.626416  
386.000000	 60.683941  
385.000000	 66.433358  
384.000000	 72.615289  
383.000000	 78.798842  
382.000000	 84.395790  
381.000000	 88.848638  
380.000000	 91.740465  
379.000000	 92.988276  
378.000000	 92.895245  
377.000000	 92.099928  
376.000000	 91.581773  
375.000000	 92.224979  
374.000000	 94.493794  
373.000000	 98.412036  
372.000000	 103.457641 
371.000000	 108.957076 
370.000000	 114.414477 

