PE IR       SPECTRUM    SPECTRUM    ASCII       PEDS        1.60        
  -1
C-4040~1.ASC
17/03/27
14:29:38.00
17/03/27
14:29:38.00
tln
$C-4040-8_e0122$<ebV0>[-23.3,12.1,10.0,0.0,27,1,0]
370.000000
64









2002,4.07    
MIRTGS : RIGHTBACK : INTERNAL 2
MIR : ON : INTERNAL 2
OPTKBR

0.200000
8
8.000000
FILLER
SINGLE
SPECTRUM
UNLOCKED 256

DOUBLE

COMBINED
1
0
0


1.000000
BACKG


1
0
TRUE
51149
0
LEFT NOT FITTED RIGHT NOT FITTED 0
NONE
NONE
15600
12.000000
4.427000
51148
TRUE
1 0 8 72 0 0 0 0 

15798.010000






#HDR
-1
-1
#GR
CM-1
EGY
0.00002384185791015625
0.0
5000.000000
-1.000000
4631
8
2.455806
0.009918
#DATA
5000.000000	0.768876 
4999.000000	0.770306 
4998.000000	0.771594 
4997.000000	0.772619 
4996.000000	0.773239 
4995.000000	0.773429 
4994.000000	0.773096 
4993.000000	0.772404 
4992.000000	0.771427 
4991.000000	0.770354 
4990.000000	0.769424 
4989.000000	0.768804 
4988.000000	0.768613 
4987.000000	0.768923 
4986.000000	0.769734 
4985.000000	0.770902 
4984.000000	0.772309 
4983.000000	0.773859 
4982.000000	0.775432 
4981.000000	0.776982 
4980.000000	0.778532 
4979.000000	0.780034 
4978.000000	0.781512 
4977.000000	0.782966 
4976.000000	0.784373 
4975.000000	0.785589 
4974.000000	0.786399 
4973.000000	0.786781 
4972.000000	0.786638 
4971.000000	0.786066 
4970.000000	0.785183 
4969.000000	0.784325 
4968.000000	0.783729 
4967.000000	0.783729 
4966.000000	0.784540 
4965.000000	0.786161 
4964.000000	0.788450 
4963.000000	0.791096 
4962.000000	0.793790 
4961.000000	0.796127 
4960.000000	0.797820 
4959.000000	0.798749 
4958.000000	0.798845 
4957.000000	0.798296 
4956.000000	0.797319 
4955.000000	0.796127 
4954.000000	0.794959 
4953.000000	0.793981 
4952.000000	0.793409 
4951.000000	0.793385 
4950.000000	0.793981 
4949.000000	0.795269 
4948.000000	0.797319 
4947.000000	0.799989 
4946.000000	0.803089 
4945.000000	0.806355 
4944.000000	0.809383 
4943.000000	0.811815 
4942.000000	0.813293 
4941.000000	0.813555 
4940.000000	0.812625 
4939.000000	0.810527 
4938.000000	0.807619 
4937.000000	0.804257 
4936.000000	0.800871 
4935.000000	0.797891 
4934.000000	0.795602 
4933.000000	0.794219 
4932.000000	0.793862 
4931.000000	0.794482 
4930.000000	0.795912 
4929.000000	0.797891 
4928.000000	0.800085 
4927.000000	0.802159 
4926.000000	0.803828 
4925.000000	0.804877 
4924.000000	0.805258 
4923.000000	0.804996 
4922.000000	0.804281 
4921.000000	0.803232 
4920.000000	0.802087 
4919.000000	0.800967 
4918.000000	0.800013 
4917.000000	0.799179 
4916.000000	0.798487 
4915.000000	0.797820 
4914.000000	0.797152 
4913.000000	0.796508 
4912.000000	0.795841 
4911.000000	0.795316 
4910.000000	0.794887 
4909.000000	0.794649 
4908.000000	0.794601 
4907.000000	0.794720 
4906.000000	0.794887 
4905.000000	0.795173 
4904.000000	0.795531 
4903.000000	0.796055 
4902.000000	0.796794 
4901.000000	0.797772 
4900.000000	0.799036 
4899.000000	0.800585 
4898.000000	0.802278 
4897.000000	0.803995 
4896.000000	0.805544 
4895.000000	0.806879 
4894.000000	0.807833 
4893.000000	0.808501 
4892.000000	0.808835 
4891.000000	0.808954 
4890.000000	0.808930 
4889.000000	0.808835 
4888.000000	0.808787 
4887.000000	0.808811 
4886.000000	0.808954 
4885.000000	0.809192 
4884.000000	0.809550 
4883.000000	0.810050 
4882.000000	0.810718 
4881.000000	0.811457 
4880.000000	0.812315 
4879.000000	0.813221 
4878.000000	0.814127 
4877.000000	0.815033 
4876.000000	0.815844 
4875.000000	0.816607 
4874.000000	0.817346 
4873.000000	0.818061 
4872.000000	0.818896 
4871.000000	0.819754 
4870.000000	0.820636 
4869.000000	0.821518 
4868.000000	0.822377 
4867.000000	0.823140 
4866.000000	0.823688 
4865.000000	0.824069 
4864.000000	0.824308 
4863.000000	0.824451 
4862.000000	0.824546 
4861.000000	0.824642 
4860.000000	0.824856 
4859.000000	0.825166 
4858.000000	0.825643 
4857.000000	0.826263 
4856.000000	0.827026 
4855.000000	0.827860 
4854.000000	0.828766 
4853.000000	0.829672 
4852.000000	0.830507 
4851.000000	0.831222 
4850.000000	0.831818 
4849.000000	0.832247 
4848.000000	0.832509 
4847.000000	0.832676 
4846.000000	0.832796 
4845.000000	0.832891 
4844.000000	0.832986 
4843.000000	0.833106 
4842.000000	0.833272 
4841.000000	0.833487 
4840.000000	0.833725 
4839.000000	0.834035 
4838.000000	0.834393 
4837.000000	0.834918 
4836.000000	0.835537 
4835.000000	0.836372 
4834.000000	0.837397 
4833.000000	0.838613 
4832.000000	0.839996 
4831.000000	0.841474 
4830.000000	0.843000 
4829.000000	0.844502 
4828.000000	0.845956 
4827.000000	0.847315 
4826.000000	0.848603 
4825.000000	0.849795 
4824.000000	0.850915 
4823.000000	0.851964 
4822.000000	0.852966 
4821.000000	0.853943 
4820.000000	0.854873 
4819.000000	0.855803 
4818.000000	0.856709 
4817.000000	0.857591 
4816.000000	0.858473 
4815.000000	0.859308 
4814.000000	0.860142 
4813.000000	0.860905 
4812.000000	0.861597 
4811.000000	0.862193 
4810.000000	0.862693 
4809.000000	0.863099 
4808.000000	0.863432 
4807.000000	0.863718 
4806.000000	0.863981 
4805.000000	0.864243 
4804.000000	0.864553 
4803.000000	0.864911 
4802.000000	0.865340 
4801.000000	0.865864 
4800.000000	0.866484 
4799.000000	0.867176 
4798.000000	0.867891 
4797.000000	0.868654 
4796.000000	0.869393 
4795.000000	0.870037 
4794.000000	0.870561 
4793.000000	0.870919 
4792.000000	0.871133 
4791.000000	0.871181 
4790.000000	0.871157 
4789.000000	0.871109 
4788.000000	0.871086 
4787.000000	0.871229 
4786.000000	0.871539 
4785.000000	0.872039 
4784.000000	0.872683 
4783.000000	0.873470 
4782.000000	0.874280 
4781.000000	0.875067 
4780.000000	0.875830 
4779.000000	0.876498 
4778.000000	0.877094 
4777.000000	0.877571 
4776.000000	0.878047 
4775.000000	0.878524 
4774.000000	0.879049 
4773.000000	0.879669 
4772.000000	0.880336 
4771.000000	0.881123 
4770.000000	0.882005 
4769.000000	0.882935 
4768.000000	0.883889 
4767.000000	0.884842 
4766.000000	0.885820 
4765.000000	0.886750 
4764.000000	0.887632 
4763.000000	0.888442 
4762.000000	0.889182 
4761.000000	0.889825 
4760.000000	0.890302 
4759.000000	0.890684 
4758.000000	0.890946 
4757.000000	0.891089 
4756.000000	0.891184 
4755.000000	0.891160 
4754.000000	0.891137 
4753.000000	0.891089 
4752.000000	0.891065 
4751.000000	0.891065 
4750.000000	0.891113 
4749.000000	0.891256 
4748.000000	0.891423 
4747.000000	0.891733 
4746.000000	0.892114 
4745.000000	0.892639 
4744.000000	0.893306 
4743.000000	0.894045 
4742.000000	0.894904 
4741.000000	0.895810 
4740.000000	0.896692 
4739.000000	0.897598 
4738.000000	0.898480 
4737.000000	0.899314 
4736.000000	0.900101 
4735.000000	0.900793 
4734.000000	0.901436 
4733.000000	0.901913 
4732.000000	0.902271 
4731.000000	0.902557 
4730.000000	0.902748 
4729.000000	0.902819 
4728.000000	0.902795 
4727.000000	0.902819 
4726.000000	0.902819 
4725.000000	0.902891 
4724.000000	0.903010 
4723.000000	0.903153 
4722.000000	0.903320 
4721.000000	0.903511 
4720.000000	0.903701 
4719.000000	0.903844 
4718.000000	0.903987 
4717.000000	0.904154 
4716.000000	0.904297 
4715.000000	0.904464 
4714.000000	0.904607 
4713.000000	0.904750 
4712.000000	0.904822 
4711.000000	0.904798 
4710.000000	0.904750 
4709.000000	0.904655 
4708.000000	0.904536 
4707.000000	0.904393 
4706.000000	0.904321 
4705.000000	0.904297 
4704.000000	0.904369 
4703.000000	0.904488 
4702.000000	0.904726 
4701.000000	0.905036 
4700.000000	0.905346 
4699.000000	0.905728 
4698.000000	0.906085 
4697.000000	0.906467 
4696.000000	0.906753 
4695.000000	0.906944 
4694.000000	0.907039 
4693.000000	0.907015 
4692.000000	0.906825 
4691.000000	0.906538 
4690.000000	0.906205 
4689.000000	0.905823 
4688.000000	0.905513 
4687.000000	0.905323 
4686.000000	0.905251 
4685.000000	0.905394 
4684.000000	0.905656 
4683.000000	0.906038 
4682.000000	0.906467 
4681.000000	0.906872 
4680.000000	0.907206 
4679.000000	0.907492 
4678.000000	0.907707 
4677.000000	0.907945 
4676.000000	0.908184 
4675.000000	0.908470 
4674.000000	0.908827 
4673.000000	0.909209 
4672.000000	0.909662 
4671.000000	0.910115 
4670.000000	0.910568 
4669.000000	0.910949 
4668.000000	0.911259 
4667.000000	0.911498 
4666.000000	0.911688 
4665.000000	0.911784 
4664.000000	0.911808 
4663.000000	0.911784 
4662.000000	0.911688 
4661.000000	0.911545 
4660.000000	0.911355 
4659.000000	0.911140 
4658.000000	0.910949 
4657.000000	0.910830 
4656.000000	0.910854 
4655.000000	0.911045 
4654.000000	0.911402 
4653.000000	0.911903 
4652.000000	0.912547 
4651.000000	0.913190 
4650.000000	0.913882 
4649.000000	0.914502 
4648.000000	0.915050 
4647.000000	0.915479 
4646.000000	0.915861 
4645.000000	0.916123 
4644.000000	0.916361 
4643.000000	0.916504 
4642.000000	0.916576 
4641.000000	0.916647 
4640.000000	0.916671 
4639.000000	0.916695 
4638.000000	0.916743 
4637.000000	0.916814 
4636.000000	0.916981 
4635.000000	0.917220 
4634.000000	0.917553 
4633.000000	0.917911 
4632.000000	0.918340 
4631.000000	0.918769 
4630.000000	0.919151 
4629.000000	0.919532 
4628.000000	0.919890 
4627.000000	0.920271 
4626.000000	0.920629 
4625.000000	0.920987 
4624.000000	0.921368 
4623.000000	0.921750 
4622.000000	0.922131 
4621.000000	0.922536 
4620.000000	0.922918 
4619.000000	0.923371 
4618.000000	0.923848 
4617.000000	0.924396 
4616.000000	0.924968 
4615.000000	0.925612 
4614.000000	0.926256 
4613.000000	0.926876 
4612.000000	0.927448 
4611.000000	0.927901 
4610.000000	0.928306 
4609.000000	0.928640 
4608.000000	0.928950 
4607.000000	0.929307 
4606.000000	0.929760 
4605.000000	0.930309 
4604.000000	0.930953 
4603.000000	0.931715 
4602.000000	0.932502 
4601.000000	0.933289 
4600.000000	0.934052 
4599.000000	0.934791 
4598.000000	0.935459 
4597.000000	0.936126 
4596.000000	0.936818 
4595.000000	0.937581 
4594.000000	0.938415 
4593.000000	0.939321 
4592.000000	0.940251 
4591.000000	0.941228 
4590.000000	0.942158 
4589.000000	0.943064 
4588.000000	0.943946 
4587.000000	0.944852 
4586.000000	0.945734 
4585.000000	0.946617 
4584.000000	0.947475 
4583.000000	0.948238 
4582.000000	0.948905 
4581.000000	0.949454 
4580.000000	0.949835 
4579.000000	0.950121 
4578.000000	0.950336 
4577.000000	0.950622 
4576.000000	0.951051 
4575.000000	0.951695 
4574.000000	0.952577 
4573.000000	0.953626 
4572.000000	0.954818 
4571.000000	0.956058 
4570.000000	0.957226 
4569.000000	0.958275 
4568.000000	0.959086 
4567.000000	0.959730 
4566.000000	0.960230 
4565.000000	0.960612 
4564.000000	0.960946 
4563.000000	0.961256 
4562.000000	0.961637 
4561.000000	0.961971 
4560.000000	0.962400 
4559.000000	0.962901 
4558.000000	0.963544 
4557.000000	0.964379 
4556.000000	0.965404 
4555.000000	0.966668 
4554.000000	0.968074 
4553.000000	0.969600 
4552.000000	0.971055 
4551.000000	0.972342 
4550.000000	0.973415 
4549.000000	0.974225 
4548.000000	0.974845 
4547.000000	0.975298 
4546.000000	0.975775 
4545.000000	0.976347 
4544.000000	0.977110 
4543.000000	0.978064 
4542.000000	0.979113 
4541.000000	0.980210 
4540.000000	0.981235 
4539.000000	0.982165 
4538.000000	0.982952 
4537.000000	0.983643 
4536.000000	0.984311 
4535.000000	0.985002 
4534.000000	0.985765 
4533.000000	0.986552 
4532.000000	0.987315 
4531.000000	0.988006 
4530.000000	0.988531 
4529.000000	0.988888 
4528.000000	0.989055 
4527.000000	0.989055 
4526.000000	0.988960 
4525.000000	0.988817 
4524.000000	0.988698 
4523.000000	0.988626 
4522.000000	0.988674 
4521.000000	0.988817 
4520.000000	0.989127 
4519.000000	0.989508 
4518.000000	0.989961 
4517.000000	0.990462 
4516.000000	0.991010 
4515.000000	0.991559 
4514.000000	0.992083 
4513.000000	0.992584 
4512.000000	0.993013 
4511.000000	0.993251 
4510.000000	0.993299 
4509.000000	0.993156 
4508.000000	0.992846 
4507.000000	0.992488 
4506.000000	0.992155 
4505.000000	0.991988 
4504.000000	0.992059 
4503.000000	0.992417 
4502.000000	0.993013 
4501.000000	0.993824 
4500.000000	0.994801 
4499.000000	0.995826 
4498.000000	0.996947 
4497.000000	0.998091 
4496.000000	0.999307 
4495.000000	1.000547 
4494.000000	1.001811 
4493.000000	1.003003 
4492.000000	1.004028 
4491.000000	1.004791 
4490.000000	1.005339 
4489.000000	1.005649 
4488.000000	1.005744 
4487.000000	1.005792 
4486.000000	1.005768 
4485.000000	1.005649 
4484.000000	1.005387 
4483.000000	1.004791 
4482.000000	1.003837 
4481.000000	1.002597 
4480.000000	1.001214 
4479.000000	0.999927 
4478.000000	0.999069 
4477.000000	0.998735 
4476.000000	0.999021 
4475.000000	0.999712 
4474.000000	1.000595 
4473.000000	1.001358 
4472.000000	1.001787 
4471.000000	1.001715 
4470.000000	1.001143 
4469.000000	1.000189 
4468.000000	0.999045 
4467.000000	0.997877 
4466.000000	0.996756 
4465.000000	0.995659 
4464.000000	0.994563 
4463.000000	0.993418 
4462.000000	0.992178 
4461.000000	0.990819 
4460.000000	0.989341 
4459.000000	0.987672 
4458.000000	0.985503 
4457.000000	0.982475 
4456.000000	0.978159 
4455.000000	0.972223 
4454.000000	0.964546 
4453.000000	0.955295 
4452.000000	0.945067 
4451.000000	0.934672 
4450.000000	0.925111 
4449.000000	0.917172 
4448.000000	0.911617 
4447.000000	0.908803 
4446.000000	0.908827 
4445.000000	0.911545 
4444.000000	0.916743 
4443.000000	0.924229 
4442.000000	0.933861 
4441.000000	0.945472 
4440.000000	0.958871 
4439.000000	0.973558 
4438.000000	0.988793 
4437.000000	1.003551 
4436.000000	1.016712 
4435.000000	1.027274 
4434.000000	1.034593 
4433.000000	1.038432 
4432.000000	1.039099 
4431.000000	1.037383 
4430.000000	1.034235 
4429.000000	1.030707 
4428.000000	1.027607 
4427.000000	1.025390 
4426.000000	1.024222 
4425.000000	1.023912 
4424.000000	1.024103 
4423.000000	1.024389 
4422.000000	1.024556 
4421.000000	1.024508 
4420.000000	1.024222 
4419.000000	1.023888 
4418.000000	1.023626 
4417.000000	1.023554 
4416.000000	1.023650 
4415.000000	1.023769 
4414.000000	1.023817 
4413.000000	1.023626 
4412.000000	1.023149 
4411.000000	1.022458 
4410.000000	1.021575 
4409.000000	1.020669 
4408.000000	1.020002 
4407.000000	1.019620 
4406.000000	1.019644 
4405.000000	1.020097 
4404.000000	1.020908 
4403.000000	1.021933 
4402.000000	1.023030 
4401.000000	1.024031 
4400.000000	1.024866 
4399.000000	1.025557 
4398.000000	1.026058 
4397.000000	1.026391 
4396.000000	1.026678 
4395.000000	1.026916 
4394.000000	1.027250 
4393.000000	1.027631 
4392.000000	1.028037 
4391.000000	1.028442 
4390.000000	1.028847 
4389.000000	1.029157 
4388.000000	1.029348 
4387.000000	1.029467 
4386.000000	1.029586 
4385.000000	1.029682 
4384.000000	1.029872 
4383.000000	1.030182 
4382.000000	1.030707 
4381.000000	1.031422 
4380.000000	1.032376 
4379.000000	1.033473 
4378.000000	1.034665 
4377.000000	1.035904 
4376.000000	1.037096 
4375.000000	1.038122 
4374.000000	1.039004 
4373.000000	1.039648 
4372.000000	1.040077 
4371.000000	1.040363 
4370.000000	1.040601 
4369.000000	1.040792 
4368.000000	1.041078 
4367.000000	1.041436 
4366.000000	1.041865 
4365.000000	1.042413 
4364.000000	1.043009 
4363.000000	1.043653 
4362.000000	1.044249 
4361.000000	1.044869 
4360.000000	1.045465 
4359.000000	1.046085 
4358.000000	1.046752 
4357.000000	1.047492 
4356.000000	1.048350 
4355.000000	1.049327 
4354.000000	1.050376 
4353.000000	1.051497 
4352.000000	1.052689 
4351.000000	1.053857 
4350.000000	1.055026 
4349.000000	1.056170 
4348.000000	1.057291 
4347.000000	1.058387 
4346.000000	1.059484 
4345.000000	1.060605 
4344.000000	1.061725 
4343.000000	1.062822 
4342.000000	1.063919 
4341.000000	1.065015 
4340.000000	1.066136 
4339.000000	1.067280 
4338.000000	1.068472 
4337.000000	1.069736 
4336.000000	1.071071 
4335.000000	1.072525 
4334.000000	1.074028 
4333.000000	1.075577 
4332.000000	1.077198 
4331.000000	1.078796 
4330.000000	1.080369 
4329.000000	1.081871 
4328.000000	1.083278 
4327.000000	1.084542 
4326.000000	1.085686 
4325.000000	1.086711 
4324.000000	1.087665 
4323.000000	1.088595 
4322.000000	1.089572 
4321.000000	1.090693 
4320.000000	1.091980 
4319.000000	1.093459 
4318.000000	1.095104 
4317.000000	1.096868 
4316.000000	1.098656 
4315.000000	1.100397 
4314.000000	1.102018 
4313.000000	1.103472 
4312.000000	1.104736 
4311.000000	1.105880 
4310.000000	1.106905 
4309.000000	1.107907 
4308.000000	1.108956 
4307.000000	1.110029 
4306.000000	1.111149 
4305.000000	1.112294 
4304.000000	1.113438 
4303.000000	1.114535 
4302.000000	1.115560 
4301.000000	1.116466 
4300.000000	1.117277 
4299.000000	1.117968 
4298.000000	1.118540 
4297.000000	1.119112 
4296.000000	1.119685 
4295.000000	1.120281 
4294.000000	1.121020 
4293.000000	1.121878 
4292.000000	1.122951 
4291.000000	1.124167 
4290.000000	1.125550 
4289.000000	1.127076 
4288.000000	1.128625 
4287.000000	1.130175 
4286.000000	1.131629 
4285.000000	1.132893 
4284.000000	1.134014 
4283.000000	1.134991 
4282.000000	1.135897 
4281.000000	1.136803 
4280.000000	1.137733 
4279.000000	1.138710 
4278.000000	1.139736 
4277.000000	1.140785 
4276.000000	1.141810 
4275.000000	1.142740 
4274.000000	1.143574 
4273.000000	1.144337 
4272.000000	1.145005 
4271.000000	1.145625 
4270.000000	1.146292 
4269.000000	1.147031 
4268.000000	1.147890 
4267.000000	1.148891 
4266.000000	1.149988 
4265.000000	1.151156 
4264.000000	1.152348 
4263.000000	1.153492 
4262.000000	1.154541 
4261.000000	1.155519 
4260.000000	1.156401 
4259.000000	1.157188 
4258.000000	1.157975 
4257.000000	1.158738 
4256.000000	1.159477 
4255.000000	1.160240 
4254.000000	1.161050 
4253.000000	1.161885 
4252.000000	1.162767 
4251.000000	1.163673 
4250.000000	1.164650 
4249.000000	1.165652 
4248.000000	1.166749 
4247.000000	1.167869 
4246.000000	1.168990 
4245.000000	1.170086 
4244.000000	1.171088 
4243.000000	1.171922 
4242.000000	1.172637 
4241.000000	1.173162 
4240.000000	1.173543 
4239.000000	1.173853 
4238.000000	1.174116 
4237.000000	1.174402 
4236.000000	1.174736 
4235.000000	1.175212 
4234.000000	1.175808 
4233.000000	1.176500 
4232.000000	1.177263 
4231.000000	1.178097 
4230.000000	1.178908 
4229.000000	1.179718 
4228.000000	1.180434 
4227.000000	1.181054 
4226.000000	1.181578 
4225.000000	1.181936 
4224.000000	1.182198 
4223.000000	1.182413 
4222.000000	1.182579 
4221.000000	1.182723 
4220.000000	1.183032 
4219.000000	1.183438 
4218.000000	1.183891 
4217.000000	1.184463 
4216.000000	1.185059 
4215.000000	1.185679 
4214.000000	1.186299 
4213.000000	1.186823 
4212.000000	1.187276 
4211.000000	1.187610 
4210.000000	1.187872 
4209.000000	1.188063 
4208.000000	1.188230 
4207.000000	1.188445 
4206.000000	1.188731 
4205.000000	1.189160 
4204.000000	1.189732 
4203.000000	1.190400 
4202.000000	1.191139 
4201.000000	1.191926 
4200.000000	1.192665 
4199.000000	1.193356 
4198.000000	1.194000 
4197.000000	1.194643 
4196.000000	1.195263 
4195.000000	1.196026 
4194.000000	1.196908 
4193.000000	1.197910 
4192.000000	1.199054 
4191.000000	1.200222 
4190.000000	1.201391 
4189.000000	1.202464 
4188.000000	1.203393 
4187.000000	1.204276 
4186.000000	1.205062 
4185.000000	1.205873 
4184.000000	1.206731 
4183.000000	1.207685 
4182.000000	1.208710 
4181.000000	1.209759 
4180.000000	1.210832 
4179.000000	1.211810 
4178.000000	1.212739 
4177.000000	1.213574 
4176.000000	1.214265 
4175.000000	1.214766 
4174.000000	1.215124 
4173.000000	1.215291 
4172.000000	1.215195 
4171.000000	1.214861 
4170.000000	1.214337 
4169.000000	1.213669 
4168.000000	1.212906 
4167.000000	1.212096 
4166.000000	1.211404 
4165.000000	1.210904 
4164.000000	1.210546 
4163.000000	1.210427 
4162.000000	1.210451 
4161.000000	1.210618 
4160.000000	1.210927 
4159.000000	1.211380 
4158.000000	1.211929 
4157.000000	1.212620 
4156.000000	1.213455 
4155.000000	1.214480 
4154.000000	1.215648 
4153.000000	1.216983 
4152.000000	1.218318 
4151.000000	1.219701 
4150.000000	1.221013 
4149.000000	1.222229 
4148.000000	1.223349 
4147.000000	1.224327 
4146.000000	1.225113 
4145.000000	1.225829 
4144.000000	1.226425 
4143.000000	1.226949 
4142.000000	1.227378 
4141.000000	1.227784 
4140.000000	1.228165 
4139.000000	1.228523 
4138.000000	1.228857 
4137.000000	1.229143 
4136.000000	1.229429 
4135.000000	1.229643 
4134.000000	1.229858 
4133.000000	1.230096 
4132.000000	1.230382 
4131.000000	1.230740 
4130.000000	1.231217 
4129.000000	1.231884 
4128.000000	1.232647 
4127.000000	1.233577 
4126.000000	1.234602 
4125.000000	1.235699 
4124.000000	1.236820 
4123.000000	1.237940 
4122.000000	1.239037 
4121.000000	1.240086 
4120.000000	1.241040 
4119.000000	1.241898 
4118.000000	1.242733 
4117.000000	1.243519 
4116.000000	1.244330 
4115.000000	1.245260 
4114.000000	1.246285 
4113.000000	1.247453 
4112.000000	1.248764 
4111.000000	1.250219 
4110.000000	1.251745 
4109.000000	1.253271 
4108.000000	1.254796 
4107.000000	1.256275 
4106.000000	1.257705 
4105.000000	1.259064 
4104.000000	1.260375 
4103.000000	1.261687 
4102.000000	1.262998 
4101.000000	1.264333 
4100.000000	1.265692 
4099.000000	1.267027 
4098.000000	1.268267 
4097.000000	1.269412 
4096.000000	1.270389 
4095.000000	1.271176 
4094.000000	1.271843 
4093.000000	1.272392 
4092.000000	1.272916 
4091.000000	1.273465 
4090.000000	1.274156 
4089.000000	1.274991 
4088.000000	1.276016 
4087.000000	1.277208 
4086.000000	1.278543 
4085.000000	1.279902 
4084.000000	1.281285 
4083.000000	1.282668 
4082.000000	1.284050 
4081.000000	1.285409 
4080.000000	1.286816 
4079.000000	1.288270 
4078.000000	1.289796 
4077.000000	1.291441 
4076.000000	1.293158 
4075.000000	1.294922 
4074.000000	1.296710 
4073.000000	1.298427 
4072.000000	1.300048 
4071.000000	1.301574 
4070.000000	1.302981 
4069.000000	1.304316 
4068.000000	1.305532 
4067.000000	1.306676 
4066.000000	1.307821 
4065.000000	1.308941 
4064.000000	1.310062 
4063.000000	1.311159 
4062.000000	1.312303 
4061.000000	1.313424 
4060.000000	1.314592 
4059.000000	1.315760 
4058.000000	1.317000 
4057.000000	1.318335 
4056.000000	1.319742 
4055.000000	1.321268 
4054.000000	1.322960 
4053.000000	1.324748 
4052.000000	1.326656 
4051.000000	1.328563 
4050.000000	1.330494 
4049.000000	1.332354 
4048.000000	1.334095 
4047.000000	1.335644 
4046.000000	1.337027 
4045.000000	1.338195 
4044.000000	1.339149 
4043.000000	1.339960 
4042.000000	1.340627 
4041.000000	1.341223 
4040.000000	1.341795 
4039.000000	1.342368 
4038.000000	1.343011 
4037.000000	1.343774 
4036.000000	1.344633 
4035.000000	1.345610 
4034.000000	1.346707 
4033.000000	1.347923 
4032.000000	1.349258 
4031.000000	1.350641 
4030.000000	1.352071 
4029.000000	1.353502 
4028.000000	1.354885 
4027.000000	1.356172 
4026.000000	1.357364 
4025.000000	1.358389 
4024.000000	1.359295 
4023.000000	1.360082 
4022.000000	1.360821 
4021.000000	1.361513 
4020.000000	1.362276 
4019.000000	1.363110 
4018.000000	1.364088 
4017.000000	1.365160 
4016.000000	1.366329 
4015.000000	1.367545 
4014.000000	1.368784 
4013.000000	1.369953 
4012.000000	1.371026 
4011.000000	1.372003 
4010.000000	1.372933 
4009.000000	1.373815 
4008.000000	1.374673 
4007.000000	1.375651 
4006.000000	1.376724 
4005.000000	1.377892 
4004.000000	1.379132 
4003.000000	1.380419 
4002.000000	1.381683 
4001.000000	1.382851 
4000.000000	1.383900 
3999.000000	1.384782 
3998.000000	1.385545 
3997.000000	1.386213 
3996.000000	1.386833 
3995.000000	1.387476 
3994.000000	1.388168 
3993.000000	1.388978 
3992.000000	1.389932 
3991.000000	1.390957 
3990.000000	1.392006 
3989.000000	1.393103 
3988.000000	1.394224 
3987.000000	1.395344 
3986.000000	1.396465 
3985.000000	1.397657 
3984.000000	1.398944 
3983.000000	1.400303 
3982.000000	1.401758 
3981.000000	1.403188 
3980.000000	1.404619 
3979.000000	1.405882 
3978.000000	1.406979 
3977.000000	1.407861 
3976.000000	1.408505 
3975.000000	1.408934 
3974.000000	1.409149 
3973.000000	1.409196 
3972.000000	1.409125 
3971.000000	1.408958 
3970.000000	1.408720 
3969.000000	1.408386 
3968.000000	1.408076 
3967.000000	1.407742 
3966.000000	1.407527 
3965.000000	1.407384 
3964.000000	1.407432 
3963.000000	1.407623 
3962.000000	1.408004 
3961.000000	1.408600 
3960.000000	1.409244 
3959.000000	1.409935 
3958.000000	1.410555 
3957.000000	1.411104 
3956.000000	1.411533 
3955.000000	1.411819 
3954.000000	1.412057 
3953.000000	1.412200 
3952.000000	1.412296 
3951.000000	1.412320 
3950.000000	1.412272 
3949.000000	1.412153 
3948.000000	1.411962 
3947.000000	1.411771 
3946.000000	1.411604 
3945.000000	1.411581 
3944.000000	1.411771 
3943.000000	1.412248 
3942.000000	1.412940 
3941.000000	1.413869 
3940.000000	1.414966 
3939.000000	1.416110 
3938.000000	1.417160 
3937.000000	1.418042 
3936.000000	1.418662 
3935.000000	1.419067 
3934.000000	1.419234 
3933.000000	1.419186 
3932.000000	1.419043 
3931.000000	1.418757 
3930.000000	1.418423 
3929.000000	1.418042 
3928.000000	1.417660 
3927.000000	1.417303 
3926.000000	1.417040 
3925.000000	1.416921 
3924.000000	1.416945 
3923.000000	1.417183 
3922.000000	1.417613 
3921.000000	1.418280 
3920.000000	1.419043 
3919.000000	1.419901 
3918.000000	1.420760 
3917.000000	1.421594 
3916.000000	1.422309 
3915.000000	1.422882 
3914.000000	1.423287 
3913.000000	1.423525 
3912.000000	1.423573 
3911.000000	1.423406 
3910.000000	1.423001 
3909.000000	1.422333 
3908.000000	1.421499 
3907.000000	1.420569 
3906.000000	1.419615 
3905.000000	1.418757 
3904.000000	1.418161 
3903.000000	1.417899 
3902.000000	1.418089 
3901.000000	1.418709 
3900.000000	1.419711 
3899.000000	1.420998 
3898.000000	1.422405 
3897.000000	1.423764 
3896.000000	1.424980 
3895.000000	1.425957 
3894.000000	1.426672 
3893.000000	1.427125 
3892.000000	1.427459 
3891.000000	1.427745 
3890.000000	1.428008 
3889.000000	1.428341 
3888.000000	1.428818 
3887.000000	1.429486 
3886.000000	1.430320 
3885.000000	1.431345 
3884.000000	1.432490 
3883.000000	1.433777 
3882.000000	1.435089 
3881.000000	1.436328 
3880.000000	1.437401 
3879.000000	1.438212 
3878.000000	1.438617 
3877.000000	1.438617 
3876.000000	1.438236 
3875.000000	1.437520 
3874.000000	1.436686 
3873.000000	1.435804 
3872.000000	1.435160 
3871.000000	1.434826 
3870.000000	1.434922 
3869.000000	1.435446 
3868.000000	1.436376 
3867.000000	1.437711 
3866.000000	1.439309 
3865.000000	1.440930 
3864.000000	1.442408 
3863.000000	1.443529 
3862.000000	1.444053 
3861.000000	1.443839 
3860.000000	1.442790 
3859.000000	1.440954 
3858.000000	1.438593 
3857.000000	1.436090 
3856.000000	1.433897 
3855.000000	1.432490 
3854.000000	1.432299 
3853.000000	1.433515 
3852.000000	1.436114 
3851.000000	1.439857 
3850.000000	1.444268 
3849.000000	1.448822 
3848.000000	1.453018 
3847.000000	1.456403 
3846.000000	1.458811 
3845.000000	1.460123 
3844.000000	1.460504 
3843.000000	1.460218 
3842.000000	1.459574 
3841.000000	1.458930 
3840.000000	1.458573 
3839.000000	1.458740 
3838.000000	1.459550 
3837.000000	1.461029 
3836.000000	1.463174 
3835.000000	1.465845 
3834.000000	1.468896 
3833.000000	1.472139 
3832.000000	1.475381 
3831.000000	1.478433 
3830.000000	1.481103 
3829.000000	1.483368 
3828.000000	1.485157 
3827.000000	1.486468 
3826.000000	1.487374 
3825.000000	1.487827 
3824.000000	1.487922 
3823.000000	1.487827 
3822.000000	1.487612 
3821.000000	1.487445 
3820.000000	1.487469 
3819.000000	1.487898 
3818.000000	1.488780 
3817.000000	1.490163 
3816.000000	1.491904 
3815.000000	1.493978 
3814.000000	1.496076 
3813.000000	1.497912 
3812.000000	1.499319 
3811.000000	1.500153 
3810.000000	1.500368 
3809.000000	1.499962 
3808.000000	1.499176 
3807.000000	1.498246 
3806.000000	1.497364 
3805.000000	1.496863 
3804.000000	1.496863 
3803.000000	1.497530 
3802.000000	1.498913 
3801.000000	1.501011 
3800.000000	1.503777 
3799.000000	1.507067 
3798.000000	1.510715 
3797.000000	1.514506 
3796.000000	1.518321 
3795.000000	1.521897 
3794.000000	1.525139 
3793.000000	1.527953 
3792.000000	1.530241 
3791.000000	1.532101 
3790.000000	1.533555 
3789.000000	1.534700 
3788.000000	1.535654 
3787.000000	1.536536 
3786.000000	1.537418 
3785.000000	1.538348 
3784.000000	1.539301 
3783.000000	1.540327 
3782.000000	1.541447 
3781.000000	1.542520 
3780.000000	1.543617 
3779.000000	1.544570 
3778.000000	1.545333 
3777.000000	1.545858 
3776.000000	1.546096 
3775.000000	1.546049 
3774.000000	1.545763 
3773.000000	1.545333 
3772.000000	1.544904 
3771.000000	1.544523 
3770.000000	1.544356 
3769.000000	1.544427 
3768.000000	1.544785 
3767.000000	1.545405 
3766.000000	1.546216 
3765.000000	1.547169 
3764.000000	1.548147 
3763.000000	1.549029 
3762.000000	1.549696 
3761.000000	1.550006 
3760.000000	1.549887 
3759.000000	1.549196 
3758.000000	1.547861 
3757.000000	1.545953 
3756.000000	1.543498 
3755.000000	1.540684 
3754.000000	1.537775 
3753.000000	1.534914 
3752.000000	1.532387 
3751.000000	1.530361 
3750.000000	1.529002 
3749.000000	1.528382 
3748.000000	1.528549 
3747.000000	1.529479 
3746.000000	1.531052 
3745.000000	1.533174 
3744.000000	1.535606 
3743.000000	1.538181 
3742.000000	1.540613 
3741.000000	1.542735 
3740.000000	1.544404 
3739.000000	1.545572 
3738.000000	1.546359 
3737.000000	1.546907 
3736.000000	1.547431 
3735.000000	1.548218 
3734.000000	1.549386 
3733.000000	1.551032 
3732.000000	1.553153 
3731.000000	1.555562 
3730.000000	1.557993 
3729.000000	1.560258 
3728.000000	1.562166 
3727.000000	1.563668 
3726.000000	1.564764 
3725.000000	1.565504 
3724.000000	1.565980 
3723.000000	1.566267 
3722.000000	1.566433 
3721.000000	1.566386 
3720.000000	1.566123 
3719.000000	1.565551 
3718.000000	1.564693 
3717.000000	1.563477 
3716.000000	1.562094 
3715.000000	1.560759 
3714.000000	1.559662 
3713.000000	1.559066 
3712.000000	1.559090 
3711.000000	1.559782 
3710.000000	1.561141 
3709.000000	1.562929 
3708.000000	1.564979 
3707.000000	1.566958 
3706.000000	1.568698 
3705.000000	1.570105 
3704.000000	1.571178 
3703.000000	1.571893 
3702.000000	1.572370 
3701.000000	1.572704 
3700.000000	1.572918 
3699.000000	1.573014 
3698.000000	1.572847 
3697.000000	1.572251 
3696.000000	1.571178 
3695.000000	1.569628 
3694.000000	1.567602 
3693.000000	1.565361 
3692.000000	1.563191 
3691.000000	1.561379 
3690.000000	1.560235 
3689.000000	1.559972 
3688.000000	1.560592 
3687.000000	1.561903 
3686.000000	1.563620 
3685.000000	1.565337 
3684.000000	1.566648 
3683.000000	1.567244 
3682.000000	1.566886 
3681.000000	1.565527 
3680.000000	1.563358 
3679.000000	1.560592 
3678.000000	1.557683 
3677.000000	1.554894 
3676.000000	1.552653 
3675.000000	1.551151 
3674.000000	1.550602 
3673.000000	1.551032 
3672.000000	1.552391 
3671.000000	1.554584 
3670.000000	1.557374 
3669.000000	1.560521 
3668.000000	1.563763 
3667.000000	1.566815 
3666.000000	1.569485 
3665.000000	1.571559 
3664.000000	1.572918 
3663.000000	1.573610 
3662.000000	1.573634 
3661.000000	1.573133 
3660.000000	1.572251 
3659.000000	1.571059 
3658.000000	1.569652 
3657.000000	1.568078 
3656.000000	1.566362 
3655.000000	1.564526 
3654.000000	1.562666 
3653.000000	1.560902 
3652.000000	1.559400 
3651.000000	1.558423 
3650.000000	1.558160 
3649.000000	1.558732 
3648.000000	1.560211 
3647.000000	1.562500 
3646.000000	1.565361 
3645.000000	1.568508 
3644.000000	1.571631 
3643.000000	1.574492 
3642.000000	1.576805 
3641.000000	1.578497 
3640.000000	1.579475 
3639.000000	1.579737 
3638.000000	1.579332 
3637.000000	1.578283 
3636.000000	1.576709 
3635.000000	1.574683 
3634.000000	1.572418 
3633.000000	1.570153 
3632.000000	1.568174 
3631.000000	1.566743 
3630.000000	1.566028 
3629.000000	1.566195 
3628.000000	1.567149 
3627.000000	1.568770 
3626.000000	1.570796 
3625.000000	1.572847 
3624.000000	1.574707 
3623.000000	1.576185 
3622.000000	1.577210 
3621.000000	1.577806 
3620.000000	1.578068 
3619.000000	1.578140 
3618.000000	1.578164 
3617.000000	1.578187 
3616.000000	1.578259 
3615.000000	1.578402 
3614.000000	1.578617 
3613.000000	1.578950 
3612.000000	1.579475 
3611.000000	1.580190 
3610.000000	1.581144 
3609.000000	1.582431 
3608.000000	1.583933 
3607.000000	1.585555 
3606.000000	1.587200 
3605.000000	1.588726 
3604.000000	1.590013 
3603.000000	1.590991 
3602.000000	1.591706 
3601.000000	1.592111 
3600.000000	1.592373 
3599.000000	1.592445 
3598.000000	1.592445 
3597.000000	1.592373 
3596.000000	1.592206 
3595.000000	1.591897 
3594.000000	1.591467 
3593.000000	1.590895 
3592.000000	1.590275 
3591.000000	1.589751 
3590.000000	1.589369 
3589.000000	1.589345 
3588.000000	1.589727 
3587.000000	1.590561 
3586.000000	1.591801 
3585.000000	1.593327 
3584.000000	1.595067 
3583.000000	1.596832 
3582.000000	1.598501 
3581.000000	1.599979 
3580.000000	1.601219 
3579.000000	1.602244 
3578.000000	1.603102 
3577.000000	1.603841 
3576.000000	1.604461 
3575.000000	1.605033 
3574.000000	1.605486 
3573.000000	1.605844 
3572.000000	1.606059 
3571.000000	1.606225 
3570.000000	1.606321 
3569.000000	1.606416 
3568.000000	1.606583 
3567.000000	1.606869 
3566.000000	1.607370 
3565.000000	1.607990 
3564.000000	1.608777 
3563.000000	1.609659 
3562.000000	1.610565 
3561.000000	1.611495 
3560.000000	1.612377 
3559.000000	1.613211 
3558.000000	1.614022 
3557.000000	1.614761 
3556.000000	1.615405 
3555.000000	1.616048 
3554.000000	1.616621 
3553.000000	1.617145 
3552.000000	1.617646 
3551.000000	1.618051 
3550.000000	1.618432 
3549.000000	1.618766 
3548.000000	1.619100 
3547.000000	1.619458 
3546.000000	1.619791 
3545.000000	1.620149 
3544.000000	1.620459 
3543.000000	1.620745 
3542.000000	1.621007 
3541.000000	1.621150 
3540.000000	1.621270 
3539.000000	1.621294 
3538.000000	1.621246 
3537.000000	1.621174 
3536.000000	1.621055 
3535.000000	1.620888 
3534.000000	1.620745 
3533.000000	1.620650 
3532.000000	1.620602 
3531.000000	1.620650 
3530.000000	1.620769 
3529.000000	1.620936 
3528.000000	1.621222 
3527.000000	1.621603 
3526.000000	1.622080 
3525.000000	1.622653 
3524.000000	1.623320 
3523.000000	1.624083 
3522.000000	1.624822 
3521.000000	1.625585 
3520.000000	1.626276 
3519.000000	1.626920 
3518.000000	1.627516 
3517.000000	1.628017 
3516.000000	1.628470 
3515.000000	1.628899 
3514.000000	1.629281 
3513.000000	1.629590 
3512.000000	1.629853 
3511.000000	1.629996 
3510.000000	1.629972 
3509.000000	1.629757 
3508.000000	1.629304 
3507.000000	1.628613 
3506.000000	1.627779 
3505.000000	1.626825 
3504.000000	1.625895 
3503.000000	1.625013 
3502.000000	1.624298 
3501.000000	1.623773 
3500.000000	1.623392 
3499.000000	1.623082 
3498.000000	1.622819 
3497.000000	1.622533 
3496.000000	1.622128 
3495.000000	1.621556 
3494.000000	1.620888 
3493.000000	1.620078 
3492.000000	1.619243 
3491.000000	1.618361 
3490.000000	1.617479 
3489.000000	1.616621 
3488.000000	1.615738 
3487.000000	1.614809 
3486.000000	1.613879 
3485.000000	1.612949 
3484.000000	1.611995 
3483.000000	1.611161 
3482.000000	1.610422 
3481.000000	1.609826 
3480.000000	1.609396 
3479.000000	1.609134 
3478.000000	1.608967 
3477.000000	1.608824 
3476.000000	1.608657 
3475.000000	1.608395 
3474.000000	1.608014 
3473.000000	1.607489 
3472.000000	1.606869 
3471.000000	1.606225 
3470.000000	1.605582 
3469.000000	1.604962 
3468.000000	1.604366 
3467.000000	1.603841 
3466.000000	1.603364 
3465.000000	1.602864 
3464.000000	1.602387 
3463.000000	1.601839 
3462.000000	1.601290 
3461.000000	1.600646 
3460.000000	1.600027 
3459.000000	1.599407 
3458.000000	1.598763 
3457.000000	1.598143 
3456.000000	1.597571 
3455.000000	1.596951 
3454.000000	1.596355 
3453.000000	1.595687 
3452.000000	1.595020 
3451.000000	1.594257 
3450.000000	1.593422 
3449.000000	1.592564 
3448.000000	1.591658 
3447.000000	1.590728 
3446.000000	1.589751 
3445.000000	1.588797 
3444.000000	1.587843 
3443.000000	1.586914 
3442.000000	1.586055 
3441.000000	1.585316 
3440.000000	1.584649 
3439.000000	1.584124 
3438.000000	1.583719 
3437.000000	1.583456 
3436.000000	1.583385 
3435.000000	1.583361 
3434.000000	1.583456 
3433.000000	1.583600 
3432.000000	1.583766 
3431.000000	1.583957 
3430.000000	1.584124 
3429.000000	1.584315 
3428.000000	1.584506 
3427.000000	1.584720 
3426.000000	1.584959 
3425.000000	1.585292 
3424.000000	1.585650 
3423.000000	1.586031 
3422.000000	1.586437 
3421.000000	1.586818 
3420.000000	1.587152 
3419.000000	1.587367 
3418.000000	1.587510 
3417.000000	1.587510 
3416.000000	1.587462 
3415.000000	1.587390 
3414.000000	1.587343 
3413.000000	1.587390 
3412.000000	1.587605 
3411.000000	1.588010 
3410.000000	1.588630 
3409.000000	1.589417 
3408.000000	1.590418 
3407.000000	1.591491 
3406.000000	1.592588 
3405.000000	1.593637 
3404.000000	1.594614 
3403.000000	1.595520 
3402.000000	1.596331 
3401.000000	1.597070 
3400.000000	1.597809 
3399.000000	1.598548 
3398.000000	1.599311 
3397.000000	1.600050 
3396.000000	1.600790 
3395.000000	1.601481 
3394.000000	1.602077 
3393.000000	1.602578 
3392.000000	1.603007 
3391.000000	1.603388 
3390.000000	1.603770 
3389.000000	1.604151 
3388.000000	1.604604 
3387.000000	1.605105 
3386.000000	1.605629 
3385.000000	1.606130 
3384.000000	1.606559 
3383.000000	1.606941 
3382.000000	1.607227 
3381.000000	1.607441 
3380.000000	1.607680 
3379.000000	1.607990 
3378.000000	1.608467 
3377.000000	1.609182 
3376.000000	1.610207 
3375.000000	1.611447 
3374.000000	1.612949 
3373.000000	1.614522 
3372.000000	1.616144 
3371.000000	1.617741 
3370.000000	1.619195 
3369.000000	1.620483 
3368.000000	1.621699 
3367.000000	1.622819 
3366.000000	1.623988 
3365.000000	1.625275 
3364.000000	1.626682 
3363.000000	1.628303 
3362.000000	1.630043 
3361.000000	1.631927 
3360.000000	1.633882 
3359.000000	1.635837 
3358.000000	1.637697 
3357.000000	1.639461 
3356.000000	1.641106 
3355.000000	1.642656 
3354.000000	1.644110 
3353.000000	1.645445 
3352.000000	1.646709 
3351.000000	1.647973 
3350.000000	1.649165 
3349.000000	1.650381 
3348.000000	1.651597 
3347.000000	1.652860 
3346.000000	1.654195 
3345.000000	1.655626 
3344.000000	1.657056 
3343.000000	1.658535 
3342.000000	1.659989 
3341.000000	1.661419 
3340.000000	1.662802 
3339.000000	1.664090 
3338.000000	1.665329 
3337.000000	1.666522 
3336.000000	1.667690 
3335.000000	1.668858 
3334.000000	1.670145 
3333.000000	1.671576 
3332.000000	1.673102 
3331.000000	1.674771 
3330.000000	1.676535 
3329.000000	1.678347 
3328.000000	1.680207 
3327.000000	1.682066 
3326.000000	1.683878 
3325.000000	1.685643 
3324.000000	1.687383 
3323.000000	1.689076 
3322.000000	1.690673 
3321.000000	1.692223 
3320.000000	1.693701 
3319.000000	1.695084 
3318.000000	1.696372 
3317.000000	1.697516 
3316.000000	1.698613 
3315.000000	1.699686 
3314.000000	1.700735 
3313.000000	1.701855 
3312.000000	1.703047 
3311.000000	1.704359 
3310.000000	1.705789 
3309.000000	1.707386 
3308.000000	1.709032 
3307.000000	1.710772 
3306.000000	1.712536 
3305.000000	1.714301 
3304.000000	1.716041 
3303.000000	1.717710 
3302.000000	1.719307 
3301.000000	1.720809 
3300.000000	1.722240 
3299.000000	1.723575 
3298.000000	1.724839 
3297.000000	1.726031 
3296.000000	1.727175 
3295.000000	1.728272 
3294.000000	1.729416 
3293.000000	1.730537 
3292.000000	1.731753 
3291.000000	1.733040 
3290.000000	1.734375 
3289.000000	1.735830 
3288.000000	1.737356 
3287.000000	1.738929 
3286.000000	1.740479 
3285.000000	1.741957 
3284.000000	1.743340 
3283.000000	1.744556 
3282.000000	1.745581 
3281.000000	1.746416 
3280.000000	1.747083 
3279.000000	1.747679 
3278.000000	1.748251 
3277.000000	1.748824 
3276.000000	1.749563 
3275.000000	1.750421 
3274.000000	1.751422 
3273.000000	1.752591 
3272.000000	1.753878 
3271.000000	1.755261 
3270.000000	1.756668 
3269.000000	1.758122 
3268.000000	1.759552 
3267.000000	1.760935 
3266.000000	1.762294 
3265.000000	1.763582 
3264.000000	1.764798 
3263.000000	1.765990 
3262.000000	1.767134 
3261.000000	1.768183 
3260.000000	1.769185 
3259.000000	1.770114 
3258.000000	1.770997 
3257.000000	1.771831 
3256.000000	1.772570 
3255.000000	1.773238 
3254.000000	1.773786 
3253.000000	1.774215 
3252.000000	1.774597 
3251.000000	1.774907 
3250.000000	1.775193 
3249.000000	1.775479 
3248.000000	1.775884 
3247.000000	1.776432 
3246.000000	1.777148 
3245.000000	1.778054 
3244.000000	1.779031 
3243.000000	1.780080 
3242.000000	1.781082 
3241.000000	1.782011 
3240.000000	1.782727 
3239.000000	1.783275 
3238.000000	1.783585 
3237.000000	1.783704 
3236.000000	1.783728 
3235.000000	1.783680 
3234.000000	1.783657 
3233.000000	1.783728 
3232.000000	1.783895 
3231.000000	1.784181 
3230.000000	1.784563 
3229.000000	1.785016 
3228.000000	1.785397 
3227.000000	1.785707 
3226.000000	1.785874 
3225.000000	1.785945 
3224.000000	1.785850 
3223.000000	1.785683 
3222.000000	1.785469 
3221.000000	1.785254 
3220.000000	1.785111 
3219.000000	1.785063 
3218.000000	1.785135 
3217.000000	1.785230 
3216.000000	1.785373 
3215.000000	1.785516 
3214.000000	1.785612 
3213.000000	1.785659 
3212.000000	1.785683 
3211.000000	1.785683 
3210.000000	1.785731 
3209.000000	1.785874 
3208.000000	1.786136 
3207.000000	1.786541 
3206.000000	1.787114 
3205.000000	1.787734 
3204.000000	1.788449 
3203.000000	1.789212 
3202.000000	1.789951 
3201.000000	1.790714 
3200.000000	1.791405 
3199.000000	1.792097 
3198.000000	1.792764 
3197.000000	1.793432 
3196.000000	1.794075 
3195.000000	1.794672 
3194.000000	1.795148 
3193.000000	1.795530 
3192.000000	1.795721 
3191.000000	1.795721 
3190.000000	1.795673 
3189.000000	1.795530 
3188.000000	1.795363 
3187.000000	1.795268 
3186.000000	1.795196 
3185.000000	1.795220 
3184.000000	1.795315 
3183.000000	1.795434 
3182.000000	1.795649 
3181.000000	1.795864 
3180.000000	1.796174 
3179.000000	1.796579 
3178.000000	1.797080 
3177.000000	1.797747 
3176.000000	1.798582 
3175.000000	1.799559 
3174.000000	1.800632 
3173.000000	1.801681 
3172.000000	1.802659 
3171.000000	1.803374 
3170.000000	1.803851 
3169.000000	1.804018 
3168.000000	1.803994 
3167.000000	1.803755 
3166.000000	1.803469 
3165.000000	1.803159 
3164.000000	1.802921 
3163.000000	1.802778 
3162.000000	1.802754 
3161.000000	1.802897 
3160.000000	1.803135 
3159.000000	1.803517 
3158.000000	1.803994 
3157.000000	1.804542 
3156.000000	1.805186 
3155.000000	1.805901 
3154.000000	1.806688 
3153.000000	1.807498 
3152.000000	1.808333 
3151.000000	1.809191 
3150.000000	1.810050 
3149.000000	1.810956 
3148.000000	1.811933 
3147.000000	1.813006 
3146.000000	1.814198 
3145.000000	1.815509 
3144.000000	1.816916 
3143.000000	1.818370 
3142.000000	1.819777 
3141.000000	1.821136 
3140.000000	1.822328 
3139.000000	1.823449 
3138.000000	1.824450 
3137.000000	1.825428 
3136.000000	1.826429 
3135.000000	1.827502 
3134.000000	1.828718 
3133.000000	1.830077 
3132.000000	1.831483 
3131.000000	1.832914 
3130.000000	1.834297 
3129.000000	1.835536 
3128.000000	1.836538 
3127.000000	1.837348 
3126.000000	1.837921 
3125.000000	1.838302 
3124.000000	1.838612 
3123.000000	1.838898 
3122.000000	1.839232 
3121.000000	1.839733 
3120.000000	1.840424 
3119.000000	1.841330 
3118.000000	1.842451 
3117.000000	1.843833 
3116.000000	1.845407 
3115.000000	1.847147 
3114.000000	1.849055 
3113.000000	1.851081 
3112.000000	1.853156 
3111.000000	1.855254 
3110.000000	1.857304 
3109.000000	1.859283 
3108.000000	1.861214 
3107.000000	1.863026 
3106.000000	1.864814 
3105.000000	1.866555 
3104.000000	1.868271 
3103.000000	1.870036 
3102.000000	1.871824 
3101.000000	1.873660 
3100.000000	1.875567 
3099.000000	1.877522 
3098.000000	1.879525 
3097.000000	1.881575 
3096.000000	1.883721 
3095.000000	1.885938 
3094.000000	1.888155 
3093.000000	1.890397 
3092.000000	1.892614 
3091.000000	1.894760 
3090.000000	1.896858 
3089.000000	1.898884 
3088.000000	1.900839 
3087.000000	1.902747 
3086.000000	1.904606 
3085.000000	1.906490 
3084.000000	1.908373 
3083.000000	1.910257 
3082.000000	1.912117 
3081.000000	1.913905 
3080.000000	1.915597 
3079.000000	1.917195 
3078.000000	1.918673 
3077.000000	1.920032 
3076.000000	1.921296 
3075.000000	1.922535 
3074.000000	1.923656 
3073.000000	1.924753 
3072.000000	1.925826 
3071.000000	1.926803 
3070.000000	1.927804 
3069.000000	1.928734 
3068.000000	1.929664 
3067.000000	1.930570 
3066.000000	1.931524 
3065.000000	1.932549 
3064.000000	1.933670 
3063.000000	1.934862 
3062.000000	1.936197 
3061.000000	1.937651 
3060.000000	1.939201 
3059.000000	1.940870 
3058.000000	1.942610 
3057.000000	1.944470 
3056.000000	1.946401 
3055.000000	1.948356 
3054.000000	1.950359 
3053.000000	1.952338 
3052.000000	1.954269 
3051.000000	1.956129 
3050.000000	1.957869 
3049.000000	1.959538 
3048.000000	1.961135 
3047.000000	1.962637 
3046.000000	1.964116 
3045.000000	1.965570 
3044.000000	1.967024 
3043.000000	1.968407 
3042.000000	1.969766 
3041.000000	1.971054 
3040.000000	1.972246 
3039.000000	1.973319 
3038.000000	1.974225 
3037.000000	1.975035 
3036.000000	1.975679 
3035.000000	1.976156 
3034.000000	1.976442 
3033.000000	1.976561 
3032.000000	1.976394 
3031.000000	1.975941 
3030.000000	1.975131 
3029.000000	1.973938 
3028.000000	1.972293 
3027.000000	1.970219 
3026.000000	1.967835 
3025.000000	1.965212 
3024.000000	1.962566 
3023.000000	1.960015 
3022.000000	1.957821 
3021.000000	1.956176 
3020.000000	1.955294 
3019.000000	1.955318 
3018.000000	1.956319 
3017.000000	1.958370 
3016.000000	1.961398 
3015.000000	1.965284 
3014.000000	1.969861 
3013.000000	1.974892 
3012.000000	1.980257 
3011.000000	1.985692 
3010.000000	1.991009 
3009.000000	1.996088 
3008.000000	2.000856 
3007.000000	2.005219 
3006.000000	2.009129 
3005.000000	2.012562 
3004.000000	2.015519 
3003.000000	2.018022 
3002.000000	2.020096 
3001.000000	2.021765 
3000.000000	2.023077 
2999.000000	2.024173 
2998.000000	2.025055 
2997.000000	2.025866 
2996.000000	2.026605 
2995.000000	2.027273 
2994.000000	2.027893 
2993.000000	2.028369 
2992.000000	2.028727 
2991.000000	2.028894 
2990.000000	2.028846 
2989.000000	2.028560 
2988.000000	2.028059 
2987.000000	2.027368 
2986.000000	2.026486 
2985.000000	2.025413 
2984.000000	2.024173 
2983.000000	2.022719 
2982.000000	2.021050 
2981.000000	2.019143 
2980.000000	2.016973 
2979.000000	2.014446 
2978.000000	2.011609 
2977.000000	2.008366 
2976.000000	2.004694 
2975.000000	2.000498 
2974.000000	1.995849 
2973.000000	1.990699 
2972.000000	1.985001 
2971.000000	1.978945 
2970.000000	1.972556 
2969.000000	1.966071 
2968.000000	1.959657 
2967.000000	1.953411 
2966.000000	1.947593 
2965.000000	1.942324 
2964.000000	1.937627 
2963.000000	1.933646 
2962.000000	1.930308 
2961.000000	1.927709 
2960.000000	1.925778 
2959.000000	1.924443 
2958.000000	1.923608 
2957.000000	1.923155 
2956.000000	1.922941 
2955.000000	1.922750 
2954.000000	1.922416 
2953.000000	1.921749 
2952.000000	1.920604 
2951.000000	1.918911 
2950.000000	1.916384 
2949.000000	1.913094 
2948.000000	1.908898 
2947.000000	1.903820 
2946.000000	1.897764 
2945.000000	1.890826 
2944.000000	1.883101 
2943.000000	1.874637 
2942.000000	1.865601 
2941.000000	1.856231 
2940.000000	1.846694 
2939.000000	1.837229 
2938.000000	1.827955 
2937.000000	1.819038 
2936.000000	1.810598 
2935.000000	1.802659 
2934.000000	1.795220 
2933.000000	1.788306 
2932.000000	1.781892 
2931.000000	1.776099 
2930.000000	1.771020 
2929.000000	1.766824 
2928.000000	1.763772 
2927.000000	1.762127 
2926.000000	1.762127 
2925.000000	1.764011 
2924.000000	1.767826 
2923.000000	1.773667 
2922.000000	1.781296 
2921.000000	1.790618 
2920.000000	1.801252 
2919.000000	1.812887 
2918.000000	1.825141 
2917.000000	1.837706 
2916.000000	1.850247 
2915.000000	1.862478 
2914.000000	1.874184 
2913.000000	1.885247 
2912.000000	1.895523 
2911.000000	1.904916 
2910.000000	1.913428 
2909.000000	1.921057 
2908.000000	1.927804 
2907.000000	1.933717 
2906.000000	1.938939 
2905.000000	1.943492 
2904.000000	1.947498 
2903.000000	1.951074 
2902.000000	1.954340 
2901.000000	1.957464 
2900.000000	1.960444 
2899.000000	1.963400 
2898.000000	1.966309 
2897.000000	1.969265 
2896.000000	1.972222 
2895.000000	1.975178 
2894.000000	1.978087 
2893.000000	1.980996 
2892.000000	1.983880 
2891.000000	1.986718 
2890.000000	1.989483 
2889.000000	1.992130 
2888.000000	1.994657 
2887.000000	1.996994 
2886.000000	1.999092 
2885.000000	2.000880 
2884.000000	2.002406 
2883.000000	2.003645 
2882.000000	2.004599 
2881.000000	2.005243 
2880.000000	2.005553 
2879.000000	2.005481 
2878.000000	2.004957 
2877.000000	2.003788 
2876.000000	2.001833 
2875.000000	1.998996 
2874.000000	1.995110 
2873.000000	1.990127 
2872.000000	1.984047 
2871.000000	1.976895 
2870.000000	1.968765 
2869.000000	1.959943 
2868.000000	1.950550 
2867.000000	1.941061 
2866.000000	1.931810 
2865.000000	1.923274 
2864.000000	1.915931 
2863.000000	1.910185 
2862.000000	1.906371 
2861.000000	1.904702 
2860.000000	1.905226 
2859.000000	1.907968 
2858.000000	1.912569 
2857.000000	1.918864 
2856.000000	1.926493 
2855.000000	1.935076 
2854.000000	1.944327 
2853.000000	1.954078 
2852.000000	1.964092 
2851.000000	1.974201 
2850.000000	1.984286 
2849.000000	1.994156 
2848.000000	2.003788 
2847.000000	2.013063 
2846.000000	2.021861 
2845.000000	2.030110 
2844.000000	2.037835 
2843.000000	2.045035 
2842.000000	2.051782 
2841.000000	2.058053 
2840.000000	2.063989 
2839.000000	2.069616 
2838.000000	2.074980 
2837.000000	2.080130 
2836.000000	2.085041 
2835.000000	2.089786 
2834.000000	2.094268 
2833.000000	2.098560 
2832.000000	2.102613 
2831.000000	2.106451 
2830.000000	2.110028 
2829.000000	2.113342 
2828.000000	2.116394 
2827.000000	2.119183 
2826.000000	2.121734 
2825.000000	2.124118 
2824.000000	2.126359 
2823.000000	2.128529 
2822.000000	2.130746 
2821.000000	2.132964 
2820.000000	2.135276 
2819.000000	2.137732 
2818.000000	2.140307 
2817.000000	2.142930 
2816.000000	2.145576 
2815.000000	2.148222 
2814.000000	2.150821 
2813.000000	2.153277 
2812.000000	2.155637 
2811.000000	2.157855 
2810.000000	2.159976 
2809.000000	2.162027 
2808.000000	2.164030 
2807.000000	2.166032 
2806.000000	2.168107 
2805.000000	2.170181 
2804.000000	2.172231 
2803.000000	2.174282 
2802.000000	2.176380 
2801.000000	2.178406 
2800.000000	2.180361 
2799.000000	2.182340 
2798.000000	2.184224 
2797.000000	2.186083 
2796.000000	2.187848 
2795.000000	2.189517 
2794.000000	2.191066 
2793.000000	2.192568 
2792.000000	2.193975 
2791.000000	2.195405 
2790.000000	2.196812 
2789.000000	2.198314 
2788.000000	2.199864 
2787.000000	2.201628 
2786.000000	2.203536 
2785.000000	2.205634 
2784.000000	2.207827 
2783.000000	2.210092 
2782.000000	2.212357 
2781.000000	2.214622 
2780.000000	2.216839 
2779.000000	2.219009 
2778.000000	2.221083 
2777.000000	2.223110 
2776.000000	2.225041 
2775.000000	2.226853 
2774.000000	2.228546 
2773.000000	2.230095 
2772.000000	2.231526 
2771.000000	2.232766 
2770.000000	2.233886 
2769.000000	2.234888 
2768.000000	2.235770 
2767.000000	2.236604 
2766.000000	2.237391 
2765.000000	2.238202 
2764.000000	2.239036 
2763.000000	2.239894 
2762.000000	2.240753 
2761.000000	2.241611 
2760.000000	2.242469 
2759.000000	2.243280 
2758.000000	2.244019 
2757.000000	2.244639 
2756.000000	2.245211 
2755.000000	2.245688 
2754.000000	2.246046 
2753.000000	2.246356 
2752.000000	2.246618 
2751.000000	2.246904 
2750.000000	2.247238 
2749.000000	2.247619 
2748.000000	2.248072 
2747.000000	2.248573 
2746.000000	2.249145 
2745.000000	2.249717 
2744.000000	2.250266 
2743.000000	2.250790 
2742.000000	2.251219 
2741.000000	2.251577 
2740.000000	2.251911 
2739.000000	2.252197 
2738.000000	2.252459 
2737.000000	2.252721 
2736.000000	2.253007 
2735.000000	2.253270 
2734.000000	2.253532 
2733.000000	2.253746 
2732.000000	2.253913 
2731.000000	2.253985 
2730.000000	2.253985 
2729.000000	2.253937 
2728.000000	2.253866 
2727.000000	2.253746 
2726.000000	2.253651 
2725.000000	2.253508 
2724.000000	2.253413 
2723.000000	2.253317 
2722.000000	2.253222 
2721.000000	2.253127 
2720.000000	2.252960 
2719.000000	2.252745 
2718.000000	2.252554 
2717.000000	2.252316 
2716.000000	2.252054 
2715.000000	2.251744 
2714.000000	2.251434 
2713.000000	2.251052 
2712.000000	2.250623 
2711.000000	2.250123 
2710.000000	2.249550 
2709.000000	2.248835 
2708.000000	2.248072 
2707.000000	2.247262 
2706.000000	2.246427 
2705.000000	2.245616 
2704.000000	2.244782 
2703.000000	2.243995 
2702.000000	2.243232 
2701.000000	2.242469 
2700.000000	2.241659 
2699.000000	2.240824 
2698.000000	2.239990 
2697.000000	2.239155 
2696.000000	2.238321 
2695.000000	2.237534 
2694.000000	2.236866 
2693.000000	2.236342 
2692.000000	2.235937 
2691.000000	2.235674 
2690.000000	2.235507 
2689.000000	2.235388 
2688.000000	2.235269 
2687.000000	2.235150 
2686.000000	2.235031 
2685.000000	2.234864 
2684.000000	2.234649 
2683.000000	2.234458 
2682.000000	2.234220 
2681.000000	2.233934 
2680.000000	2.233576 
2679.000000	2.233123 
2678.000000	2.232551 
2677.000000	2.231884 
2676.000000	2.231097 
2675.000000	2.230215 
2674.000000	2.229309 
2673.000000	2.228403 
2672.000000	2.227568 
2671.000000	2.226781 
2670.000000	2.226114 
2669.000000	2.225470 
2668.000000	2.224874 
2667.000000	2.224278 
2666.000000	2.223658 
2665.000000	2.223038 
2664.000000	2.222418 
2663.000000	2.221822 
2662.000000	2.221298 
2661.000000	2.220845 
2660.000000	2.220439 
2659.000000	2.220058 
2658.000000	2.219700 
2657.000000	2.219319 
2656.000000	2.218961 
2655.000000	2.218580 
2654.000000	2.218198 
2653.000000	2.217841 
2652.000000	2.217555 
2651.000000	2.217340 
2650.000000	2.217197 
2649.000000	2.217078 
2648.000000	2.217030 
2647.000000	2.216982 
2646.000000	2.216935 
2645.000000	2.216839 
2644.000000	2.216649 
2643.000000	2.216434 
2642.000000	2.216219 
2641.000000	2.216005 
2640.000000	2.215790 
2639.000000	2.215623 
2638.000000	2.215552 
2637.000000	2.215528 
2636.000000	2.215528 
2635.000000	2.215552 
2634.000000	2.215528 
2633.000000	2.215456 
2632.000000	2.215337 
2631.000000	2.215194 
2630.000000	2.215003 
2629.000000	2.214813 
2628.000000	2.214646 
2627.000000	2.214574 
2626.000000	2.214622 
2625.000000	2.214813 
2624.000000	2.215194 
2623.000000	2.215790 
2622.000000	2.216529 
2621.000000	2.217388 
2620.000000	2.218365 
2619.000000	2.219367 
2618.000000	2.220320 
2617.000000	2.221202 
2616.000000	2.221941 
2615.000000	2.222537 
2614.000000	2.223014 
2613.000000	2.223348 
2612.000000	2.223634 
2611.000000	2.223920 
2610.000000	2.224183 
2609.000000	2.224493 
2608.000000	2.224802 
2607.000000	2.225089 
2606.000000	2.225351 
2605.000000	2.225542 
2604.000000	2.225661 
2603.000000	2.225756 
2602.000000	2.225804 
2601.000000	2.225899 
2600.000000	2.225971 
2599.000000	2.226161 
2598.000000	2.226376 
2597.000000	2.226614 
2596.000000	2.226901 
2595.000000	2.227210 
2594.000000	2.227616 
2593.000000	2.228116 
2592.000000	2.228760 
2591.000000	2.229595 
2590.000000	2.230596 
2589.000000	2.231812 
2588.000000	2.233123 
2587.000000	2.234530 
2586.000000	2.235984 
2585.000000	2.237415 
2584.000000	2.238821 
2583.000000	2.240204 
2582.000000	2.241587 
2581.000000	2.243041 
2580.000000	2.244544 
2579.000000	2.246212 
2578.000000	2.248001 
2577.000000	2.249884 
2576.000000	2.251791 
2575.000000	2.253675 
2574.000000	2.255535 
2573.000000	2.257251 
2572.000000	2.258849 
2571.000000	2.260351 
2570.000000	2.261757 
2569.000000	2.263069 
2568.000000	2.264332 
2567.000000	2.265572 
2566.000000	2.266788 
2565.000000	2.268075 
2564.000000	2.269387 
2563.000000	2.270674 
2562.000000	2.271962 
2561.000000	2.273178 
2560.000000	2.274394 
2559.000000	2.275562 
2558.000000	2.276659 
2557.000000	2.277755 
2556.000000	2.278828 
2555.000000	2.279949 
2554.000000	2.281069 
2553.000000	2.282238 
2552.000000	2.283430 
2551.000000	2.284622 
2550.000000	2.285790 
2549.000000	2.286934 
2548.000000	2.288055 
2547.000000	2.289175 
2546.000000	2.290320 
2545.000000	2.291512 
2544.000000	2.292752 
2543.000000	2.294039 
2542.000000	2.295398 
2541.000000	2.296805 
2540.000000	2.298212 
2539.000000	2.299618 
2538.000000	2.301025 
2537.000000	2.302360 
2536.000000	2.303600 
2535.000000	2.304720 
2534.000000	2.305698 
2533.000000	2.306556 
2532.000000	2.307271 
2531.000000	2.307891 
2530.000000	2.308416 
2529.000000	2.308917 
2528.000000	2.309393 
2527.000000	2.309894 
2526.000000	2.310419 
2525.000000	2.311015 
2524.000000	2.311682 
2523.000000	2.312445 
2522.000000	2.313208 
2521.000000	2.314066 
2520.000000	2.314901 
2519.000000	2.315735 
2518.000000	2.316498 
2517.000000	2.317237 
2516.000000	2.317905 
2515.000000	2.318525 
2514.000000	2.319145 
2513.000000	2.319788 
2512.000000	2.320456 
2511.000000	2.321147 
2510.000000	2.321839 
2509.000000	2.322530 
2508.000000	2.323174 
2507.000000	2.323698 
2506.000000	2.324151 
2505.000000	2.324604 
2504.000000	2.325010 
2503.000000	2.325463 
2502.000000	2.326035 
2501.000000	2.326679 
2500.000000	2.327370 
2499.000000	2.328109 
2498.000000	2.328705 
2497.000000	2.329063 
2496.000000	2.329182 
2495.000000	2.329015 
2494.000000	2.328586 
2493.000000	2.327919 
2492.000000	2.327203 
2491.000000	2.326583 
2490.000000	2.326130 
2489.000000	2.325892 
2488.000000	2.325940 
2487.000000	2.326130 
2486.000000	2.326488 
2485.000000	2.326798 
2484.000000	2.327013 
2483.000000	2.327013 
2482.000000	2.326703 
2481.000000	2.326130 
2480.000000	2.325296 
2479.000000	2.324247 
2478.000000	2.323055 
2477.000000	2.321791 
2476.000000	2.320551 
2475.000000	2.319335 
2474.000000	2.318239 
2473.000000	2.317190 
2472.000000	2.316212 
2471.000000	2.315330 
2470.000000	2.314448 
2469.000000	2.313590 
2468.000000	2.312707 
2467.000000	2.311825 
2466.000000	2.310919 
2465.000000	2.309966 
2464.000000	2.308988 
2463.000000	2.308034 
2462.000000	2.307128 
2461.000000	2.306318 
2460.000000	2.305626 
2459.000000	2.305078 
2458.000000	2.304601 
2457.000000	2.304196 
2456.000000	2.303791 
2455.000000	2.303290 
2454.000000	2.302598 
2453.000000	2.301716 
2452.000000	2.300524 
2451.000000	2.299118 
2450.000000	2.297496 
2449.000000	2.295708 
2448.000000	2.293848 
2447.000000	2.292013 
2446.000000	2.290248 
2445.000000	2.288627 
2444.000000	2.287173 
2443.000000	2.285838 
2442.000000	2.284693 
2441.000000	2.283692 
2440.000000	2.282786 
2439.000000	2.281975 
2438.000000	2.281236 
2437.000000	2.280497 
2436.000000	2.279710 
2435.000000	2.278876 
2434.000000	2.277994 
2433.000000	2.277016 
2432.000000	2.276015 
2431.000000	2.275037 
2430.000000	2.274131 
2429.000000	2.273368 
2428.000000	2.272820 
2427.000000	2.272439 
2426.000000	2.272295 
2425.000000	2.272295 
2424.000000	2.272319 
2423.000000	2.272295 
2422.000000	2.272152 
2421.000000	2.271819 
2420.000000	2.271342 
2419.000000	2.270674 
2418.000000	2.269911 
2417.000000	2.269101 
2416.000000	2.268314 
2415.000000	2.267527 
2414.000000	2.266812 
2413.000000	2.266144 
2412.000000	2.265501 
2411.000000	2.264904 
2410.000000	2.264308 
2409.000000	2.263712 
2408.000000	2.263092 
2407.000000	2.262425 
2406.000000	2.261710 
2405.000000	2.260971 
2404.000000	2.260160 
2403.000000	2.259254 
2402.000000	2.258300 
2401.000000	2.257275 
2400.000000	2.256178 
2399.000000	2.255105 
2398.000000	2.253985 
2397.000000	2.252912 
2396.000000	2.251887 
2395.000000	2.250909 
2394.000000	2.249979 
2393.000000	2.249121 
2392.000000	2.248358 
2391.000000	2.247667 
2390.000000	2.247047 
2389.000000	2.246499 
2388.000000	2.246069 
2387.000000	2.245688 
2386.000000	2.245330 
2385.000000	2.245020 
2384.000000	2.244687 
2383.000000	2.244305 
2382.000000	2.243828 
2381.000000	2.243304 
2380.000000	2.242684 
2379.000000	2.241921 
2378.000000	2.241063 
2377.000000	2.240109 
2376.000000	2.239060 
2375.000000	2.237963 
2374.000000	2.236843 
2373.000000	2.235722 
2372.000000	2.234625 
2371.000000	2.233576 
2370.000000	2.232599 
2369.000000	2.231693 
2368.000000	2.230858 
2367.000000	2.230143 
2366.000000	2.229571 
2365.000000	2.229213 
2364.000000	2.229094 
2363.000000	2.229285 
2362.000000	2.229881 
2361.000000	2.230882 
2360.000000	2.232336 
2359.000000	2.234196 
2358.000000	2.236413 
2357.000000	2.238941 
2356.000000	2.241683 
2355.000000	2.244472 
2354.000000	2.247262 
2353.000000	2.249908 
2352.000000	2.252364 
2351.000000	2.254629 
2350.000000	2.256608 
2349.000000	2.258372 
2348.000000	2.259850 
2347.000000	2.261161 
2346.000000	2.262234 
2345.000000	2.263164 
2344.000000	2.263927 
2343.000000	2.264523 
2342.000000	2.264928 
2341.000000	2.265214 
2340.000000	2.265381 
2339.000000	2.265548 
2338.000000	2.265763 
2337.000000	2.266168 
2336.000000	2.266812 
2335.000000	2.267765 
2334.000000	2.269077 
2333.000000	2.270746 
2332.000000	2.272701 
2331.000000	2.274918 
2330.000000	2.277278 
2329.000000	2.279758 
2328.000000	2.282214 
2327.000000	2.284646 
2326.000000	2.287030 
2325.000000	2.289319 
2324.000000	2.291560 
2323.000000	2.293705 
2322.000000	2.295804 
2321.000000	2.297878 
2320.000000	2.299904 
2319.000000	2.301931 
2318.000000	2.303957 
2317.000000	2.305984 
2316.000000	2.308011 
2315.000000	2.310037 
2314.000000	2.312040 
2313.000000	2.313995 
2312.000000	2.315926 
2311.000000	2.317762 
2310.000000	2.319478 
2309.000000	2.321124 
2308.000000	2.322626 
2307.000000	2.324080 
2306.000000	2.325463 
2305.000000	2.326846 
2304.000000	2.328252 
2303.000000	2.329778 
2302.000000	2.331423 
2301.000000	2.333164 
2300.000000	2.335000 
2299.000000	2.336907 
2298.000000	2.338862 
2297.000000	2.340841 
2296.000000	2.342796 
2295.000000	2.344679 
2294.000000	2.346467 
2293.000000	2.348208 
2292.000000	2.349829 
2291.000000	2.351379 
2290.000000	2.352786 
2289.000000	2.354073 
2288.000000	2.355217 
2287.000000	2.356243 
2286.000000	2.357172 
2285.000000	2.357983 
2284.000000	2.358722 
2283.000000	2.359437 
2282.000000	2.360129 
2281.000000	2.360844 
2280.000000	2.361559 
2279.000000	2.362346 
2278.000000	2.363157 
2277.000000	2.363991 
2276.000000	2.364826 
2275.000000	2.365660 
2274.000000	2.366471 
2273.000000	2.367234 
2272.000000	2.367973 
2271.000000	2.368640 
2270.000000	2.369213 
2269.000000	2.369737 
2268.000000	2.370238 
2267.000000	2.370667 
2266.000000	2.371144 
2265.000000	2.371621 
2264.000000	2.372145 
2263.000000	2.372717 
2262.000000	2.373361 
2261.000000	2.374053 
2260.000000	2.374792 
2259.000000	2.375578 
2258.000000	2.376270 
2257.000000	2.376937 
2256.000000	2.377533 
2255.000000	2.377963 
2254.000000	2.378296 
2253.000000	2.378487 
2252.000000	2.378630 
2251.000000	2.378726 
2250.000000	2.378845 
2249.000000	2.378964 
2248.000000	2.379250 
2247.000000	2.379560 
2246.000000	2.379989 
2245.000000	2.380442 
2244.000000	2.380895 
2243.000000	2.381277 
2242.000000	2.381587 
2241.000000	2.381753 
2240.000000	2.381801 
2239.000000	2.381706 
2238.000000	2.381539 
2237.000000	2.381229 
2236.000000	2.380871 
2235.000000	2.380490 
2234.000000	2.380061 
2233.000000	2.379679 
2232.000000	2.379274 
2231.000000	2.378869 
2230.000000	2.378535 
2229.000000	2.378225 
2228.000000	2.377963 
2227.000000	2.377700 
2226.000000	2.377438 
2225.000000	2.377152 
2224.000000	2.376842 
2223.000000	2.376437 
2222.000000	2.375912 
2221.000000	2.375221 
2220.000000	2.374458 
2219.000000	2.373600 
2218.000000	2.372717 
2217.000000	2.371859 
2216.000000	2.370977 
2215.000000	2.370190 
2214.000000	2.369427 
2213.000000	2.368712 
2212.000000	2.367973 
2211.000000	2.367210 
2210.000000	2.366399 
2209.000000	2.365541 
2208.000000	2.364635 
2207.000000	2.363729 
2206.000000	2.362871 
2205.000000	2.362060 
2204.000000	2.361321 
2203.000000	2.360630 
2202.000000	2.359962 
2201.000000	2.359294 
2200.000000	2.358579 
2199.000000	2.357816 
2198.000000	2.356934 
2197.000000	2.356004 
2196.000000	2.355003 
2195.000000	2.354025 
2194.000000	2.353072 
2193.000000	2.352213 
2192.000000	2.351522 
2191.000000	2.350950 
2190.000000	2.350497 
2189.000000	2.350163 
2188.000000	2.349853 
2187.000000	2.349495 
2186.000000	2.349066 
2185.000000	2.348470 
2184.000000	2.347755 
2183.000000	2.346873 
2182.000000	2.345895 
2181.000000	2.344846 
2180.000000	2.343750 
2179.000000	2.342700 
2178.000000	2.341675 
2177.000000	2.340745 
2176.000000	2.339911 
2175.000000	2.339172 
2174.000000	2.338528 
2173.000000	2.338004 
2172.000000	2.337527 
2171.000000	2.337074 
2170.000000	2.336668 
2169.000000	2.336263 
2168.000000	2.335834 
2167.000000	2.335357 
2166.000000	2.334809 
2165.000000	2.334237 
2164.000000	2.333688 
2163.000000	2.333164 
2162.000000	2.332687 
2161.000000	2.332305 
2160.000000	2.332019 
2159.000000	2.331852 
2158.000000	2.331829 
2157.000000	2.331948 
2156.000000	2.332139 
2155.000000	2.332401 
2154.000000	2.332711 
2153.000000	2.333068 
2152.000000	2.333378 
2151.000000	2.333664 
2150.000000	2.333903 
2149.000000	2.334070 
2148.000000	2.334141 
2147.000000	2.334189 
2146.000000	2.334094 
2145.000000	2.333950 
2144.000000	2.333784 
2143.000000	2.333474 
2142.000000	2.333116 
2141.000000	2.332735 
2140.000000	2.332353 
2139.000000	2.332067 
2138.000000	2.331876 
2137.000000	2.331829 
2136.000000	2.331948 
2135.000000	2.332162 
2134.000000	2.332472 
2133.000000	2.332806 
2132.000000	2.333140 
2131.000000	2.333402 
2130.000000	2.333617 
2129.000000	2.333807 
2128.000000	2.333998 
2127.000000	2.334165 
2126.000000	2.334332 
2125.000000	2.334547 
2124.000000	2.334690 
2123.000000	2.334737 
2122.000000	2.334713 
2121.000000	2.334594 
2120.000000	2.334332 
2119.000000	2.334046 
2118.000000	2.333807 
2117.000000	2.333664 
2116.000000	2.333784 
2115.000000	2.334141 
2114.000000	2.334666 
2113.000000	2.335381 
2112.000000	2.336144 
2111.000000	2.336931 
2110.000000	2.337622 
2109.000000	2.338147 
2108.000000	2.338504 
2107.000000	2.338719 
2106.000000	2.338743 
2105.000000	2.338671 
2104.000000	2.338528 
2103.000000	2.338385 
2102.000000	2.338242 
2101.000000	2.338075 
2100.000000	2.337908 
2099.000000	2.337718 
2098.000000	2.337503 
2097.000000	2.337265 
2096.000000	2.337026 
2095.000000	2.336764 
2094.000000	2.336502 
2093.000000	2.336239 
2092.000000	2.335977 
2091.000000	2.335691 
2090.000000	2.335405 
2089.000000	2.335143 
2088.000000	2.334928 
2087.000000	2.334833 
2086.000000	2.334952 
2085.000000	2.335286 
2084.000000	2.335953 
2083.000000	2.336907 
2082.000000	2.338242 
2081.000000	2.339816 
2080.000000	2.341651 
2079.000000	2.343678 
2078.000000	2.345871 
2077.000000	2.348160 
2076.000000	2.350616 
2075.000000	2.353143 
2074.000000	2.355742 
2073.000000	2.358341 
2072.000000	2.360916 
2071.000000	2.363419 
2070.000000	2.365708 
2069.000000	2.367758 
2068.000000	2.369594 
2067.000000	2.371215 
2066.000000	2.372622 
2065.000000	2.373957 
2064.000000	2.375340 
2063.000000	2.376866 
2062.000000	2.378559 
2061.000000	2.380514 
2060.000000	2.382683 
2059.000000	2.385044 
2058.000000	2.387571 
2057.000000	2.390122 
2056.000000	2.392649 
2055.000000	2.395105 
2054.000000	2.397418 
2053.000000	2.399587 
2052.000000	2.401614 
2051.000000	2.403497 
2050.000000	2.405285 
2049.000000	2.406954 
2048.000000	2.408552 
2047.000000	2.410125 
2046.000000	2.411603 
2045.000000	2.413105 
2044.000000	2.414584 
2043.000000	2.416062 
2042.000000	2.417564 
2041.000000	2.419114 
2040.000000	2.420711 
2039.000000	2.422356 
2038.000000	2.423930 
2037.000000	2.425503 
2036.000000	2.427029 
2035.000000	2.428460 
2034.000000	2.429819 
2033.000000	2.431130 
2032.000000	2.432417 
2031.000000	2.433681 
2030.000000	2.435016 
2029.000000	2.436399 
2028.000000	2.437806 
2027.000000	2.439284 
2026.000000	2.440738 
2025.000000	2.442121 
2024.000000	2.443456 
2023.000000	2.444648 
2022.000000	2.445721 
2021.000000	2.446722 
2020.000000	2.447605 
2019.000000	2.448391 
2018.000000	2.449059 
2017.000000	2.449631 
2016.000000	2.450108 
2015.000000	2.450442 
2014.000000	2.450704 
2013.000000	2.450895 
2012.000000	2.451038 
2011.000000	2.451181 
2010.000000	2.451324 
2009.000000	2.451586 
2008.000000	2.451968 
2007.000000	2.452492 
2006.000000	2.453136 
2005.000000	2.453875 
2004.000000	2.454590 
2003.000000	2.455186 
2002.000000	2.455615 
2001.000000	2.455806 
2000.000000	2.455759 
1999.000000	2.455472 
1998.000000	2.455019 
1997.000000	2.454519 
1996.000000	2.454042 
1995.000000	2.453684 
1994.000000	2.453494 
1993.000000	2.453470 
1992.000000	2.453541 
1991.000000	2.453637 
1990.000000	2.453732 
1989.000000	2.453708 
1988.000000	2.453494 
1987.000000	2.453136 
1986.000000	2.452588 
1985.000000	2.451992 
1984.000000	2.451324 
1983.000000	2.450656 
1982.000000	2.450013 
1981.000000	2.449417 
1980.000000	2.448821 
1979.000000	2.448225 
1978.000000	2.447605 
1977.000000	2.446889 
1976.000000	2.446079 
1975.000000	2.445101 
1974.000000	2.443981 
1973.000000	2.442789 
1972.000000	2.441477 
1971.000000	2.440118 
1970.000000	2.438735 
1969.000000	2.437424 
1968.000000	2.436208 
1967.000000	2.435064 
1966.000000	2.434039 
1965.000000	2.433133 
1964.000000	2.432322 
1963.000000	2.431631 
1962.000000	2.430987 
1961.000000	2.430415 
1960.000000	2.429866 
1959.000000	2.429318 
1958.000000	2.428841 
1957.000000	2.428317 
1956.000000	2.427816 
1955.000000	2.427244 
1954.000000	2.426624 
1953.000000	2.425861 
1952.000000	2.424979 
1951.000000	2.423954 
1950.000000	2.422785 
1949.000000	2.421522 
1948.000000	2.420186 
1947.000000	2.418851 
1946.000000	2.417564 
1945.000000	2.416419 
1944.000000	2.415418 
1943.000000	2.414560 
1942.000000	2.413892 
1941.000000	2.413368 
1940.000000	2.412962 
1939.000000	2.412581 
1938.000000	2.412152 
1937.000000	2.411651 
1936.000000	2.411031 
1935.000000	2.410316 
1934.000000	2.409505 
1933.000000	2.408623 
1932.000000	2.407693 
1931.000000	2.406716 
1930.000000	2.405714 
1929.000000	2.404689 
1928.000000	2.403545 
1927.000000	2.402281 
1926.000000	2.400851 
1925.000000	2.399253 
1924.000000	2.397489 
1923.000000	2.395725 
1922.000000	2.393913 
1921.000000	2.392220 
1920.000000	2.390670 
1919.000000	2.389335 
1918.000000	2.388215 
1917.000000	2.387261 
1916.000000	2.386426 
1915.000000	2.385640 
1914.000000	2.384829 
1913.000000	2.383971 
1912.000000	2.383089 
1911.000000	2.382159 
1910.000000	2.381253 
1909.000000	2.380418 
1908.000000	2.379679 
1907.000000	2.378964 
1906.000000	2.378320 
1905.000000	2.377676 
1904.000000	2.376961 
1903.000000	2.376127 
1902.000000	2.375197 
1901.000000	2.374172 
1900.000000	2.373027 
1899.000000	2.371883 
1898.000000	2.370715 
1897.000000	2.369689 
1896.000000	2.368688 
1895.000000	2.367877 
1894.000000	2.367305 
1893.000000	2.366876 
1892.000000	2.366733 
1891.000000	2.366828 
1890.000000	2.367162 
1889.000000	2.367663 
1888.000000	2.368354 
1887.000000	2.369165 
1886.000000	2.369976 
1885.000000	2.370786 
1884.000000	2.371597 
1883.000000	2.372360 
1882.000000	2.373051 
1881.000000	2.373695 
1880.000000	2.374339 
1879.000000	2.374935 
1878.000000	2.375435 
1877.000000	2.375841 
1876.000000	2.376079 
1875.000000	2.376198 
1874.000000	2.376151 
1873.000000	2.376008 
1872.000000	2.375841 
1871.000000	2.375793 
1870.000000	2.375912 
1869.000000	2.376246 
1868.000000	2.376866 
1867.000000	2.377748 
1866.000000	2.378797 
1865.000000	2.379965 
1864.000000	2.381181 
1863.000000	2.382349 
1862.000000	2.383446 
1861.000000	2.384495 
1860.000000	2.385449 
1859.000000	2.386403 
1858.000000	2.387332 
1857.000000	2.388286 
1856.000000	2.389192 
1855.000000	2.390003 
1854.000000	2.390694 
1853.000000	2.391123 
1852.000000	2.391266 
1851.000000	2.391123 
1850.000000	2.390670 
1849.000000	2.390074 
1848.000000	2.389430 
1847.000000	2.388978 
1846.000000	2.388834 
1845.000000	2.389192 
1844.000000	2.390146 
1843.000000	2.391695 
1842.000000	2.393817 
1841.000000	2.396273 
1840.000000	2.398872 
1839.000000	2.401351 
1838.000000	2.403426 
1837.000000	2.405023 
1836.000000	2.406001 
1835.000000	2.406334 
1834.000000	2.406191 
1833.000000	2.405691 
1832.000000	2.405047 
1831.000000	2.404499 
1830.000000	2.404212 
1829.000000	2.404332 
1828.000000	2.404880 
1827.000000	2.405905 
1826.000000	2.407240 
1825.000000	2.408885 
1824.000000	2.410674 
1823.000000	2.412509 
1822.000000	2.414274 
1821.000000	2.415919 
1820.000000	2.417373 
1819.000000	2.418613 
1818.000000	2.419662 
1817.000000	2.420544 
1816.000000	2.421331 
1815.000000	2.422046 
1814.000000	2.422738 
1813.000000	2.423477 
1812.000000	2.424263 
1811.000000	2.425098 
1810.000000	2.425885 
1809.000000	2.426624 
1808.000000	2.427220 
1807.000000	2.427649 
1806.000000	2.427911 
1805.000000	2.427959 
1804.000000	2.427840 
1803.000000	2.427601 
1802.000000	2.427220 
1801.000000	2.426695 
1800.000000	2.426028 
1799.000000	2.425146 
1798.000000	2.424097 
1797.000000	2.422928 
1796.000000	2.421736 
1795.000000	2.420663 
1794.000000	2.419805 
1793.000000	2.419281 
1792.000000	2.419185 
1791.000000	2.419447 
1790.000000	2.420020 
1789.000000	2.420759 
1788.000000	2.421498 
1787.000000	2.422118 
1786.000000	2.422595 
1785.000000	2.422761 
1784.000000	2.422761 
1783.000000	2.422523 
1782.000000	2.422070 
1781.000000	2.421379 
1780.000000	2.420306 
1779.000000	2.418780 
1778.000000	2.416801 
1777.000000	2.414393 
1776.000000	2.411627 
1775.000000	2.408790 
1774.000000	2.406167 
1773.000000	2.404046 
1772.000000	2.402639 
1771.000000	2.402043 
1770.000000	2.402210 
1769.000000	2.402925 
1768.000000	2.403903 
1767.000000	2.404785 
1766.000000	2.405357 
1765.000000	2.405428 
1764.000000	2.404952 
1763.000000	2.403974 
1762.000000	2.402591 
1761.000000	2.400970 
1760.000000	2.399158 
1759.000000	2.397155 
1758.000000	2.394962 
1757.000000	2.392578 
1756.000000	2.389931 
1755.000000	2.386975 
1754.000000	2.383804 
1753.000000	2.380537 
1752.000000	2.377295 
1751.000000	2.374148 
1750.000000	2.371263 
1749.000000	2.368569 
1748.000000	2.366065 
1747.000000	2.363610 
1746.000000	2.361035 
1745.000000	2.358150 
1744.000000	2.354812 
1743.000000	2.350902 
1742.000000	2.346301 
1741.000000	2.341127 
1740.000000	2.335453 
1739.000000	2.329564 
1738.000000	2.323770 
1737.000000	2.318382 
1736.000000	2.313852 
1735.000000	2.310442 
1734.000000	2.308368 
1733.000000	2.307629 
1732.000000	2.308106 
1731.000000	2.309560 
1730.000000	2.311611 
1729.000000	2.313804 
1728.000000	2.315711 
1727.000000	2.316904 
1726.000000	2.317023 
1725.000000	2.315902 
1724.000000	2.313494 
1723.000000	2.309894 
1722.000000	2.305388 
1721.000000	2.300381 
1720.000000	2.295398 
1719.000000	2.290940 
1718.000000	2.287554 
1717.000000	2.285432 
1716.000000	2.284693 
1715.000000	2.285194 
1714.000000	2.286577 
1713.000000	2.288341 
1712.000000	2.289843 
1711.000000	2.290630 
1710.000000	2.290225 
1709.000000	2.288341 
1708.000000	2.284908 
1707.000000	2.280020 
1706.000000	2.273941 
1705.000000	2.267026 
1704.000000	2.259635 
1703.000000	2.252244 
1702.000000	2.245378 
1701.000000	2.239537 
1700.000000	2.235102 
1699.000000	2.232408 
1698.000000	2.231621 
1697.000000	2.232623 
1696.000000	2.235054 
1695.000000	2.238368 
1694.000000	2.241873 
1693.000000	2.244734 
1692.000000	2.246332 
1691.000000	2.246236 
1690.000000	2.244377 
1689.000000	2.240967 
1688.000000	2.236557 
1687.000000	2.231812 
1686.000000	2.227544 
1685.000000	2.224373 
1684.000000	2.222609 
1683.000000	2.222251 
1682.000000	2.223062 
1681.000000	2.224540 
1680.000000	2.226042 
1679.000000	2.227091 
1678.000000	2.227234 
1677.000000	2.226352 
1676.000000	2.224564 
1675.000000	2.222156 
1674.000000	2.219462 
1673.000000	2.216839 
1672.000000	2.214550 
1671.000000	2.212762 
1670.000000	2.211499 
1669.000000	2.210688 
1668.000000	2.210140 
1667.000000	2.209782 
1666.000000	2.209377 
1665.000000	2.208781 
1664.000000	2.207684 
1663.000000	2.205824 
1662.000000	2.202916 
1661.000000	2.198648 
1660.000000	2.192878 
1659.000000	2.185606 
1658.000000	2.177095 
1657.000000	2.167940 
1656.000000	2.158761 
1655.000000	2.150273 
1654.000000	2.143239 
1653.000000	2.138113 
1652.000000	2.135038 
1651.000000	2.133989 
1650.000000	2.134728 
1649.000000	2.136754 
1648.000000	2.139616 
1647.000000	2.142715 
1646.000000	2.145719 
1645.000000	2.148151 
1644.000000	2.149748 
1643.000000	2.150297 
1642.000000	2.149701 
1641.000000	2.147936 
1640.000000	2.145147 
1639.000000	2.141666 
1638.000000	2.137875 
1637.000000	2.134227 
1636.000000	2.131128 
1635.000000	2.128767 
1634.000000	2.127242 
1633.000000	2.126383 
1632.000000	2.125835 
1631.000000	2.125191 
1630.000000	2.123999 
1629.000000	2.121973 
1628.000000	2.118968 
1627.000000	2.114868 
1626.000000	2.109813 
1625.000000	2.103900 
1624.000000	2.097296 
1623.000000	2.090072 
1622.000000	2.082276 
1621.000000	2.074027 
1620.000000	2.065396 
1619.000000	2.056384 
1618.000000	2.047085 
1617.000000	2.037644 
1616.000000	2.028155 
1615.000000	2.018737 
1614.000000	2.009510 
1613.000000	2.000617 
1612.000000	1.992201 
1611.000000	1.984500 
1610.000000	1.977777 
1609.000000	1.972341 
1608.000000	1.968502 
1607.000000	1.966476 
1606.000000	1.966309 
1605.000000	1.967930 
1604.000000	1.971077 
1603.000000	1.975417 
1602.000000	1.980519 
1601.000000	1.985907 
1600.000000	1.991224 
1599.000000	1.996207 
1598.000000	2.000641 
1597.000000	2.004408 
1596.000000	2.007460 
1595.000000	2.009868 
1594.000000	2.011609 
1593.000000	2.012729 
1592.000000	2.013254 
1591.000000	2.013206 
1590.000000	2.012705 
1589.000000	2.011823 
1588.000000	2.010560 
1587.000000	2.008938 
1586.000000	2.006983 
1585.000000	2.004575 
1584.000000	2.001714 
1583.000000	1.998376 
1582.000000	1.994585 
1581.000000	1.990509 
1580.000000	1.986312 
1579.000000	1.982283 
1578.000000	1.978683 
1577.000000	1.975774 
1576.000000	1.973605 
1575.000000	1.972222 
1574.000000	1.971554 
1573.000000	1.971340 
1572.000000	1.971364 
1571.000000	1.971268 
1570.000000	1.970696 
1569.000000	1.969265 
1568.000000	1.966547 
1567.000000	1.962423 
1566.000000	1.956653 
1565.000000	1.949405 
1564.000000	1.940965 
1563.000000	1.932001 
1562.000000	1.923274 
1561.000000	1.915669 
1560.000000	1.909947 
1559.000000	1.906824 
1558.000000	1.906514 
1557.000000	1.908946 
1556.000000	1.913666 
1555.000000	1.919984 
1554.000000	1.926994 
1553.000000	1.933789 
1552.000000	1.939654 
1551.000000	1.944088 
1550.000000	1.946783 
1549.000000	1.947665 
1548.000000	1.946926 
1547.000000	1.945018 
1546.000000	1.942563 
1545.000000	1.940274 
1544.000000	1.939010 
1543.000000	1.939630 
1542.000000	1.942777 
1541.000000	1.948881 
1540.000000	1.958060 
1539.000000	1.970076 
1538.000000	1.984357 
1537.000000	2.000164 
1536.000000	2.016520 
1535.000000	2.032566 
1534.000000	2.047562 
1533.000000	2.060818 
1532.000000	2.072000 
1531.000000	2.081012 
1530.000000	2.087879 
1529.000000	2.092695 
1528.000000	2.095627 
1527.000000	2.097058 
1526.000000	2.097296 
1525.000000	2.096700 
1524.000000	2.095556 
1523.000000	2.094197 
1522.000000	2.092933 
1521.000000	2.091932 
1520.000000	2.091264 
1519.000000	2.090811 
1518.000000	2.090430 
1517.000000	2.089953 
1516.000000	2.088952 
1515.000000	2.087140 
1514.000000	2.084326 
1513.000000	2.080345 
1512.000000	2.075219 
1511.000000	2.068877 
1510.000000	2.061486 
1509.000000	2.052998 
1508.000000	2.043294 
1507.000000	2.031707 
1506.000000	2.017617 
1505.000000	2.000045 
1504.000000	1.978111 
1503.000000	1.951098 
1502.000000	1.918864 
1501.000000	1.881980 
1500.000000	1.841855 
1499.000000	1.800513 
1498.000000	1.760601 
1497.000000	1.724982 
1496.000000	1.696324 
1495.000000	1.676654 
1494.000000	1.667165 
1493.000000	1.668071 
1492.000000	1.678824 
1491.000000	1.697850 
1490.000000	1.723241 
1489.000000	1.752710 
1488.000000	1.784300 
1487.000000	1.815891 
1486.000000	1.846027 
1485.000000	1.873373 
1484.000000	1.897335 
1483.000000	1.917481 
1482.000000	1.933646 
1481.000000	1.946043 
1480.000000	1.954865 
1479.000000	1.960754 
1478.000000	1.964259 
1477.000000	1.965904 
1476.000000	1.966261 
1475.000000	1.965904 
1474.000000	1.965212 
1473.000000	1.964306 
1472.000000	1.963210 
1471.000000	1.961946 
1470.000000	1.960325 
1469.000000	1.958036 
1468.000000	1.954770 
1467.000000	1.950311 
1466.000000	1.944375 
1465.000000	1.936626 
1464.000000	1.926875 
1463.000000	1.915001 
1462.000000	1.901006 
1461.000000	1.884961 
1460.000000	1.867222 
1459.000000	1.848316 
1458.000000	1.828980 
1457.000000	1.810121 
1456.000000	1.792716 
1455.000000	1.777648 
1454.000000	1.765823 
1453.000000	1.758003 
1452.000000	1.754498 
1451.000000	1.755356 
1450.000000	1.760292 
1449.000000	1.768732 
1448.000000	1.779747 
1447.000000	1.792263 
1446.000000	1.805210 
1445.000000	1.817584 
1444.000000	1.828551 
1443.000000	1.837635 
1442.000000	1.844573 
1441.000000	1.849508 
1440.000000	1.852750 
1439.000000	1.854801 
1438.000000	1.856160 
1437.000000	1.857280 
1436.000000	1.858448 
1435.000000	1.859927 
1434.000000	1.861572 
1433.000000	1.863384 
1432.000000	1.865220 
1431.000000	1.866769 
1430.000000	1.867914 
1429.000000	1.868510 
1428.000000	1.868510 
1427.000000	1.867723 
1426.000000	1.866197 
1425.000000	1.863980 
1424.000000	1.861238 
1423.000000	1.858115 
1422.000000	1.854825 
1421.000000	1.851534 
1420.000000	1.848435 
1419.000000	1.845622 
1418.000000	1.842927 
1417.000000	1.840233 
1416.000000	1.837086 
1415.000000	1.833200 
1414.000000	1.828098 
1413.000000	1.821422 
1412.000000	1.813030 
1411.000000	1.802945 
1410.000000	1.791477 
1409.000000	1.779031 
1408.000000	1.766276 
1407.000000	1.753950 
1406.000000	1.742815 
1405.000000	1.733660 
1404.000000	1.726913 
1403.000000	1.722979 
1402.000000	1.721930 
1401.000000	1.723670 
1400.000000	1.727867 
1399.000000	1.734066 
1398.000000	1.741576 
1397.000000	1.749873 
1396.000000	1.758193 
1395.000000	1.765990 
1394.000000	1.772713 
1393.000000	1.778030 
1392.000000	1.781725 
1391.000000	1.783728 
1390.000000	1.784276 
1389.000000	1.783728 
1388.000000	1.782536 
1387.000000	1.781272 
1386.000000	1.780438 
1385.000000	1.780438 
1384.000000	1.781511 
1383.000000	1.783609 
1382.000000	1.786637 
1381.000000	1.790237 
1380.000000	1.794075 
1379.000000	1.797771 
1378.000000	1.801085 
1377.000000	1.803898 
1376.000000	1.806163 
1375.000000	1.807880 
1374.000000	1.809310 
1373.000000	1.810503 
1372.000000	1.811552 
1371.000000	1.812481 
1370.000000	1.813292 
1369.000000	1.813983 
1368.000000	1.814484 
1367.000000	1.814699 
1366.000000	1.814746 
1365.000000	1.814627 
1364.000000	1.814436 
1363.000000	1.814293 
1362.000000	1.814198 
1361.000000	1.814222 
1360.000000	1.814317 
1359.000000	1.814436 
1358.000000	1.814556 
1357.000000	1.814556 
1356.000000	1.814389 
1355.000000	1.814055 
1354.000000	1.813578 
1353.000000	1.812958 
1352.000000	1.812291 
1351.000000	1.811623 
1350.000000	1.810979 
1349.000000	1.810407 
1348.000000	1.809954 
1347.000000	1.809597 
1346.000000	1.809382 
1345.000000	1.809287 
1344.000000	1.809406 
1343.000000	1.809811 
1342.000000	1.810598 
1341.000000	1.811790 
1340.000000	1.813459 
1339.000000	1.815605 
1338.000000	1.818156 
1337.000000	1.821088 
1336.000000	1.824188 
1335.000000	1.827383 
1334.000000	1.830482 
1333.000000	1.833391 
1332.000000	1.836013 
1331.000000	1.838278 
1330.000000	1.840114 
1329.000000	1.841664 
1328.000000	1.842927 
1327.000000	1.843953 
1326.000000	1.844835 
1325.000000	1.845574 
1324.000000	1.846289 
1323.000000	1.846933 
1322.000000	1.847529 
1321.000000	1.848125 
1320.000000	1.848721 
1319.000000	1.849341 
1318.000000	1.850032 
1317.000000	1.850724 
1316.000000	1.851463 
1315.000000	1.852226 
1314.000000	1.852965 
1313.000000	1.853561 
1312.000000	1.854085 
1311.000000	1.854419 
1310.000000	1.854562 
1309.000000	1.854515 
1308.000000	1.854324 
1307.000000	1.854014 
1306.000000	1.853656 
1305.000000	1.853275 
1304.000000	1.852965 
1303.000000	1.852750 
1302.000000	1.852679 
1301.000000	1.852655 
1300.000000	1.852679 
1299.000000	1.852798 
1298.000000	1.852941 
1297.000000	1.853036 
1296.000000	1.853108 
1295.000000	1.853108 
1294.000000	1.853060 
1293.000000	1.852893 
1292.000000	1.852631 
1291.000000	1.852321 
1290.000000	1.851940 
1289.000000	1.851582 
1288.000000	1.851272 
1287.000000	1.850938 
1286.000000	1.850676 
1285.000000	1.850390 
1284.000000	1.850056 
1283.000000	1.849603 
1282.000000	1.848936 
1281.000000	1.847934 
1280.000000	1.846504 
1279.000000	1.844525 
1278.000000	1.841950 
1277.000000	1.838636 
1276.000000	1.834440 
1275.000000	1.829242 
1274.000000	1.822948 
1273.000000	1.815414 
1272.000000	1.806592 
1271.000000	1.796531 
1270.000000	1.785349 
1269.000000	1.773285 
1268.000000	1.760864 
1267.000000	1.748561 
1266.000000	1.737093 
1265.000000	1.727128 
1264.000000	1.719355 
1263.000000	1.714229 
1262.000000	1.712179 
1261.000000	1.713252 
1260.000000	1.717329 
1259.000000	1.724123 
1258.000000	1.732993 
1257.000000	1.743340 
1256.000000	1.754498 
1255.000000	1.765847 
1254.000000	1.776790 
1253.000000	1.786923 
1252.000000	1.795959 
1251.000000	1.803731 
1250.000000	1.810288 
1249.000000	1.815629 
1248.000000	1.819944 
1247.000000	1.823377 
1246.000000	1.826143 
1245.000000	1.828360 
1244.000000	1.830148 
1243.000000	1.831579 
1242.000000	1.832723 
1241.000000	1.833486 
1240.000000	1.833915 
1239.000000	1.833939 
1238.000000	1.833558 
1237.000000	1.832795 
1236.000000	1.831698 
1235.000000	1.830315 
1234.000000	1.828742 
1233.000000	1.827096 
1232.000000	1.825380 
1231.000000	1.823711 
1230.000000	1.822113 
1229.000000	1.820492 
1228.000000	1.818823 
1227.000000	1.817035 
1226.000000	1.815056 
1225.000000	1.812767 
1224.000000	1.810097 
1223.000000	1.807093 
1222.000000	1.803684 
1221.000000	1.799964 
1220.000000	1.795887 
1219.000000	1.791548 
1218.000000	1.786947 
1217.000000	1.782178 
1216.000000	1.777291 
1215.000000	1.772379 
1214.000000	1.767539 
1213.000000	1.762819 
1212.000000	1.758360 
1211.000000	1.754307 
1210.000000	1.750707 
1209.000000	1.747632 
1208.000000	1.745152 
1207.000000	1.743245 
1206.000000	1.741886 
1205.000000	1.741003 
1204.000000	1.740550 
1203.000000	1.740431 
1202.000000	1.740574 
1201.000000	1.740813 
1200.000000	1.741123 
1199.000000	1.741409 
1198.000000	1.741576 
1197.000000	1.741552 
1196.000000	1.741242 
1195.000000	1.740598 
1194.000000	1.739692 
1193.000000	1.738452 
1192.000000	1.737022 
1191.000000	1.735305 
1190.000000	1.733422 
1189.000000	1.731371 
1188.000000	1.729202 
1187.000000	1.726937 
1186.000000	1.724529 
1185.000000	1.722049 
1184.000000	1.719474 
1183.000000	1.716828 
1182.000000	1.714181 
1181.000000	1.711440 
1180.000000	1.708698 
1179.000000	1.705884 
1178.000000	1.703047 
1177.000000	1.700091 
1176.000000	1.697039 
1175.000000	1.693797 
1174.000000	1.690363 
1173.000000	1.686668 
1172.000000	1.682686 
1171.000000	1.678419 
1170.000000	1.673865 
1169.000000	1.669001 
1168.000000	1.663970 
1167.000000	1.658749 
1166.000000	1.653456 
1165.000000	1.648187 
1164.000000	1.643061 
1163.000000	1.638102 
1162.000000	1.633477 
1161.000000	1.629233 
1160.000000	1.625466 
1159.000000	1.622176 
1158.000000	1.619362 
1157.000000	1.617002 
1156.000000	1.614975 
1155.000000	1.613259 
1154.000000	1.611661 
1153.000000	1.610159 
1152.000000	1.608633 
1151.000000	1.607036 
1150.000000	1.605367 
1149.000000	1.603603 
1148.000000	1.601743 
1147.000000	1.599884 
1146.000000	1.597929 
1145.000000	1.595926 
1144.000000	1.593852 
1143.000000	1.591682 
1142.000000	1.589369 
1141.000000	1.586890 
1140.000000	1.584267 
1139.000000	1.581406 
1138.000000	1.578402 
1137.000000	1.575207 
1136.000000	1.571846 
1135.000000	1.568245 
1134.000000	1.564431 
1133.000000	1.560401 
1132.000000	1.556110 
1131.000000	1.551628 
1130.000000	1.546931 
1129.000000	1.542091 
1128.000000	1.537179 
1127.000000	1.532220 
1126.000000	1.527237 
1125.000000	1.522254 
1124.000000	1.517271 
1123.000000	1.512241 
1122.000000	1.507115 
1121.000000	1.501893 
1120.000000	1.496553 
1119.000000	1.491141 
1118.000000	1.485705 
1117.000000	1.480269 
1116.000000	1.474857 
1115.000000	1.469564 
1114.000000	1.464462 
1113.000000	1.459550 
1112.000000	1.454877 
1111.000000	1.450514 
1110.000000	1.446413 
1109.000000	1.442670 
1108.000000	1.439261 
1107.000000	1.436233 
1106.000000	1.433610 
1105.000000	1.431369 
1104.000000	1.429581 
1103.000000	1.428174 
1102.000000	1.427125 
1101.000000	1.426410 
1100.000000	1.425909 
1099.000000	1.425600 
1098.000000	1.425361 
1097.000000	1.425170 
1096.000000	1.424980 
1095.000000	1.424717 
1094.000000	1.424455 
1093.000000	1.424217 
1092.000000	1.424098 
1091.000000	1.424074 
1090.000000	1.424264 
1089.000000	1.424717 
1088.000000	1.425313 
1087.000000	1.426076 
1086.000000	1.426839 
1085.000000	1.427507 
1084.000000	1.428079 
1083.000000	1.428484 
1082.000000	1.428699 
1081.000000	1.428771 
1080.000000	1.428771 
1079.000000	1.428794 
1078.000000	1.428937 
1077.000000	1.429224 
1076.000000	1.429748 
1075.000000	1.430392 
1074.000000	1.431179 
1073.000000	1.432061 
1072.000000	1.432943 
1071.000000	1.433801 
1070.000000	1.434636 
1069.000000	1.435351 
1068.000000	1.435899 
1067.000000	1.436233 
1066.000000	1.436257 
1065.000000	1.435852 
1064.000000	1.434755 
1063.000000	1.432728 
1062.000000	1.429438 
1061.000000	1.424503 
1060.000000	1.417541 
1059.000000	1.408314 
1058.000000	1.396727 
1057.000000	1.382946 
1056.000000	1.367521 
1055.000000	1.351284 
1054.000000	1.335287 
1053.000000	1.320886 
1052.000000	1.309204 
1051.000000	1.301264 
1050.000000	1.297664 
1049.000000	1.298546 
1048.000000	1.303529 
1047.000000	1.311802 
1046.000000	1.322245 
1045.000000	1.333689 
1044.000000	1.344966 
1043.000000	1.355242 
1042.000000	1.363873 
1041.000000	1.370620 
1040.000000	1.375555 
1039.000000	1.378846 
1038.000000	1.380848 
1037.000000	1.381850 
1036.000000	1.382040 
1035.000000	1.381635 
1034.000000	1.380681 
1033.000000	1.379203 
1032.000000	1.377272 
1031.000000	1.374864 
1030.000000	1.372170 
1029.000000	1.369333 
1028.000000	1.366424 
1027.000000	1.363658 
1026.000000	1.361227 
1025.000000	1.359200 
1024.000000	1.357698 
1023.000000	1.356816 
1022.000000	1.356482 
1021.000000	1.356768 
1020.000000	1.357626 
1019.000000	1.358985 
1018.000000	1.360750 
1017.000000	1.362848 
1016.000000	1.365065 
1015.000000	1.367330 
1014.000000	1.369595 
1013.000000	1.371836 
1012.000000	1.374006 
1011.000000	1.376128 
1010.000000	1.378297 
1009.000000	1.380562 
1008.000000	1.382899 
1007.000000	1.385235 
1006.000000	1.387572 
1005.000000	1.389741 
1004.000000	1.391673 
1003.000000	1.393246 
1002.000000	1.394438 
1001.000000	1.395225 
1000.000000	1.395726 
999.000000	 1.395964 
998.000000	 1.396012 
997.000000	 1.395893 
996.000000	 1.395630 
995.000000	 1.395249 
994.000000	 1.394629 
993.000000	 1.393795 
992.000000	 1.392650 
991.000000	 1.391243 
990.000000	 1.389622 
989.000000	 1.387810 
988.000000	 1.385903 
987.000000	 1.384019 
986.000000	 1.382184 
985.000000	 1.380395 
984.000000	 1.378726 
983.000000	 1.377129 
982.000000	 1.375627 
981.000000	 1.374125 
980.000000	 1.372599 
979.000000	 1.370978 
978.000000	 1.369261 
977.000000	 1.367402 
976.000000	 1.365327 
975.000000	 1.363110 
974.000000	 1.360678 
973.000000	 1.358008 
972.000000	 1.355147 
971.000000	 1.352071 
970.000000	 1.348805 
969.000000	 1.345372 
968.000000	 1.341867 
967.000000	 1.338291 
966.000000	 1.334691 
965.000000	 1.331090 
964.000000	 1.327466 
963.000000	 1.323866 
962.000000	 1.320290 
961.000000	 1.316738 
960.000000	 1.313185 
959.000000	 1.309704 
958.000000	 1.306295 
957.000000	 1.302909 
956.000000	 1.299619 
955.000000	 1.296377 
954.000000	 1.293253 
953.000000	 1.290154 
952.000000	 1.287102 
951.000000	 1.284122 
950.000000	 1.281189 
949.000000	 1.278305 
948.000000	 1.275563 
947.000000	 1.272892 
946.000000	 1.270389 
945.000000	 1.268076 
944.000000	 1.265931 
943.000000	 1.263952 
942.000000	 1.262140 
941.000000	 1.260471 
940.000000	 1.258826 
939.000000	 1.257181 
938.000000	 1.255464 
937.000000	 1.253604 
936.000000	 1.251578 
935.000000	 1.249432 
934.000000	 1.247143 
933.000000	 1.244759 
932.000000	 1.242327 
931.000000	 1.239967 
930.000000	 1.237630 
929.000000	 1.235389 
928.000000	 1.233196 
927.000000	 1.231122 
926.000000	 1.229047 
925.000000	 1.226997 
924.000000	 1.224923 
923.000000	 1.222729 
922.000000	 1.220417 
921.000000	 1.217961 
920.000000	 1.215243 
919.000000	 1.212310 
918.000000	 1.209092 
917.000000	 1.205587 
916.000000	 1.201891 
915.000000	 1.198005 
914.000000	 1.194000 
913.000000	 1.189970 
912.000000	 1.186037 
911.000000	 1.182222 
910.000000	 1.178598 
909.000000	 1.175236 
908.000000	 1.172161 
907.000000	 1.169347 
906.000000	 1.166796 
905.000000	 1.164555 
904.000000	 1.162552 
903.000000	 1.160764 
902.000000	 1.159191 
901.000000	 1.157760 
900.000000	 1.156425 
899.000000	 1.155114 
898.000000	 1.153755 
897.000000	 1.152229 
896.000000	 1.150441 
895.000000	 1.148343 
894.000000	 1.145792 
893.000000	 1.142764 
892.000000	 1.139140 
891.000000	 1.134967 
890.000000	 1.130104 
889.000000	 1.124572 
888.000000	 1.118326 
887.000000	 1.111340 
886.000000	 1.103615 
885.000000	 1.095271 
884.000000	 1.086378 
883.000000	 1.077222 
882.000000	 1.068019 
881.000000	 1.059079 
880.000000	 1.050782 
879.000000	 1.043510 
878.000000	 1.037526 
877.000000	 1.033163 
876.000000	 1.030540 
875.000000	 1.029729 
874.000000	 1.030731 
873.000000	 1.033449 
872.000000	 1.037597 
871.000000	 1.042914 
870.000000	 1.049041 
869.000000	 1.055622 
868.000000	 1.062321 
867.000000	 1.068735 
866.000000	 1.074671 
865.000000	 1.079773 
864.000000	 1.084065 
863.000000	 1.087403 
862.000000	 1.089835 
861.000000	 1.091361 
860.000000	 1.092171 
859.000000	 1.092362 
858.000000	 1.092052 
857.000000	 1.091361 
856.000000	 1.090407 
855.000000	 1.089239 
854.000000	 1.087999 
853.000000	 1.086664 
852.000000	 1.085329 
851.000000	 1.083970 
850.000000	 1.082634 
849.000000	 1.081323 
848.000000	 1.079988 
847.000000	 1.078605 
846.000000	 1.077055 
845.000000	 1.075363 
844.000000	 1.073336 
843.000000	 1.070928 
842.000000	 1.067972 
841.000000	 1.064324 
840.000000	 1.059746 
839.000000	 1.054072 
838.000000	 1.046943 
837.000000	 1.038122 
836.000000	 1.027417 
835.000000	 1.014590 
834.000000	 0.999641 
833.000000	 0.982666 
832.000000	 0.963973 
831.000000	 0.944113 
830.000000	 0.923848 
829.000000	 0.904107 
828.000000	 0.885915 
827.000000	 0.870299 
826.000000	 0.858139 
825.000000	 0.850105 
824.000000	 0.846529 
823.000000	 0.847363 
822.000000	 0.852179 
821.000000	 0.860333 
820.000000	 0.870871 
819.000000	 0.882792 
818.000000	 0.895071 
817.000000	 0.906896 
816.000000	 0.917601 
815.000000	 0.926804 
814.000000	 0.934290 
813.000000	 0.940012 
812.000000	 0.944161 
811.000000	 0.946879 
810.000000	 0.948476 
809.000000	 0.949096 
808.000000	 0.949096 
807.000000	 0.948667 
806.000000	 0.947952 
805.000000	 0.947093 
804.000000	 0.946283 
803.000000	 0.945615 
802.000000	 0.945210 
801.000000	 0.945043 
800.000000	 0.945234 
799.000000	 0.945782 
798.000000	 0.946736 
797.000000	 0.947999 
796.000000	 0.949621 
795.000000	 0.951528 
794.000000	 0.953650 
793.000000	 0.955963 
792.000000	 0.958395 
791.000000	 0.960874 
790.000000	 0.963330 
789.000000	 0.965690 
788.000000	 0.967884 
787.000000	 0.969862 
786.000000	 0.971579 
785.000000	 0.973081 
784.000000	 0.974273 
783.000000	 0.975203 
782.000000	 0.975871 
781.000000	 0.976228 
780.000000	 0.976347 
779.000000	 0.976228 
778.000000	 0.975918 
777.000000	 0.975465 
776.000000	 0.974893 
775.000000	 0.974202 
774.000000	 0.973486 
773.000000	 0.972747 
772.000000	 0.971984 
771.000000	 0.971245 
770.000000	 0.970482 
769.000000	 0.969791 
768.000000	 0.969052 
767.000000	 0.968313 
766.000000	 0.967550 
765.000000	 0.966763 
764.000000	 0.965905 
763.000000	 0.964999 
762.000000	 0.964045 
761.000000	 0.963044 
760.000000	 0.961971 
759.000000	 0.960850 
758.000000	 0.959682 
757.000000	 0.958442 
756.000000	 0.957202 
755.000000	 0.955915 
754.000000	 0.954604 
753.000000	 0.953245 
752.000000	 0.951743 
751.000000	 0.950169 
750.000000	 0.948548 
749.000000	 0.946760 
748.000000	 0.944924 
747.000000	 0.943017 
746.000000	 0.941133 
745.000000	 0.939345 
744.000000	 0.937724 
743.000000	 0.936269 
742.000000	 0.934982 
741.000000	 0.933814 
740.000000	 0.932598 
739.000000	 0.931334 
738.000000	 0.929832 
737.000000	 0.928020 
736.000000	 0.925803 
735.000000	 0.923228 
734.000000	 0.920343 
733.000000	 0.917196 
732.000000	 0.913953 
731.000000	 0.910639 
730.000000	 0.907397 
729.000000	 0.904226 
728.000000	 0.901222 
727.000000	 0.898337 
726.000000	 0.895547 
725.000000	 0.892877 
724.000000	 0.890207 
723.000000	 0.887537 
722.000000	 0.884819 
721.000000	 0.882005 
720.000000	 0.879096 
719.000000	 0.876140 
718.000000	 0.873088 
717.000000	 0.870037 
716.000000	 0.866985 
715.000000	 0.864005 
714.000000	 0.861072 
713.000000	 0.858187 
712.000000	 0.855326 
711.000000	 0.852465 
710.000000	 0.849628 
709.000000	 0.846719 
708.000000	 0.843739 
707.000000	 0.840640 
706.000000	 0.837349 
705.000000	 0.833821 
704.000000	 0.830078 
703.000000	 0.826001 
702.000000	 0.821661 
701.000000	 0.816965 
700.000000	 0.811934 
699.000000	 0.806546 
698.000000	 0.800848 
697.000000	 0.794744 
696.000000	 0.788331 
695.000000	 0.781512 
694.000000	 0.774383 
693.000000	 0.767111 
692.000000	 0.759840 
691.000000	 0.752878 
690.000000	 0.746488 
689.000000	 0.740957 
688.000000	 0.736522 
687.000000	 0.733351 
686.000000	 0.731444 
685.000000	 0.730729 
684.000000	 0.730895 
683.000000	 0.731730 
682.000000	 0.732851 
681.000000	 0.733876 
680.000000	 0.734639 
679.000000	 0.734925 
678.000000	 0.734615 
677.000000	 0.733804 
676.000000	 0.732445 
675.000000	 0.730729 
674.000000	 0.728702 
673.000000	 0.726389 
672.000000	 0.723934 
671.000000	 0.721454 
670.000000	 0.718855 
669.000000	 0.716280 
668.000000	 0.713729 
667.000000	 0.711202 
666.000000	 0.708746 
665.000000	 0.706338 
664.000000	 0.704026 
663.000000	 0.701785 
662.000000	 0.699520 
661.000000	 0.697231 
660.000000	 0.694942 
659.000000	 0.692605 
658.000000	 0.690126 
657.000000	 0.687599 
656.000000	 0.684928 
655.000000	 0.682210 
654.000000	 0.679373 
653.000000	 0.676465 
652.000000	 0.673484 
651.000000	 0.670433 
650.000000	 0.667381 
649.000000	 0.664305 
648.000000	 0.661253 
647.000000	 0.658249 
646.000000	 0.655364 
645.000000	 0.652647 
644.000000	 0.650095 
643.000000	 0.647664 
642.000000	 0.645327 
641.000000	 0.643062 
640.000000	 0.640749 
639.000000	 0.638389 
638.000000	 0.635910 
637.000000	 0.633311 
636.000000	 0.630617 
635.000000	 0.627899 
634.000000	 0.625181 
633.000000	 0.622510 
632.000000	 0.619864 
631.000000	 0.617337 
630.000000	 0.614905 
629.000000	 0.612521 
628.000000	 0.610160 
627.000000	 0.607776 
626.000000	 0.605440 
625.000000	 0.603055 
624.000000	 0.600647 
623.000000	 0.598216 
622.000000	 0.595688 
621.000000	 0.592994 
620.000000	 0.590038 
619.000000	 0.586819 
618.000000	 0.583267 
617.000000	 0.579357 
616.000000	 0.574970 
615.000000	 0.570273 
614.000000	 0.565218 
613.000000	 0.559878 
612.000000	 0.554370 
611.000000	 0.548839 
610.000000	 0.543451 
609.000000	 0.538372 
608.000000	 0.533747 
607.000000	 0.529813 
606.000000	 0.526618 
605.000000	 0.524258 
604.000000	 0.522708 
603.000000	 0.521874 
602.000000	 0.521659 
601.000000	 0.521802 
600.000000	 0.522089 
599.000000	 0.522351 
598.000000	 0.522398 
597.000000	 0.522112 
596.000000	 0.521445 
595.000000	 0.520443 
594.000000	 0.519180 
593.000000	 0.517725 
592.000000	 0.516200 
591.000000	 0.514602 
590.000000	 0.513052 
589.000000	 0.511527 
588.000000	 0.510048 
587.000000	 0.508618 
586.000000	 0.507211 
585.000000	 0.505852 
584.000000	 0.504565 
583.000000	 0.503349 
582.000000	 0.502181 
581.000000	 0.501108 
580.000000	 0.500178 
579.000000	 0.499343 
578.000000	 0.498557 
577.000000	 0.497794 
576.000000	 0.497007 
575.000000	 0.496220 
574.000000	 0.495386 
573.000000	 0.494527 
572.000000	 0.493645 
571.000000	 0.492739 
570.000000	 0.491809 
569.000000	 0.490856 
568.000000	 0.489807 
567.000000	 0.488686 
566.000000	 0.487399 
565.000000	 0.485968 
564.000000	 0.484371 
563.000000	 0.482678 
562.000000	 0.480866 
561.000000	 0.479054 
560.000000	 0.477290 
559.000000	 0.475621 
558.000000	 0.474071 
557.000000	 0.472593 
556.000000	 0.471210 
555.000000	 0.469923 
554.000000	 0.468611 
553.000000	 0.467228 
552.000000	 0.465774 
551.000000	 0.464153 
550.000000	 0.462412 
549.000000	 0.460529 
548.000000	 0.458478 
547.000000	 0.456357 
546.000000	 0.454235 
545.000000	 0.452041 
544.000000	 0.449943 
543.000000	 0.447869 
542.000000	 0.445938 
541.000000	 0.444078 
540.000000	 0.442337 
539.000000	 0.440692 
538.000000	 0.439047 
537.000000	 0.437402 
536.000000	 0.435638 
535.000000	 0.433707 
534.000000	 0.431537 
533.000000	 0.429129 
532.000000	 0.426554 
531.000000	 0.423860 
530.000000	 0.421142 
529.000000	 0.418519 
528.000000	 0.416064 
527.000000	 0.413894 
526.000000	 0.412011 
525.000000	 0.410389 
524.000000	 0.408911 
523.000000	 0.407481 
522.000000	 0.405931 
521.000000	 0.404214 
520.000000	 0.402259 
519.000000	 0.400066 
518.000000	 0.397634 
517.000000	 0.394964 
516.000000	 0.392198 
515.000000	 0.389385 
514.000000	 0.386524 
513.000000	 0.383710 
512.000000	 0.380969 
511.000000	 0.378346 
510.000000	 0.375843 
509.000000	 0.373411 
508.000000	 0.371050 
507.000000	 0.368618 
506.000000	 0.366044 
505.000000	 0.363159 
504.000000	 0.359916 
503.000000	 0.356173 
502.000000	 0.352001 
501.000000	 0.347447 
500.000000	 0.342655 
499.000000	 0.337839 
498.000000	 0.333213 
497.000000	 0.328946 
496.000000	 0.325179 
495.000000	 0.321865 
494.000000	 0.318980 
493.000000	 0.316381 
492.000000	 0.313925 
491.000000	 0.311422 
490.000000	 0.308704 
489.000000	 0.305724 
488.000000	 0.302314 
487.000000	 0.298595 
486.000000	 0.294566 
485.000000	 0.290274 
484.000000	 0.285911 
483.000000	 0.281500 
482.000000	 0.277137 
481.000000	 0.272917 
480.000000	 0.268864 
479.000000	 0.265121 
478.000000	 0.261688 
477.000000	 0.258588 
476.000000	 0.255870 
475.000000	 0.253510 
474.000000	 0.251507 
473.000000	 0.249767 
472.000000	 0.248241 
471.000000	 0.246763 
470.000000	 0.245141 
469.000000	 0.243353 
468.000000	 0.241255 
467.000000	 0.238704 
466.000000	 0.235772 
465.000000	 0.232458 
464.000000	 0.228834 
463.000000	 0.224924 
462.000000	 0.220847 
461.000000	 0.216674 
460.000000	 0.212430 
459.000000	 0.208163 
458.000000	 0.203919 
457.000000	 0.199818 
456.000000	 0.195860 
455.000000	 0.192093 
454.000000	 0.188565 
453.000000	 0.185298 
452.000000	 0.182199 
451.000000	 0.179266 
450.000000	 0.176334 
449.000000	 0.173401 
448.000000	 0.170397 
447.000000	 0.167298 
446.000000	 0.164175 
445.000000	 0.161099 
444.000000	 0.158143 
443.000000	 0.155425 
442.000000	 0.152921 
441.000000	 0.150680 
440.000000	 0.148582 
439.000000	 0.146627 
438.000000	 0.144624 
437.000000	 0.142526 
436.000000	 0.140237 
435.000000	 0.137710 
434.000000	 0.134992 
433.000000	 0.132083 
432.000000	 0.128936 
431.000000	 0.125646 
430.000000	 0.122261 
429.000000	 0.118708 
428.000000	 0.115060 
427.000000	 0.111293 
426.000000	 0.107455 
425.000000	 0.103592 
424.000000	 0.099730 
423.000000	 0.095939 
422.000000	 0.092291 
421.000000	 0.088810 
420.000000	 0.085520 
419.000000	 0.082421 
418.000000	 0.079512 
417.000000	 0.076746 
416.000000	 0.074195 
415.000000	 0.071787 
414.000000	 0.069522 
413.000000	 0.067424 
412.000000	 0.065469 
411.000000	 0.063586 
410.000000	 0.061702 
409.000000	 0.059700 
408.000000	 0.057554 
407.000000	 0.055193 
406.000000	 0.052642 
405.000000	 0.049901 
404.000000	 0.047183 
403.000000	 0.044584 
402.000000	 0.042295 
401.000000	 0.040483 
400.000000	 0.039124 
399.000000	 0.038218 
398.000000	 0.037622 
397.000000	 0.037193 
396.000000	 0.036644 
395.000000	 0.035858 
394.000000	 0.034713 
393.000000	 0.033116 
392.000000	 0.031065 
391.000000	 0.028634 
390.000000	 0.025987 
389.000000	 0.023293 
388.000000	 0.020670 
387.000000	 0.018310 
386.000000	 0.016331 
385.000000	 0.014829 
384.000000	 0.013732 
383.000000	 0.013065 
382.000000	 0.012707 
381.000000	 0.012612 
380.000000	 0.012683 
379.000000	 0.012779 
378.000000	 0.012874 
377.000000	 0.012922 
376.000000	 0.012874 
375.000000	 0.012707 
374.000000	 0.012421 
373.000000	 0.011968 
372.000000	 0.011396 
371.000000	 0.010704 
370.000000	 0.009918 

