PE IR       SPECTRUM    SPECTRUM    ASCII       PEDS        1.60        
  -1
C-3CCF~1.ASC
17/03/27
23:34:24.00
17/03/27
23:34:24.00
tln
$C-4040-8_e0127$<ebV0>[-23.3,12.1,10.0,0.0,27,1,0]
370.000000
64









2002,4.07    
MIRTGS : RIGHTBACK : INTERNAL 2
MIR : ON : INTERNAL 2
OPTKBR

0.200000
8
8.000000
FILLER
SINGLE
SPECTRUM
UNLOCKED 256

DOUBLE

COMBINED
1
0
0


1.000000
BACKG


1
0
TRUE
51149
0
LEFT NOT FITTED RIGHT NOT FITTED 0
NONE
NONE
15600
12.000000
4.427000
51148
TRUE
1 0 8 72 0 0 0 0 

15798.010000






#HDR
-1
-1
#GR
CM-1
EGY
0.00002384185791015625
0.0
5000.000000
-1.000000
4631
8
2.459764
0.008606
#DATA
5000.000000	0.766658 
4999.000000	0.767230 
4998.000000	0.767850 
4997.000000	0.768518 
4996.000000	0.769186 
4995.000000	0.769877 
4994.000000	0.770521 
4993.000000	0.771045 
4992.000000	0.771403 
4991.000000	0.771617 
4990.000000	0.771641 
4989.000000	0.771450 
4988.000000	0.771093 
4987.000000	0.770640 
4986.000000	0.770163 
4985.000000	0.769758 
4984.000000	0.769519 
4983.000000	0.769519 
4982.000000	0.769805 
4981.000000	0.770330 
4980.000000	0.771141 
4979.000000	0.772118 
4978.000000	0.773191 
4977.000000	0.774264 
4976.000000	0.775241 
4975.000000	0.776124 
4974.000000	0.776886 
4973.000000	0.777506 
4972.000000	0.778079 
4971.000000	0.778532 
4970.000000	0.778985 
4969.000000	0.779390 
4968.000000	0.779771 
4967.000000	0.780177 
4966.000000	0.780558 
4965.000000	0.780987 
4964.000000	0.781464 
4963.000000	0.782012 
4962.000000	0.782656 
4961.000000	0.783348 
4960.000000	0.784039 
4959.000000	0.784730 
4958.000000	0.785350 
4957.000000	0.785875 
4956.000000	0.786280 
4955.000000	0.786638 
4954.000000	0.787019 
4953.000000	0.787401 
4952.000000	0.787901 
4951.000000	0.788426 
4950.000000	0.789070 
4949.000000	0.789761 
4948.000000	0.790429 
4947.000000	0.791049 
4946.000000	0.791549 
4945.000000	0.791883 
4944.000000	0.792050 
4943.000000	0.792002 
4942.000000	0.791764 
4941.000000	0.791478 
4940.000000	0.791049 
4939.000000	0.790596 
4938.000000	0.790166 
4937.000000	0.789809 
4936.000000	0.789499 
4935.000000	0.789308 
4934.000000	0.789213 
4933.000000	0.789260 
4932.000000	0.789403 
4931.000000	0.789666 
4930.000000	0.790023 
4929.000000	0.790476 
4928.000000	0.791001 
4927.000000	0.791621 
4926.000000	0.792264 
4925.000000	0.792956 
4924.000000	0.793623 
4923.000000	0.794243 
4922.000000	0.794792 
4921.000000	0.795173 
4920.000000	0.795507 
4919.000000	0.795722 
4918.000000	0.795865 
4917.000000	0.795984 
4916.000000	0.796151 
4915.000000	0.796413 
4914.000000	0.796747 
4913.000000	0.797224 
4912.000000	0.797796 
4911.000000	0.798487 
4910.000000	0.799250 
4909.000000	0.800061 
4908.000000	0.800871 
4907.000000	0.801634 
4906.000000	0.802206 
4905.000000	0.802564 
4904.000000	0.802588 
4903.000000	0.802302 
4902.000000	0.801706 
4901.000000	0.800871 
4900.000000	0.799989 
4899.000000	0.799179 
4898.000000	0.798583 
4897.000000	0.798392 
4896.000000	0.798678 
4895.000000	0.799393 
4894.000000	0.800514 
4893.000000	0.801920 
4892.000000	0.803518 
4891.000000	0.805211 
4890.000000	0.806879 
4889.000000	0.808525 
4888.000000	0.810098 
4887.000000	0.811672 
4886.000000	0.813198 
4885.000000	0.814628 
4884.000000	0.815939 
4883.000000	0.817084 
4882.000000	0.818037 
4881.000000	0.818777 
4880.000000	0.819325 
4879.000000	0.819754 
4878.000000	0.820112 
4877.000000	0.820469 
4876.000000	0.820875 
4875.000000	0.821352 
4874.000000	0.821852 
4873.000000	0.822353 
4872.000000	0.822806 
4871.000000	0.823116 
4870.000000	0.823283 
4869.000000	0.823283 
4868.000000	0.823068 
4867.000000	0.822758 
4866.000000	0.822424 
4865.000000	0.822091 
4864.000000	0.821876 
4863.000000	0.821781 
4862.000000	0.821876 
4861.000000	0.822162 
4860.000000	0.822639 
4859.000000	0.823283 
4858.000000	0.824046 
4857.000000	0.824856 
4856.000000	0.825667 
4855.000000	0.826454 
4854.000000	0.827217 
4853.000000	0.827932 
4852.000000	0.828599 
4851.000000	0.829219 
4850.000000	0.829815 
4849.000000	0.830411 
4848.000000	0.831031 
4847.000000	0.831651 
4846.000000	0.832247 
4845.000000	0.832939 
4844.000000	0.833678 
4843.000000	0.834417 
4842.000000	0.835204 
4841.000000	0.836038 
4840.000000	0.836920 
4839.000000	0.837874 
4838.000000	0.838899 
4837.000000	0.840020 
4836.000000	0.841212 
4835.000000	0.842452 
4834.000000	0.843739 
4833.000000	0.845026 
4832.000000	0.846219 
4831.000000	0.847244 
4830.000000	0.848031 
4829.000000	0.848627 
4828.000000	0.849008 
4827.000000	0.849223 
4826.000000	0.849366 
4825.000000	0.849580 
4824.000000	0.849843 
4823.000000	0.850296 
4822.000000	0.850892 
4821.000000	0.851655 
4820.000000	0.852465 
4819.000000	0.853276 
4818.000000	0.854039 
4817.000000	0.854682 
4816.000000	0.855183 
4815.000000	0.855517 
4814.000000	0.855779 
4813.000000	0.855994 
4812.000000	0.856184 
4811.000000	0.856423 
4810.000000	0.856709 
4809.000000	0.857090 
4808.000000	0.857543 
4807.000000	0.858116 
4806.000000	0.858688 
4805.000000	0.859332 
4804.000000	0.860047 
4803.000000	0.860786 
4802.000000	0.861597 
4801.000000	0.862431 
4800.000000	0.863313 
4799.000000	0.864195 
4798.000000	0.865006 
4797.000000	0.865817 
4796.000000	0.866556 
4795.000000	0.867176 
4794.000000	0.867748 
4793.000000	0.868248 
4792.000000	0.868701 
4791.000000	0.869202 
4790.000000	0.869727 
4789.000000	0.870347 
4788.000000	0.871014 
4787.000000	0.871801 
4786.000000	0.872588 
4785.000000	0.873374 
4784.000000	0.874066 
4783.000000	0.874710 
4782.000000	0.875282 
4781.000000	0.875782 
4780.000000	0.876259 
4779.000000	0.876665 
4778.000000	0.877141 
4777.000000	0.877642 
4776.000000	0.878238 
4775.000000	0.878906 
4774.000000	0.879645 
4773.000000	0.880384 
4772.000000	0.881171 
4771.000000	0.881910 
4770.000000	0.882649 
4769.000000	0.883316 
4768.000000	0.883984 
4767.000000	0.884628 
4766.000000	0.885248 
4765.000000	0.885891 
4764.000000	0.886511 
4763.000000	0.887155 
4762.000000	0.887799 
4761.000000	0.888466 
4760.000000	0.889110 
4759.000000	0.889754 
4758.000000	0.890350 
4757.000000	0.890898 
4756.000000	0.891399 
4755.000000	0.891804 
4754.000000	0.892090 
4753.000000	0.892305 
4752.000000	0.892376 
4751.000000	0.892376 
4750.000000	0.892257 
4749.000000	0.892114 
4748.000000	0.891900 
4747.000000	0.891709 
4746.000000	0.891494 
4745.000000	0.891351 
4744.000000	0.891256 
4743.000000	0.891232 
4742.000000	0.891304 
4741.000000	0.891447 
4740.000000	0.891661 
4739.000000	0.892019 
4738.000000	0.892519 
4737.000000	0.893139 
4736.000000	0.893926 
4735.000000	0.894808 
4734.000000	0.895833 
4733.000000	0.896811 
4732.000000	0.897741 
4731.000000	0.898599 
4730.000000	0.899291 
4729.000000	0.899815 
4728.000000	0.900149 
4727.000000	0.900340 
4726.000000	0.900411 
4725.000000	0.900435 
4724.000000	0.900435 
4723.000000	0.900363 
4722.000000	0.900268 
4721.000000	0.900101 
4720.000000	0.899934 
4719.000000	0.899744 
4718.000000	0.899577 
4717.000000	0.899457 
4716.000000	0.899434 
4715.000000	0.899577 
4714.000000	0.899791 
4713.000000	0.900101 
4712.000000	0.900506 
4711.000000	0.900912 
4710.000000	0.901317 
4709.000000	0.901722 
4708.000000	0.901985 
4707.000000	0.902199 
4706.000000	0.902366 
4705.000000	0.902485 
4704.000000	0.902557 
4703.000000	0.902605 
4702.000000	0.902628 
4701.000000	0.902700 
4700.000000	0.902819 
4699.000000	0.903081 
4698.000000	0.903439 
4697.000000	0.903964 
4696.000000	0.904560 
4695.000000	0.905227 
4694.000000	0.905942 
4693.000000	0.906610 
4692.000000	0.907230 
4691.000000	0.907731 
4690.000000	0.908112 
4689.000000	0.908398 
4688.000000	0.908565 
4687.000000	0.908637 
4686.000000	0.908637 
4685.000000	0.908613 
4684.000000	0.908589 
4683.000000	0.908517 
4682.000000	0.908446 
4681.000000	0.908398 
4680.000000	0.908422 
4679.000000	0.908541 
4678.000000	0.908732 
4677.000000	0.908994 
4676.000000	0.909280 
4675.000000	0.909543 
4674.000000	0.909757 
4673.000000	0.909852 
4672.000000	0.909852 
4671.000000	0.909709 
4670.000000	0.909495 
4669.000000	0.909209 
4668.000000	0.908899 
4667.000000	0.908589 
4666.000000	0.908350 
4665.000000	0.908160 
4664.000000	0.907993 
4663.000000	0.907945 
4662.000000	0.907969 
4661.000000	0.908088 
4660.000000	0.908350 
4659.000000	0.908803 
4658.000000	0.909399 
4657.000000	0.910091 
4656.000000	0.910806 
4655.000000	0.911521 
4654.000000	0.912165 
4653.000000	0.912666 
4652.000000	0.913000 
4651.000000	0.913143 
4650.000000	0.913190 
4649.000000	0.913119 
4648.000000	0.913023 
4647.000000	0.912928 
4646.000000	0.912904 
4645.000000	0.912928 
4644.000000	0.913095 
4643.000000	0.913405 
4642.000000	0.913834 
4641.000000	0.914406 
4640.000000	0.915050 
4639.000000	0.915765 
4638.000000	0.916481 
4637.000000	0.917172 
4636.000000	0.917768 
4635.000000	0.918316 
4634.000000	0.918793 
4633.000000	0.919198 
4632.000000	0.919580 
4631.000000	0.919985 
4630.000000	0.920391 
4629.000000	0.920772 
4628.000000	0.921130 
4627.000000	0.921463 
4626.000000	0.921773 
4625.000000	0.922083 
4624.000000	0.922441 
4623.000000	0.922918 
4622.000000	0.923514 
4621.000000	0.924229 
4620.000000	0.925087 
4619.000000	0.925993 
4618.000000	0.926947 
4617.000000	0.927829 
4616.000000	0.928544 
4615.000000	0.929069 
4614.000000	0.929379 
4613.000000	0.929474 
4612.000000	0.929427 
4611.000000	0.929260 
4610.000000	0.929045 
4609.000000	0.928807 
4608.000000	0.928640 
4607.000000	0.928568 
4606.000000	0.928664 
4605.000000	0.928950 
4604.000000	0.929450 
4603.000000	0.930142 
4602.000000	0.931048 
4601.000000	0.932097 
4600.000000	0.933289 
4599.000000	0.934505 
4598.000000	0.935721 
4597.000000	0.936841 
4596.000000	0.937843 
4595.000000	0.938701 
4594.000000	0.939416 
4593.000000	0.940012 
4592.000000	0.940465 
4591.000000	0.940847 
4590.000000	0.941205 
4589.000000	0.941491 
4588.000000	0.941801 
4587.000000	0.941991 
4586.000000	0.942134 
4585.000000	0.942230 
4584.000000	0.942230 
4583.000000	0.942230 
4582.000000	0.942254 
4581.000000	0.942325 
4580.000000	0.942468 
4579.000000	0.942707 
4578.000000	0.943112 
4577.000000	0.943613 
4576.000000	0.944232 
4575.000000	0.944995 
4574.000000	0.945878 
4573.000000	0.946903 
4572.000000	0.948047 
4571.000000	0.949287 
4570.000000	0.950551 
4569.000000	0.951766 
4568.000000	0.952863 
4567.000000	0.953793 
4566.000000	0.954508 
4565.000000	0.954985 
4564.000000	0.955271 
4563.000000	0.955438 
4562.000000	0.955510 
4561.000000	0.955653 
4560.000000	0.955820 
4559.000000	0.956082 
4558.000000	0.956439 
4557.000000	0.956964 
4556.000000	0.957560 
4555.000000	0.958204 
4554.000000	0.958871 
4553.000000	0.959444 
4552.000000	0.959968 
4551.000000	0.960373 
4550.000000	0.960659 
4549.000000	0.960826 
4548.000000	0.960946 
4547.000000	0.961112 
4546.000000	0.961446 
4545.000000	0.961971 
4544.000000	0.962829 
4543.000000	0.964045 
4542.000000	0.965571 
4541.000000	0.967383 
4540.000000	0.969386 
4539.000000	0.971484 
4538.000000	0.973582 
4537.000000	0.975608 
4536.000000	0.977468 
4535.000000	0.979113 
4534.000000	0.980424 
4533.000000	0.981426 
4532.000000	0.982069 
4531.000000	0.982356 
4530.000000	0.982379 
4529.000000	0.982236 
4528.000000	0.982022 
4527.000000	0.981903 
4526.000000	0.981950 
4525.000000	0.982213 
4524.000000	0.982713 
4523.000000	0.983428 
4522.000000	0.984263 
4521.000000	0.985050 
4520.000000	0.985670 
4519.000000	0.986123 
4518.000000	0.986385 
4517.000000	0.986456 
4516.000000	0.986409 
4515.000000	0.986337 
4514.000000	0.986266 
4513.000000	0.986289 
4512.000000	0.986409 
4511.000000	0.986647 
4510.000000	0.986981 
4509.000000	0.987362 
4508.000000	0.987863 
4507.000000	0.988388 
4506.000000	0.989007 
4505.000000	0.989723 
4504.000000	0.990462 
4503.000000	0.991296 
4502.000000	0.992083 
4501.000000	0.992751 
4500.000000	0.993251 
4499.000000	0.993490 
4498.000000	0.993442 
4497.000000	0.993084 
4496.000000	0.992488 
4495.000000	0.991749 
4494.000000	0.991010 
4493.000000	0.990438 
4492.000000	0.990152 
4491.000000	0.990223 
4490.000000	0.990676 
4489.000000	0.991487 
4488.000000	0.992560 
4487.000000	0.993752 
4486.000000	0.994873 
4485.000000	0.995802 
4484.000000	0.996398 
4483.000000	0.996613 
4482.000000	0.996494 
4481.000000	0.996088 
4480.000000	0.995445 
4479.000000	0.994825 
4478.000000	0.994372 
4477.000000	0.994157 
4476.000000	0.994253 
4475.000000	0.994658 
4474.000000	0.995278 
4473.000000	0.995945 
4472.000000	0.996565 
4471.000000	0.996947 
4470.000000	0.997066 
4469.000000	0.996851 
4468.000000	0.996375 
4467.000000	0.995659 
4466.000000	0.994825 
4465.000000	0.993943 
4464.000000	0.993108 
4463.000000	0.992321 
4462.000000	0.991606 
4461.000000	0.991058 
4460.000000	0.990581 
4459.000000	0.990247 
4458.000000	0.990056 
4457.000000	0.990056 
4456.000000	0.990200 
4455.000000	0.990557 
4454.000000	0.991082 
4453.000000	0.991725 
4452.000000	0.992417 
4451.000000	0.993084 
4450.000000	0.993657 
4449.000000	0.994086 
4448.000000	0.994300 
4447.000000	0.994372 
4446.000000	0.994277 
4445.000000	0.994086 
4444.000000	0.993847 
4443.000000	0.993537 
4442.000000	0.993204 
4441.000000	0.992703 
4440.000000	0.991940 
4439.000000	0.990891 
4438.000000	0.989556 
4437.000000	0.988030 
4436.000000	0.986456 
4435.000000	0.984907 
4434.000000	0.983452 
4433.000000	0.982189 
4432.000000	0.981211 
4431.000000	0.980424 
4430.000000	0.979924 
4429.000000	0.979757 
4428.000000	0.979804 
4427.000000	0.979971 
4426.000000	0.980091 
4425.000000	0.980186 
4424.000000	0.980091 
4423.000000	0.979685 
4422.000000	0.978851 
4421.000000	0.977706 
4420.000000	0.976395 
4419.000000	0.975084 
4418.000000	0.973963 
4417.000000	0.973153 
4416.000000	0.972604 
4415.000000	0.972104 
4414.000000	0.971484 
4413.000000	0.970602 
4412.000000	0.969600 
4411.000000	0.968766 
4410.000000	0.968599 
4409.000000	0.969409 
4408.000000	0.971674 
4407.000000	0.975346 
4406.000000	0.980520 
4405.000000	0.987339 
4404.000000	0.996160 
4403.000000	1.007676 
4402.000000	1.022768 
4401.000000	1.042222 
4400.000000	1.066374 
4399.000000	1.094722 
4398.000000	1.125693 
4397.000000	1.156663 
4396.000000	1.184415 
4395.000000	1.205706 
4394.000000	1.217985 
4393.000000	1.220083 
4392.000000	1.212453 
4391.000000	1.197242 
4390.000000	1.177382 
4389.000000	1.156091 
4388.000000	1.136112 
4387.000000	1.118993 
4386.000000	1.105237 
4385.000000	1.094150 
4384.000000	1.084709 
4383.000000	1.075744 
4382.000000	1.066565 
4381.000000	1.057052 
4380.000000	1.047515 
4379.000000	1.038694 
4378.000000	1.031303 
4377.000000	1.025915 
4376.000000	1.022458 
4375.000000	1.020741 
4374.000000	1.020312 
4373.000000	1.020574 
4372.000000	1.021027 
4371.000000	1.021456 
4370.000000	1.021909 
4369.000000	1.022505 
4368.000000	1.023316 
4367.000000	1.024436 
4366.000000	1.025938 
4365.000000	1.027846 
4364.000000	1.030063 
4363.000000	1.032519 
4362.000000	1.035237 
4361.000000	1.038122 
4360.000000	1.041078 
4359.000000	1.043939 
4358.000000	1.046538 
4357.000000	1.048803 
4356.000000	1.050710 
4355.000000	1.052236 
4354.000000	1.053333 
4353.000000	1.054143 
4352.000000	1.054716 
4351.000000	1.055145 
4350.000000	1.055479 
4349.000000	1.055765 
4348.000000	1.056146 
4347.000000	1.056575 
4346.000000	1.057124 
4345.000000	1.057863 
4344.000000	1.058769 
4343.000000	1.059818 
4342.000000	1.061034 
4341.000000	1.062297 
4340.000000	1.063585 
4339.000000	1.064825 
4338.000000	1.065945 
4337.000000	1.066923 
4336.000000	1.067757 
4335.000000	1.068520 
4334.000000	1.069259 
4333.000000	1.070070 
4332.000000	1.071000 
4331.000000	1.072072 
4330.000000	1.073312 
4329.000000	1.074695 
4328.000000	1.076221 
4327.000000	1.077771 
4326.000000	1.079297 
4325.000000	1.080751 
4324.000000	1.082015 
4323.000000	1.083111 
4322.000000	1.084017 
4321.000000	1.084804 
4320.000000	1.085495 
4319.000000	1.086187 
4318.000000	1.086950 
4317.000000	1.087808 
4316.000000	1.088833 
4315.000000	1.090002 
4314.000000	1.091313 
4313.000000	1.092720 
4312.000000	1.094198 
4311.000000	1.095676 
4310.000000	1.097083 
4309.000000	1.098442 
4308.000000	1.099753 
4307.000000	1.100945 
4306.000000	1.102089 
4305.000000	1.103210 
4304.000000	1.104354 
4303.000000	1.105475 
4302.000000	1.106667 
4301.000000	1.107859 
4300.000000	1.109075 
4299.000000	1.110315 
4298.000000	1.111578 
4297.000000	1.112890 
4296.000000	1.114201 
4295.000000	1.115536 
4294.000000	1.116824 
4293.000000	1.118087 
4292.000000	1.119256 
4291.000000	1.120281 
4290.000000	1.121139 
4289.000000	1.121878 
4288.000000	1.122474 
4287.000000	1.122999 
4286.000000	1.123523 
4285.000000	1.124143 
4284.000000	1.124906 
4283.000000	1.125836 
4282.000000	1.126933 
4281.000000	1.128172 
4280.000000	1.129508 
4279.000000	1.130867 
4278.000000	1.132178 
4277.000000	1.133489 
4276.000000	1.134800 
4275.000000	1.136064 
4274.000000	1.137471 
4273.000000	1.138949 
4272.000000	1.140499 
4271.000000	1.142120 
4270.000000	1.143717 
4269.000000	1.145243 
4268.000000	1.146554 
4267.000000	1.147580 
4266.000000	1.148343 
4265.000000	1.148819 
4264.000000	1.149058 
4263.000000	1.149177 
4262.000000	1.149296 
4261.000000	1.149535 
4260.000000	1.150035 
4259.000000	1.150774 
4258.000000	1.151704 
4257.000000	1.152849 
4256.000000	1.154088 
4255.000000	1.155304 
4254.000000	1.156401 
4253.000000	1.157355 
4252.000000	1.158070 
4251.000000	1.158618 
4250.000000	1.159048 
4249.000000	1.159429 
4248.000000	1.159858 
4247.000000	1.160311 
4246.000000	1.160860 
4245.000000	1.161623 
4244.000000	1.162505 
4243.000000	1.163530 
4242.000000	1.164627 
4241.000000	1.165795 
4240.000000	1.166939 
4239.000000	1.168060 
4238.000000	1.169109 
4237.000000	1.170086 
4236.000000	1.170945 
4235.000000	1.171660 
4234.000000	1.172184 
4233.000000	1.172566 
4232.000000	1.172780 
4231.000000	1.172804 
4230.000000	1.172780 
4229.000000	1.172685 
4228.000000	1.172614 
4227.000000	1.172590 
4226.000000	1.172685 
4225.000000	1.172947 
4224.000000	1.173329 
4223.000000	1.173806 
4222.000000	1.174402 
4221.000000	1.174998 
4220.000000	1.175522 
4219.000000	1.175999 
4218.000000	1.176381 
4217.000000	1.176667 
4216.000000	1.176857 
4215.000000	1.177048 
4214.000000	1.177287 
4213.000000	1.177597 
4212.000000	1.178002 
4211.000000	1.178598 
4210.000000	1.179337 
4209.000000	1.180267 
4208.000000	1.181316 
4207.000000	1.182460 
4206.000000	1.183581 
4205.000000	1.184654 
4204.000000	1.185631 
4203.000000	1.186370 
4202.000000	1.186871 
4201.000000	1.187181 
4200.000000	1.187348 
4199.000000	1.187396 
4198.000000	1.187443 
4197.000000	1.187586 
4196.000000	1.187992 
4195.000000	1.188731 
4194.000000	1.189947 
4193.000000	1.191639 
4192.000000	1.193809 
4191.000000	1.196336 
4190.000000	1.199030 
4189.000000	1.201653 
4188.000000	1.203870 
4187.000000	1.205563 
4186.000000	1.206469 
4185.000000	1.206517 
4184.000000	1.205778 
4183.000000	1.204371 
4182.000000	1.202535 
4181.000000	1.200580 
4180.000000	1.198840 
4179.000000	1.197552 
4178.000000	1.196908 
4177.000000	1.196956 
4176.000000	1.197743 
4175.000000	1.199102 
4174.000000	1.200938 
4173.000000	1.203060 
4172.000000	1.205325 
4171.000000	1.207542 
4170.000000	1.209616 
4169.000000	1.211404 
4168.000000	1.212906 
4167.000000	1.214027 
4166.000000	1.214838 
4165.000000	1.215338 
4164.000000	1.215505 
4163.000000	1.215434 
4162.000000	1.215243 
4161.000000	1.214957 
4160.000000	1.214742 
4159.000000	1.214599 
4158.000000	1.214623 
4157.000000	1.214838 
4156.000000	1.215267 
4155.000000	1.215815 
4154.000000	1.216411 
4153.000000	1.217079 
4152.000000	1.217770 
4151.000000	1.218366 
4150.000000	1.218962 
4149.000000	1.219511 
4148.000000	1.220059 
4147.000000	1.220607 
4146.000000	1.221203 
4145.000000	1.221871 
4144.000000	1.222610 
4143.000000	1.223468 
4142.000000	1.224422 
4141.000000	1.225376 
4140.000000	1.226353 
4139.000000	1.227211 
4138.000000	1.227998 
4137.000000	1.228594 
4136.000000	1.229047 
4135.000000	1.229381 
4134.000000	1.229619 
4133.000000	1.229763 
4132.000000	1.229906 
4131.000000	1.230025 
4130.000000	1.230216 
4129.000000	1.230430 
4128.000000	1.230740 
4127.000000	1.231145 
4126.000000	1.231718 
4125.000000	1.232433 
4124.000000	1.233386 
4123.000000	1.234579 
4122.000000	1.236009 
4121.000000	1.237630 
4120.000000	1.239371 
4119.000000	1.241183 
4118.000000	1.242947 
4117.000000	1.244568 
4116.000000	1.246094 
4115.000000	1.247453 
4114.000000	1.248669 
4113.000000	1.249742 
4112.000000	1.250791 
4111.000000	1.251840 
4110.000000	1.252937 
4109.000000	1.254105 
4108.000000	1.255393 
4107.000000	1.256752 
4106.000000	1.258111 
4105.000000	1.259493 
4104.000000	1.260900 
4103.000000	1.262235 
4102.000000	1.263451 
4101.000000	1.264524 
4100.000000	1.265454 
4099.000000	1.266217 
4098.000000	1.266837 
4097.000000	1.267385 
4096.000000	1.267838 
4095.000000	1.268315 
4094.000000	1.268887 
4093.000000	1.269578 
4092.000000	1.270461 
4091.000000	1.271462 
4090.000000	1.272606 
4089.000000	1.273846 
4088.000000	1.275110 
4087.000000	1.276397 
4086.000000	1.277685 
4085.000000	1.278901 
4084.000000	1.280069 
4083.000000	1.281213 
4082.000000	1.282358 
4081.000000	1.283502 
4080.000000	1.284694 
4079.000000	1.285958 
4078.000000	1.287269 
4077.000000	1.288628 
4076.000000	1.290035 
4075.000000	1.291489 
4074.000000	1.293015 
4073.000000	1.294565 
4072.000000	1.296138 
4071.000000	1.297760 
4070.000000	1.299428 
4069.000000	1.301074 
4068.000000	1.302719 
4067.000000	1.304340 
4066.000000	1.305913 
4065.000000	1.307439 
4064.000000	1.308965 
4063.000000	1.310467 
4062.000000	1.311993 
4061.000000	1.313543 
4060.000000	1.315093 
4059.000000	1.316690 
4058.000000	1.318311 
4057.000000	1.319885 
4056.000000	1.321411 
4055.000000	1.322865 
4054.000000	1.324224 
4053.000000	1.325464 
4052.000000	1.326680 
4051.000000	1.327919 
4050.000000	1.329207 
4049.000000	1.330637 
4048.000000	1.332235 
4047.000000	1.333975 
4046.000000	1.335811 
4045.000000	1.337695 
4044.000000	1.339530 
4043.000000	1.341199 
4042.000000	1.342701 
4041.000000	1.343989 
4040.000000	1.345109 
4039.000000	1.346087 
4038.000000	1.346945 
4037.000000	1.347851 
4036.000000	1.348805 
4035.000000	1.349925 
4034.000000	1.351165 
4033.000000	1.352620 
4032.000000	1.354217 
4031.000000	1.355910 
4030.000000	1.357626 
4029.000000	1.359319 
4028.000000	1.360845 
4027.000000	1.362204 
4026.000000	1.363301 
4025.000000	1.364183 
4024.000000	1.364827 
4023.000000	1.365399 
4022.000000	1.365923 
4021.000000	1.366496 
4020.000000	1.367211 
4019.000000	1.368093 
4018.000000	1.369190 
4017.000000	1.370429 
4016.000000	1.371836 
4015.000000	1.373314 
4014.000000	1.374769 
4013.000000	1.376175 
4012.000000	1.377439 
4011.000000	1.378536 
4010.000000	1.379418 
4009.000000	1.380085 
4008.000000	1.380515 
4007.000000	1.380801 
4006.000000	1.380944 
4005.000000	1.381087 
4004.000000	1.381254 
4003.000000	1.381516 
4002.000000	1.381921 
4001.000000	1.382541 
4000.000000	1.383328 
3999.000000	1.384282 
3998.000000	1.385354 
3997.000000	1.386475 
3996.000000	1.387619 
3995.000000	1.388740 
3994.000000	1.389789 
3993.000000	1.390767 
3992.000000	1.391601 
3991.000000	1.392340 
3990.000000	1.392912 
3989.000000	1.393413 
3988.000000	1.393842 
3987.000000	1.394200 
3986.000000	1.394534 
3985.000000	1.394891 
3984.000000	1.395273 
3983.000000	1.395630 
3982.000000	1.395988 
3981.000000	1.396298 
3980.000000	1.396584 
3979.000000	1.396846 
3978.000000	1.397085 
3977.000000	1.397418 
3976.000000	1.397895 
3975.000000	1.398539 
3974.000000	1.399374 
3973.000000	1.400351 
3972.000000	1.401376 
3971.000000	1.402449 
3970.000000	1.403427 
3969.000000	1.404237 
3968.000000	1.404929 
3967.000000	1.405429 
3966.000000	1.405811 
3965.000000	1.406192 
3964.000000	1.406550 
3963.000000	1.406955 
3962.000000	1.407361 
3961.000000	1.407766 
3960.000000	1.408147 
3959.000000	1.408433 
3958.000000	1.408648 
3957.000000	1.408767 
3956.000000	1.408815 
3955.000000	1.408791 
3954.000000	1.408767 
3953.000000	1.408767 
3952.000000	1.408791 
3951.000000	1.408863 
3950.000000	1.409029 
3949.000000	1.409268 
3948.000000	1.409673 
3947.000000	1.410174 
3946.000000	1.410841 
3945.000000	1.411652 
3944.000000	1.412558 
3943.000000	1.413512 
3942.000000	1.414465 
3941.000000	1.415324 
3940.000000	1.415944 
3939.000000	1.416349 
3938.000000	1.416540 
3937.000000	1.416563 
3936.000000	1.416563 
3935.000000	1.416540 
3934.000000	1.416611 
3933.000000	1.416802 
3932.000000	1.417088 
3931.000000	1.417398 
3930.000000	1.417636 
3929.000000	1.417756 
3928.000000	1.417636 
3927.000000	1.417303 
3926.000000	1.416802 
3925.000000	1.416182 
3924.000000	1.415562 
3923.000000	1.415085 
3922.000000	1.414871 
3921.000000	1.414918 
3920.000000	1.415324 
3919.000000	1.416063 
3918.000000	1.417064 
3917.000000	1.418352 
3916.000000	1.419734 
3915.000000	1.421189 
3914.000000	1.422548 
3913.000000	1.423764 
3912.000000	1.424765 
3911.000000	1.425457 
3910.000000	1.425790 
3909.000000	1.425719 
3908.000000	1.425361 
3907.000000	1.424765 
3906.000000	1.424098 
3905.000000	1.423478 
3904.000000	1.423096 
3903.000000	1.423096 
3902.000000	1.423525 
3901.000000	1.424384 
3900.000000	1.425528 
3899.000000	1.426911 
3898.000000	1.428270 
3897.000000	1.429462 
3896.000000	1.430225 
3895.000000	1.430487 
3894.000000	1.430177 
3893.000000	1.429462 
3892.000000	1.428365 
3891.000000	1.427125 
3890.000000	1.425957 
3889.000000	1.425027 
3888.000000	1.424527 
3887.000000	1.424551 
3886.000000	1.425123 
3885.000000	1.426219 
3884.000000	1.427721 
3883.000000	1.429581 
3882.000000	1.431608 
3881.000000	1.433563 
3880.000000	1.435351 
3879.000000	1.436805 
3878.000000	1.437830 
3877.000000	1.438426 
3876.000000	1.438641 
3875.000000	1.438522 
3874.000000	1.438236 
3873.000000	1.437926 
3872.000000	1.437711 
3871.000000	1.437687 
3870.000000	1.437973 
3869.000000	1.438570 
3868.000000	1.439476 
3867.000000	1.440620 
3866.000000	1.442003 
3865.000000	1.443433 
3864.000000	1.444792 
3863.000000	1.445889 
3862.000000	1.446628 
3861.000000	1.446890 
3860.000000	1.446628 
3859.000000	1.445937 
3858.000000	1.444983 
3857.000000	1.443910 
3856.000000	1.443099 
3855.000000	1.442790 
3854.000000	1.443171 
3853.000000	1.444387 
3852.000000	1.446366 
3851.000000	1.448917 
3850.000000	1.451826 
3849.000000	1.454782 
3848.000000	1.457452 
3847.000000	1.459670 
3846.000000	1.461338 
3845.000000	1.462483 
3844.000000	1.463150 
3843.000000	1.463627 
3842.000000	1.464033 
3841.000000	1.464509 
3840.000000	1.465249 
3839.000000	1.466298 
3838.000000	1.467680 
3837.000000	1.469349 
3836.000000	1.471233 
3835.000000	1.473259 
3834.000000	1.475405 
3833.000000	1.477527 
3832.000000	1.479554 
3831.000000	1.481461 
3830.000000	1.483225 
3829.000000	1.484704 
3828.000000	1.485943 
3827.000000	1.486825 
3826.000000	1.487421 
3825.000000	1.487684 
3824.000000	1.487755 
3823.000000	1.487612 
3822.000000	1.487445 
3821.000000	1.487350 
3820.000000	1.487469 
3819.000000	1.487922 
3818.000000	1.488757 
3817.000000	1.489996 
3816.000000	1.491594 
3815.000000	1.493430 
3814.000000	1.495385 
3813.000000	1.497364 
3812.000000	1.499176 
3811.000000	1.500821 
3810.000000	1.502108 
3809.000000	1.503062 
3808.000000	1.503729 
3807.000000	1.504182 
3806.000000	1.504492 
3805.000000	1.504850 
3804.000000	1.505327 
3803.000000	1.506042 
3802.000000	1.507091 
3801.000000	1.508450 
3800.000000	1.510190 
3799.000000	1.512122 
3798.000000	1.514267 
3797.000000	1.516485 
3796.000000	1.518607 
3795.000000	1.520609 
3794.000000	1.522374 
3793.000000	1.523852 
3792.000000	1.525115 
3791.000000	1.526117 
3790.000000	1.526975 
3789.000000	1.527690 
3788.000000	1.528406 
3787.000000	1.529097 
3786.000000	1.529788 
3785.000000	1.530504 
3784.000000	1.531314 
3783.000000	1.532173 
3782.000000	1.533126 
3781.000000	1.534104 
3780.000000	1.535177 
3779.000000	1.536297 
3778.000000	1.537489 
3777.000000	1.538658 
3776.000000	1.539874 
3775.000000	1.541066 
3774.000000	1.542186 
3773.000000	1.543259 
3772.000000	1.544237 
3771.000000	1.545190 
3770.000000	1.546120 
3769.000000	1.547002 
3768.000000	1.547908 
3767.000000	1.548814 
3766.000000	1.549673 
3765.000000	1.550507 
3764.000000	1.551294 
3763.000000	1.551914 
3762.000000	1.552343 
3761.000000	1.552581 
3760.000000	1.552557 
3759.000000	1.552271 
3758.000000	1.551699 
3757.000000	1.550912 
3756.000000	1.549911 
3755.000000	1.548743 
3754.000000	1.547479 
3753.000000	1.546216 
3752.000000	1.544952 
3751.000000	1.543807 
3750.000000	1.542854 
3749.000000	1.542115 
3748.000000	1.541757 
3747.000000	1.541829 
3746.000000	1.542353 
3745.000000	1.543307 
3744.000000	1.544642 
3743.000000	1.546168 
3742.000000	1.547789 
3741.000000	1.549339 
3740.000000	1.550769 
3739.000000	1.551961 
3738.000000	1.552963 
3737.000000	1.553797 
3736.000000	1.554608 
3735.000000	1.555514 
3734.000000	1.556587 
3733.000000	1.557803 
3732.000000	1.559233 
3731.000000	1.560711 
3730.000000	1.562213 
3729.000000	1.563620 
3728.000000	1.564931 
3727.000000	1.566076 
3726.000000	1.567077 
3725.000000	1.567959 
3724.000000	1.568746 
3723.000000	1.569390 
3722.000000	1.569914 
3721.000000	1.570200 
3720.000000	1.570296 
3719.000000	1.570153 
3718.000000	1.569795 
3717.000000	1.569223 
3716.000000	1.568555 
3715.000000	1.567888 
3714.000000	1.567316 
3713.000000	1.566934 
3712.000000	1.566815 
3711.000000	1.567006 
3710.000000	1.567435 
3709.000000	1.568126 
3708.000000	1.568984 
3707.000000	1.569819 
3706.000000	1.570653 
3705.000000	1.571393 
3704.000000	1.572012 
3703.000000	1.572442 
3702.000000	1.572704 
3701.000000	1.572799 
3700.000000	1.572728 
3699.000000	1.572489 
3698.000000	1.572060 
3697.000000	1.571416 
3696.000000	1.570558 
3695.000000	1.569557 
3694.000000	1.568388 
3693.000000	1.567173 
3692.000000	1.566076 
3691.000000	1.565217 
3690.000000	1.564717 
3689.000000	1.564693 
3688.000000	1.565098 
3687.000000	1.565861 
3686.000000	1.566863 
3685.000000	1.567888 
3684.000000	1.568746 
3683.000000	1.569271 
3682.000000	1.569318 
3681.000000	1.568889 
3680.000000	1.568031 
3679.000000	1.566839 
3678.000000	1.565480 
3677.000000	1.564121 
3676.000000	1.562905 
3675.000000	1.562047 
3674.000000	1.561498 
3673.000000	1.561403 
3672.000000	1.561760 
3671.000000	1.562523 
3670.000000	1.563620 
3669.000000	1.564955 
3668.000000	1.566481 
3667.000000	1.568055 
3666.000000	1.569557 
3665.000000	1.570916 
3664.000000	1.572036 
3663.000000	1.572871 
3662.000000	1.573419 
3661.000000	1.573681 
3660.000000	1.573657 
3659.000000	1.573419 
3658.000000	1.572966 
3657.000000	1.572322 
3656.000000	1.571536 
3655.000000	1.570630 
3654.000000	1.569676 
3653.000000	1.568722 
3652.000000	1.567935 
3651.000000	1.567411 
3650.000000	1.567268 
3649.000000	1.567578 
3648.000000	1.568365 
3647.000000	1.569533 
3646.000000	1.571035 
3645.000000	1.572632 
3644.000000	1.574206 
3643.000000	1.575565 
3642.000000	1.576638 
3641.000000	1.577377 
3640.000000	1.577782 
3639.000000	1.577830 
3638.000000	1.577615 
3637.000000	1.577115 
3636.000000	1.576423 
3635.000000	1.575541 
3634.000000	1.574611 
3633.000000	1.573729 
3632.000000	1.572942 
3631.000000	1.572418 
3630.000000	1.572251 
3629.000000	1.572465 
3628.000000	1.573085 
3627.000000	1.573991 
3626.000000	1.575088 
3625.000000	1.576209 
3624.000000	1.577234 
3623.000000	1.578068 
3622.000000	1.578688 
3621.000000	1.579165 
3620.000000	1.579570 
3619.000000	1.579952 
3618.000000	1.580452 
3617.000000	1.581096 
3616.000000	1.581811 
3615.000000	1.582622 
3614.000000	1.583361 
3613.000000	1.583981 
3612.000000	1.584434 
3611.000000	1.584672 
3610.000000	1.584768 
3609.000000	1.584768 
3608.000000	1.584744 
3607.000000	1.584839 
3606.000000	1.585102 
3605.000000	1.585578 
3604.000000	1.586270 
3603.000000	1.587176 
3602.000000	1.588153 
3601.000000	1.589226 
3600.000000	1.590323 
3599.000000	1.591277 
3598.000000	1.592111 
3597.000000	1.592826 
3596.000000	1.593399 
3595.000000	1.593828 
3594.000000	1.594138 
3593.000000	1.594424 
3592.000000	1.594686 
3591.000000	1.595067 
3590.000000	1.595592 
3589.000000	1.596355 
3588.000000	1.597285 
3587.000000	1.598477 
3586.000000	1.599788 
3585.000000	1.601195 
3584.000000	1.602482 
3583.000000	1.603603 
3582.000000	1.604461 
3581.000000	1.605057 
3580.000000	1.605415 
3579.000000	1.605558 
3578.000000	1.605653 
3577.000000	1.605749 
3576.000000	1.605892 
3575.000000	1.606130 
3574.000000	1.606464 
3573.000000	1.606893 
3572.000000	1.607346 
3571.000000	1.607823 
3570.000000	1.608324 
3569.000000	1.608824 
3568.000000	1.609277 
3567.000000	1.609778 
3566.000000	1.610326 
3565.000000	1.610875 
3564.000000	1.611423 
3563.000000	1.611948 
3562.000000	1.612401 
3561.000000	1.612758 
3560.000000	1.612997 
3559.000000	1.613116 
3558.000000	1.613163 
3557.000000	1.613211 
3556.000000	1.613283 
3555.000000	1.613521 
3554.000000	1.613926 
3553.000000	1.614594 
3552.000000	1.615524 
3551.000000	1.616692 
3550.000000	1.618003 
3549.000000	1.619362 
3548.000000	1.620674 
3547.000000	1.621794 
3546.000000	1.622605 
3545.000000	1.623129 
3544.000000	1.623344 
3543.000000	1.623272 
3542.000000	1.623082 
3541.000000	1.622819 
3540.000000	1.622557 
3539.000000	1.622366 
3538.000000	1.622295 
3537.000000	1.622319 
3536.000000	1.622390 
3535.000000	1.622581 
3534.000000	1.622724 
3533.000000	1.622915 
3532.000000	1.623058 
3531.000000	1.623153 
3530.000000	1.623177 
3529.000000	1.623106 
3528.000000	1.622986 
3527.000000	1.622819 
3526.000000	1.622676 
3525.000000	1.622557 
3524.000000	1.622581 
3523.000000	1.622700 
3522.000000	1.622986 
3521.000000	1.623415 
3520.000000	1.624011 
3519.000000	1.624608 
3518.000000	1.625204 
3517.000000	1.625752 
3516.000000	1.626205 
3515.000000	1.626563 
3514.000000	1.626777 
3513.000000	1.626896 
3512.000000	1.626944 
3511.000000	1.626920 
3510.000000	1.626801 
3509.000000	1.626586 
3508.000000	1.626324 
3507.000000	1.625990 
3506.000000	1.625537 
3505.000000	1.625061 
3504.000000	1.624488 
3503.000000	1.623892 
3502.000000	1.623296 
3501.000000	1.622676 
3500.000000	1.622056 
3499.000000	1.621437 
3498.000000	1.620841 
3497.000000	1.620292 
3496.000000	1.619768 
3495.000000	1.619338 
3494.000000	1.618933 
3493.000000	1.618623 
3492.000000	1.618337 
3491.000000	1.618170 
3490.000000	1.618027 
3489.000000	1.617884 
3488.000000	1.617765 
3487.000000	1.617598 
3486.000000	1.617360 
3485.000000	1.617026 
3484.000000	1.616597 
3483.000000	1.616001 
3482.000000	1.615309 
3481.000000	1.614475 
3480.000000	1.613640 
3479.000000	1.612782 
3478.000000	1.611971 
3477.000000	1.611280 
3476.000000	1.610684 
3475.000000	1.610159 
3474.000000	1.609683 
3473.000000	1.609182 
3472.000000	1.608610 
3471.000000	1.607871 
3470.000000	1.607036 
3469.000000	1.606035 
3468.000000	1.604914 
3467.000000	1.603746 
3466.000000	1.602673 
3465.000000	1.601767 
3464.000000	1.601052 
3463.000000	1.600623 
3462.000000	1.600456 
3461.000000	1.600527 
3460.000000	1.600813 
3459.000000	1.601147 
3458.000000	1.601457 
3457.000000	1.601624 
3456.000000	1.601624 
3455.000000	1.601386 
3454.000000	1.600861 
3453.000000	1.600098 
3452.000000	1.599121 
3451.000000	1.598024 
3450.000000	1.596784 
3449.000000	1.595473 
3448.000000	1.594161 
3447.000000	1.592898 
3446.000000	1.591682 
3445.000000	1.590561 
3444.000000	1.589512 
3443.000000	1.588582 
3442.000000	1.587724 
3441.000000	1.586985 
3440.000000	1.586294 
3439.000000	1.585674 
3438.000000	1.585125 
3437.000000	1.584696 
3436.000000	1.584315 
3435.000000	1.583981 
3434.000000	1.583743 
3433.000000	1.583528 
3432.000000	1.583337 
3431.000000	1.583147 
3430.000000	1.582956 
3429.000000	1.582765 
3428.000000	1.582551 
3427.000000	1.582407 
3426.000000	1.582384 
3425.000000	1.582455 
3424.000000	1.582717 
3423.000000	1.583170 
3422.000000	1.583790 
3421.000000	1.584577 
3420.000000	1.585483 
3419.000000	1.586461 
3418.000000	1.587414 
3417.000000	1.588273 
3416.000000	1.588988 
3415.000000	1.589536 
3414.000000	1.589894 
3413.000000	1.590085 
3412.000000	1.590132 
3411.000000	1.590108 
3410.000000	1.590037 
3409.000000	1.590013 
3408.000000	1.590132 
3407.000000	1.590418 
3406.000000	1.590919 
3405.000000	1.591563 
3404.000000	1.592326 
3403.000000	1.593232 
3402.000000	1.594185 
3401.000000	1.595139 
3400.000000	1.595997 
3399.000000	1.596808 
3398.000000	1.597595 
3397.000000	1.598310 
3396.000000	1.598978 
3395.000000	1.599621 
3394.000000	1.600265 
3393.000000	1.600861 
3392.000000	1.601457 
3391.000000	1.602053 
3390.000000	1.602625 
3389.000000	1.603174 
3388.000000	1.603770 
3387.000000	1.604413 
3386.000000	1.605153 
3385.000000	1.605892 
3384.000000	1.606774 
3383.000000	1.607656 
3382.000000	1.608514 
3381.000000	1.609349 
3380.000000	1.610159 
3379.000000	1.610922 
3378.000000	1.611638 
3377.000000	1.612377 
3376.000000	1.613116 
3375.000000	1.613879 
3374.000000	1.614689 
3373.000000	1.615524 
3372.000000	1.616406 
3371.000000	1.617264 
3370.000000	1.618170 
3369.000000	1.619124 
3368.000000	1.620125 
3367.000000	1.621198 
3366.000000	1.622462 
3365.000000	1.623892 
3364.000000	1.625490 
3363.000000	1.627278 
3362.000000	1.629209 
3361.000000	1.631236 
3360.000000	1.633262 
3359.000000	1.635289 
3358.000000	1.637244 
3357.000000	1.639080 
3356.000000	1.640725 
3355.000000	1.642274 
3354.000000	1.643729 
3353.000000	1.645016 
3352.000000	1.646280 
3351.000000	1.647520 
3350.000000	1.648736 
3349.000000	1.649999 
3348.000000	1.651334 
3347.000000	1.652765 
3346.000000	1.654267 
3345.000000	1.655793 
3344.000000	1.657366 
3343.000000	1.658940 
3342.000000	1.660513 
3341.000000	1.662063 
3340.000000	1.663613 
3339.000000	1.665186 
3338.000000	1.666760 
3337.000000	1.668357 
3336.000000	1.669979 
3335.000000	1.671576 
3334.000000	1.673150 
3333.000000	1.674675 
3332.000000	1.676154 
3331.000000	1.677560 
3330.000000	1.678919 
3329.000000	1.680254 
3328.000000	1.681590 
3327.000000	1.682949 
3326.000000	1.684355 
3325.000000	1.685738 
3324.000000	1.687169 
3323.000000	1.688575 
3322.000000	1.689910 
3321.000000	1.691246 
3320.000000	1.692485 
3319.000000	1.693654 
3318.000000	1.694798 
3317.000000	1.695966 
3316.000000	1.697206 
3315.000000	1.698565 
3314.000000	1.700115 
3313.000000	1.701855 
3312.000000	1.703786 
3311.000000	1.705861 
3310.000000	1.708030 
3309.000000	1.710176 
3308.000000	1.712274 
3307.000000	1.714181 
3306.000000	1.715922 
3305.000000	1.717424 
3304.000000	1.718759 
3303.000000	1.719903 
3302.000000	1.720976 
3301.000000	1.722002 
3300.000000	1.723074 
3299.000000	1.724171 
3298.000000	1.725363 
3297.000000	1.726555 
3296.000000	1.727747 
3295.000000	1.728892 
3294.000000	1.729965 
3293.000000	1.730966 
3292.000000	1.731824 
3291.000000	1.732635 
3290.000000	1.733422 
3289.000000	1.734232 
3288.000000	1.735162 
3287.000000	1.736164 
3286.000000	1.737308 
3285.000000	1.738619 
3284.000000	1.740097 
3283.000000	1.741743 
3282.000000	1.743435 
3281.000000	1.745247 
3280.000000	1.747083 
3279.000000	1.748919 
3278.000000	1.750683 
3277.000000	1.752328 
3276.000000	1.753830 
3275.000000	1.755094 
3274.000000	1.756167 
3273.000000	1.757049 
3272.000000	1.757812 
3271.000000	1.758456 
3270.000000	1.759028 
3269.000000	1.759552 
3268.000000	1.760005 
3267.000000	1.760506 
3266.000000	1.760888 
3265.000000	1.761198 
3264.000000	1.761436 
3263.000000	1.761579 
3262.000000	1.761698 
3261.000000	1.761841 
3260.000000	1.762080 
3259.000000	1.762461 
3258.000000	1.763057 
3257.000000	1.763868 
3256.000000	1.764869 
3255.000000	1.766014 
3254.000000	1.767253 
3253.000000	1.768517 
3252.000000	1.769828 
3251.000000	1.771163 
3250.000000	1.772499 
3249.000000	1.773953 
3248.000000	1.775431 
3247.000000	1.776981 
3246.000000	1.778531 
3245.000000	1.780056 
3244.000000	1.781487 
3243.000000	1.782679 
3242.000000	1.783609 
3241.000000	1.784229 
3240.000000	1.784491 
3239.000000	1.784491 
3238.000000	1.784300 
3237.000000	1.783990 
3236.000000	1.783704 
3235.000000	1.783490 
3234.000000	1.783418 
3233.000000	1.783466 
3232.000000	1.783657 
3231.000000	1.783967 
3230.000000	1.784372 
3229.000000	1.784825 
3228.000000	1.785230 
3227.000000	1.785659 
3226.000000	1.786041 
3225.000000	1.786398 
3224.000000	1.786708 
3223.000000	1.787018 
3222.000000	1.787328 
3221.000000	1.787590 
3220.000000	1.787805 
3219.000000	1.788020 
3218.000000	1.788163 
3217.000000	1.788282 
3216.000000	1.788330 
3215.000000	1.788306 
3214.000000	1.788306 
3213.000000	1.788282 
3212.000000	1.788330 
3211.000000	1.788449 
3210.000000	1.788592 
3209.000000	1.788830 
3208.000000	1.789045 
3207.000000	1.789283 
3206.000000	1.789450 
3205.000000	1.789569 
3204.000000	1.789569 
3203.000000	1.789522 
3202.000000	1.789379 
3201.000000	1.789236 
3200.000000	1.789164 
3199.000000	1.789212 
3198.000000	1.789379 
3197.000000	1.789689 
3196.000000	1.790165 
3195.000000	1.790761 
3194.000000	1.791405 
3193.000000	1.791977 
3192.000000	1.792502 
3191.000000	1.792883 
3190.000000	1.793146 
3189.000000	1.793289 
3188.000000	1.793408 
3187.000000	1.793479 
3186.000000	1.793551 
3185.000000	1.793646 
3184.000000	1.793766 
3183.000000	1.793885 
3182.000000	1.793932 
3181.000000	1.793956 
3180.000000	1.793956 
3179.000000	1.793956 
3178.000000	1.794028 
3177.000000	1.794195 
3176.000000	1.794505 
3175.000000	1.795005 
3174.000000	1.795649 
3173.000000	1.796460 
3172.000000	1.797389 
3171.000000	1.798343 
3170.000000	1.799321 
3169.000000	1.800227 
3168.000000	1.801061 
3167.000000	1.801729 
3166.000000	1.802229 
3165.000000	1.802563 
3164.000000	1.802802 
3163.000000	1.802945 
3162.000000	1.803016 
3161.000000	1.803159 
3160.000000	1.803398 
3159.000000	1.803755 
3158.000000	1.804304 
3157.000000	1.804995 
3156.000000	1.805830 
3155.000000	1.806783 
3154.000000	1.807785 
3153.000000	1.808762 
3152.000000	1.809740 
3151.000000	1.810693 
3150.000000	1.811599 
3149.000000	1.812529 
3148.000000	1.813435 
3147.000000	1.814317 
3146.000000	1.815271 
3145.000000	1.816248 
3144.000000	1.817274 
3143.000000	1.818370 
3142.000000	1.819539 
3141.000000	1.820802 
3140.000000	1.822113 
3139.000000	1.823472 
3138.000000	1.824855 
3137.000000	1.826214 
3136.000000	1.827526 
3135.000000	1.828742 
3134.000000	1.829791 
3133.000000	1.830720 
3132.000000	1.831531 
3131.000000	1.832175 
3130.000000	1.832771 
3129.000000	1.833319 
3128.000000	1.833939 
3127.000000	1.834630 
3126.000000	1.835465 
3125.000000	1.836419 
3124.000000	1.837515 
3123.000000	1.838755 
3122.000000	1.840066 
3121.000000	1.841425 
3120.000000	1.842784 
3119.000000	1.844024 
3118.000000	1.845216 
3117.000000	1.846265 
3116.000000	1.847243 
3115.000000	1.848173 
3114.000000	1.849126 
3113.000000	1.850104 
3112.000000	1.851177 
3111.000000	1.852393 
3110.000000	1.853775 
3109.000000	1.855301 
3108.000000	1.856970 
3107.000000	1.858758 
3106.000000	1.860713 
3105.000000	1.862764 
3104.000000	1.864957 
3103.000000	1.867294 
3102.000000	1.869726 
3101.000000	1.872229 
3100.000000	1.874756 
3099.000000	1.877284 
3098.000000	1.879715 
3097.000000	1.881980 
3096.000000	1.884150 
3095.000000	1.886129 
3094.000000	1.888012 
3093.000000	1.889824 
3092.000000	1.891589 
3091.000000	1.893353 
3090.000000	1.895117 
3089.000000	1.896905 
3088.000000	1.898670 
3087.000000	1.900434 
3086.000000	1.902151 
3085.000000	1.903843 
3084.000000	1.905512 
3083.000000	1.907181 
3082.000000	1.908922 
3081.000000	1.910758 
3080.000000	1.912689 
3079.000000	1.914715 
3078.000000	1.916790 
3077.000000	1.918864 
3076.000000	1.920866 
3075.000000	1.922726 
3074.000000	1.924347 
3073.000000	1.925778 
3072.000000	1.926946 
3071.000000	1.927924 
3070.000000	1.928758 
3069.000000	1.929545 
3068.000000	1.930308 
3067.000000	1.931142 
3066.000000	1.932120 
3065.000000	1.933288 
3064.000000	1.934623 
3063.000000	1.936149 
3062.000000	1.937890 
3061.000000	1.939821 
3060.000000	1.941871 
3059.000000	1.944041 
3058.000000	1.946258 
3057.000000	1.948475 
3056.000000	1.950621 
3055.000000	1.952672 
3054.000000	1.954603 
3053.000000	1.956391 
3052.000000	1.958036 
3051.000000	1.959538 
3050.000000	1.960873 
3049.000000	1.962113 
3048.000000	1.963233 
3047.000000	1.964259 
3046.000000	1.965212 
3045.000000	1.966071 
3044.000000	1.966881 
3043.000000	1.967597 
3042.000000	1.968264 
3041.000000	1.968860 
3040.000000	1.969408 
3039.000000	1.969885 
3038.000000	1.970314 
3037.000000	1.970720 
3036.000000	1.971101 
3035.000000	1.971435 
3034.000000	1.971769 
3033.000000	1.972055 
3032.000000	1.972198 
3031.000000	1.972150 
3030.000000	1.971840 
3029.000000	1.971197 
3028.000000	1.970148 
3027.000000	1.968717 
3026.000000	1.966881 
3025.000000	1.964807 
3024.000000	1.962566 
3023.000000	1.960444 
3022.000000	1.958584 
3021.000000	1.957225 
3020.000000	1.956510 
3019.000000	1.956605 
3018.000000	1.957607 
3017.000000	1.959514 
3016.000000	1.962327 
3015.000000	1.965951 
3014.000000	1.970219 
3013.000000	1.974987 
3012.000000	1.980066 
3011.000000	1.985216 
3010.000000	1.990294 
3009.000000	1.995110 
3008.000000	1.999568 
3007.000000	2.003598 
3006.000000	2.007126 
3005.000000	2.010273 
3004.000000	2.012991 
3003.000000	2.015352 
3002.000000	2.017378 
3001.000000	2.019143 
3000.000000	2.020645 
2999.000000	2.021908 
2998.000000	2.022838 
2997.000000	2.023530 
2996.000000	2.023959 
2995.000000	2.024221 
2994.000000	2.024292 
2993.000000	2.024269 
2992.000000	2.024173 
2991.000000	2.024102 
2990.000000	2.024030 
2989.000000	2.023935 
2988.000000	2.023816 
2987.000000	2.023649 
2986.000000	2.023386 
2985.000000	2.022957 
2984.000000	2.022337 
2983.000000	2.021455 
2982.000000	2.020215 
2981.000000	2.018666 
2980.000000	2.016639 
2979.000000	2.014136 
2978.000000	2.011108 
2977.000000	2.007508 
2976.000000	2.003383 
2975.000000	1.998686 
2974.000000	1.993536 
2973.000000	1.988029 
2972.000000	1.982188 
2971.000000	1.976108 
2970.000000	1.969885 
2969.000000	1.963710 
2968.000000	1.957750 
2967.000000	1.952028 
2966.000000	1.946711 
2965.000000	1.941943 
2964.000000	1.937747 
2963.000000	1.934194 
2962.000000	1.931285 
2961.000000	1.928997 
2960.000000	1.927185 
2959.000000	1.925778 
2958.000000	1.924657 
2957.000000	1.923680 
2956.000000	1.922726 
2955.000000	1.921749 
2954.000000	1.920628 
2953.000000	1.919317 
2952.000000	1.917719 
2951.000000	1.915788 
2950.000000	1.913356 
2949.000000	1.910352 
2948.000000	1.906681 
2947.000000	1.902198 
2946.000000	1.896786 
2945.000000	1.890516 
2944.000000	1.883435 
2943.000000	1.875615 
2942.000000	1.867151 
2941.000000	1.858305 
2940.000000	1.849269 
2939.000000	1.840162 
2938.000000	1.831150 
2937.000000	1.822352 
2936.000000	1.813912 
2935.000000	1.805830 
2934.000000	1.798105 
2933.000000	1.790833 
2932.000000	1.784062 
2931.000000	1.777911 
2930.000000	1.772570 
2929.000000	1.768183 
2928.000000	1.764988 
2927.000000	1.763272 
2926.000000	1.763176 
2925.000000	1.764965 
2924.000000	1.768732 
2923.000000	1.774430 
2922.000000	1.782035 
2921.000000	1.791334 
2920.000000	1.802110 
2919.000000	1.813960 
2918.000000	1.826548 
2917.000000	1.839494 
2916.000000	1.852321 
2915.000000	1.864743 
2914.000000	1.876401 
2913.000000	1.887130 
2912.000000	1.896739 
2911.000000	1.905226 
2910.000000	1.912641 
2909.000000	1.919174 
2908.000000	1.924991 
2907.000000	1.930236 
2906.000000	1.935148 
2905.000000	1.939845 
2904.000000	1.944375 
2903.000000	1.948738 
2902.000000	1.952886 
2901.000000	1.956892 
2900.000000	1.960635 
2899.000000	1.964116 
2898.000000	1.967310 
2897.000000	1.970338 
2896.000000	1.973295 
2895.000000	1.976227 
2894.000000	1.979136 
2893.000000	1.982069 
2892.000000	1.985049 
2891.000000	1.988029 
2890.000000	1.990866 
2889.000000	1.993584 
2888.000000	1.996064 
2887.000000	1.998281 
2886.000000	2.000188 
2885.000000	2.001762 
2884.000000	2.003026 
2883.000000	2.003955 
2882.000000	2.004551 
2881.000000	2.004742 
2880.000000	2.004575 
2879.000000	2.004003 
2878.000000	2.002954 
2877.000000	2.001404 
2876.000000	1.999235 
2875.000000	1.996350 
2874.000000	1.992726 
2873.000000	1.988172 
2872.000000	1.982712 
2871.000000	1.976227 
2870.000000	1.968765 
2869.000000	1.960492 
2868.000000	1.951599 
2867.000000	1.942420 
2866.000000	1.933455 
2865.000000	1.925158 
2864.000000	1.917982 
2863.000000	1.912474 
2862.000000	1.908874 
2861.000000	1.907491 
2860.000000	1.908254 
2859.000000	1.911163 
2858.000000	1.915884 
2857.000000	1.922130 
2856.000000	1.929545 
2855.000000	1.937818 
2854.000000	1.946640 
2853.000000	1.955842 
2852.000000	1.965332 
2851.000000	1.975035 
2850.000000	1.984882 
2849.000000	1.994776 
2848.000000	2.004694 
2847.000000	2.014517 
2846.000000	2.024030 
2845.000000	2.033138 
2844.000000	2.041769 
2843.000000	2.049827 
2842.000000	2.057266 
2841.000000	2.064085 
2840.000000	2.070307 
2839.000000	2.076053 
2838.000000	2.081298 
2837.000000	2.086067 
2836.000000	2.090501 
2835.000000	2.094554 
2834.000000	2.098226 
2833.000000	2.101635 
2832.000000	2.104854 
2831.000000	2.107930 
2830.000000	2.110910 
2829.000000	2.113842 
2828.000000	2.116823 
2827.000000	2.119851 
2826.000000	2.122950 
2825.000000	2.126073 
2824.000000	2.129268 
2823.000000	2.132463 
2822.000000	2.135562 
2821.000000	2.138543 
2820.000000	2.141380 
2819.000000	2.143979 
2818.000000	2.146363 
2817.000000	2.148509 
2816.000000	2.150440 
2815.000000	2.152204 
2814.000000	2.153921 
2813.000000	2.155613 
2812.000000	2.157282 
2811.000000	2.159023 
2810.000000	2.160835 
2809.000000	2.162742 
2808.000000	2.164697 
2807.000000	2.166724 
2806.000000	2.168750 
2805.000000	2.170777 
2804.000000	2.172803 
2803.000000	2.174830 
2802.000000	2.176809 
2801.000000	2.178764 
2800.000000	2.180719 
2799.000000	2.182626 
2798.000000	2.184534 
2797.000000	2.186393 
2796.000000	2.188205 
2795.000000	2.189970 
2794.000000	2.191662 
2793.000000	2.193307 
2792.000000	2.194881 
2791.000000	2.196455 
2790.000000	2.197980 
2789.000000	2.199554 
2788.000000	2.201175 
2787.000000	2.202939 
2786.000000	2.204823 
2785.000000	2.206945 
2784.000000	2.209186 
2783.000000	2.211618 
2782.000000	2.214121 
2781.000000	2.216672 
2780.000000	2.219152 
2779.000000	2.221512 
2778.000000	2.223658 
2777.000000	2.225565 
2776.000000	2.227210 
2775.000000	2.228593 
2774.000000	2.229785 
2773.000000	2.230858 
2772.000000	2.231860 
2771.000000	2.232861 
2770.000000	2.233839 
2769.000000	2.234840 
2768.000000	2.235865 
2767.000000	2.236866 
2766.000000	2.237844 
2765.000000	2.238750 
2764.000000	2.239608 
2763.000000	2.240347 
2762.000000	2.241015 
2761.000000	2.241587 
2760.000000	2.242112 
2759.000000	2.242588 
2758.000000	2.243089 
2757.000000	2.243614 
2756.000000	2.244186 
2755.000000	2.244901 
2754.000000	2.245736 
2753.000000	2.246689 
2752.000000	2.247762 
2751.000000	2.248954 
2750.000000	2.250170 
2749.000000	2.251362 
2748.000000	2.252483 
2747.000000	2.253460 
2746.000000	2.254295 
2745.000000	2.255010 
2744.000000	2.255535 
2743.000000	2.255988 
2742.000000	2.256345 
2741.000000	2.256608 
2740.000000	2.256822 
2739.000000	2.256941 
2738.000000	2.257013 
2737.000000	2.256965 
2736.000000	2.256846 
2735.000000	2.256679 
2734.000000	2.256488 
2733.000000	2.256321 
2732.000000	2.256202 
2731.000000	2.256178 
2730.000000	2.256226 
2729.000000	2.256298 
2728.000000	2.256345 
2727.000000	2.256345 
2726.000000	2.256250 
2725.000000	2.256035 
2724.000000	2.255654 
2723.000000	2.255201 
2722.000000	2.254676 
2721.000000	2.254128 
2720.000000	2.253627 
2719.000000	2.253198 
2718.000000	2.252817 
2717.000000	2.252507 
2716.000000	2.252221 
2715.000000	2.251935 
2714.000000	2.251577 
2713.000000	2.251172 
2712.000000	2.250623 
2711.000000	2.249979 
2710.000000	2.249193 
2709.000000	2.248382 
2708.000000	2.247476 
2707.000000	2.246546 
2706.000000	2.245616 
2705.000000	2.244687 
2704.000000	2.243828 
2703.000000	2.243041 
2702.000000	2.242279 
2701.000000	2.241659 
2700.000000	2.241110 
2699.000000	2.240729 
2698.000000	2.240443 
2697.000000	2.240300 
2696.000000	2.240252 
2695.000000	2.240276 
2694.000000	2.240300 
2693.000000	2.240276 
2692.000000	2.240180 
2691.000000	2.239894 
2690.000000	2.239489 
2689.000000	2.238917 
2688.000000	2.238225 
2687.000000	2.237462 
2686.000000	2.236676 
2685.000000	2.235889 
2684.000000	2.235126 
2683.000000	2.234411 
2682.000000	2.233719 
2681.000000	2.233028 
2680.000000	2.232360 
2679.000000	2.231645 
2678.000000	2.230930 
2677.000000	2.230262 
2676.000000	2.229619 
2675.000000	2.229046 
2674.000000	2.228522 
2673.000000	2.227997 
2672.000000	2.227497 
2671.000000	2.227044 
2670.000000	2.226543 
2669.000000	2.226018 
2668.000000	2.225494 
2667.000000	2.224993 
2666.000000	2.224540 
2665.000000	2.224159 
2664.000000	2.223825 
2663.000000	2.223563 
2662.000000	2.223324 
2661.000000	2.223062 
2660.000000	2.222704 
2659.000000	2.222251 
2658.000000	2.221655 
2657.000000	2.220916 
2656.000000	2.220129 
2655.000000	2.219343 
2654.000000	2.218580 
2653.000000	2.217936 
2652.000000	2.217388 
2651.000000	2.217006 
2650.000000	2.216720 
2649.000000	2.216529 
2648.000000	2.216362 
2647.000000	2.216196 
2646.000000	2.215957 
2645.000000	2.215647 
2644.000000	2.215313 
2643.000000	2.215003 
2642.000000	2.214741 
2641.000000	2.214622 
2640.000000	2.214646 
2639.000000	2.214837 
2638.000000	2.215218 
2637.000000	2.215719 
2636.000000	2.216291 
2635.000000	2.216863 
2634.000000	2.217435 
2633.000000	2.217888 
2632.000000	2.218246 
2631.000000	2.218484 
2630.000000	2.218675 
2629.000000	2.218770 
2628.000000	2.218818 
2627.000000	2.218890 
2626.000000	2.218961 
2625.000000	2.219080 
2624.000000	2.219200 
2623.000000	2.219343 
2622.000000	2.219486 
2621.000000	2.219557 
2620.000000	2.219629 
2619.000000	2.219676 
2618.000000	2.219700 
2617.000000	2.219700 
2616.000000	2.219724 
2615.000000	2.219748 
2614.000000	2.219748 
2613.000000	2.219772 
2612.000000	2.219843 
2611.000000	2.219891 
2610.000000	2.219986 
2609.000000	2.220129 
2608.000000	2.220368 
2607.000000	2.220702 
2606.000000	2.221107 
2605.000000	2.221632 
2604.000000	2.222228 
2603.000000	2.222847 
2602.000000	2.223420 
2601.000000	2.223992 
2600.000000	2.224516 
2599.000000	2.224946 
2598.000000	2.225327 
2597.000000	2.225685 
2596.000000	2.226042 
2595.000000	2.226495 
2594.000000	2.227067 
2593.000000	2.227807 
2592.000000	2.228760 
2591.000000	2.229905 
2590.000000	2.231264 
2589.000000	2.232718 
2588.000000	2.234292 
2587.000000	2.235841 
2586.000000	2.237367 
2585.000000	2.238869 
2584.000000	2.240324 
2583.000000	2.241778 
2582.000000	2.243232 
2581.000000	2.244758 
2580.000000	2.246356 
2579.000000	2.248024 
2578.000000	2.249717 
2577.000000	2.251434 
2576.000000	2.253127 
2575.000000	2.254772 
2574.000000	2.256274 
2573.000000	2.257633 
2572.000000	2.258872 
2571.000000	2.260017 
2570.000000	2.261114 
2569.000000	2.262187 
2568.000000	2.263331 
2567.000000	2.264571 
2566.000000	2.265906 
2565.000000	2.267289 
2564.000000	2.268743 
2563.000000	2.270078 
2562.000000	2.271413 
2561.000000	2.272653 
2560.000000	2.273750 
2559.000000	2.274703 
2558.000000	2.275490 
2557.000000	2.276182 
2556.000000	2.276802 
2555.000000	2.277374 
2554.000000	2.278017 
2553.000000	2.278828 
2552.000000	2.279806 
2551.000000	2.281045 
2550.000000	2.282547 
2549.000000	2.284288 
2548.000000	2.286148 
2547.000000	2.288103 
2546.000000	2.289986 
2545.000000	2.291703 
2544.000000	2.293181 
2543.000000	2.294421 
2542.000000	2.295398 
2541.000000	2.296209 
2540.000000	2.296972 
2539.000000	2.297735 
2538.000000	2.298665 
2537.000000	2.299761 
2536.000000	2.301025 
2535.000000	2.302503 
2534.000000	2.304077 
2533.000000	2.305722 
2532.000000	2.307248 
2531.000000	2.308559 
2530.000000	2.309632 
2529.000000	2.310395 
2528.000000	2.310895 
2527.000000	2.311205 
2526.000000	2.311468 
2525.000000	2.311730 
2524.000000	2.312111 
2523.000000	2.312684 
2522.000000	2.313518 
2521.000000	2.314519 
2520.000000	2.315664 
2519.000000	2.316927 
2518.000000	2.318143 
2517.000000	2.319288 
2516.000000	2.320218 
2515.000000	2.321004 
2514.000000	2.321624 
2513.000000	2.322101 
2512.000000	2.322506 
2511.000000	2.322840 
2510.000000	2.323174 
2509.000000	2.323555 
2508.000000	2.323913 
2507.000000	2.324295 
2506.000000	2.324628 
2505.000000	2.324843 
2504.000000	2.325034 
2503.000000	2.325177 
2502.000000	2.325248 
2501.000000	2.325320 
2500.000000	2.325487 
2499.000000	2.325725 
2498.000000	2.326059 
2497.000000	2.326488 
2496.000000	2.326941 
2495.000000	2.327346 
2494.000000	2.327656 
2493.000000	2.327775 
2492.000000	2.327680 
2491.000000	2.327299 
2490.000000	2.326726 
2489.000000	2.325940 
2488.000000	2.325010 
2487.000000	2.324032 
2486.000000	2.323055 
2485.000000	2.322173 
2484.000000	2.321410 
2483.000000	2.320766 
2482.000000	2.320170 
2481.000000	2.319693 
2480.000000	2.319288 
2479.000000	2.318978 
2478.000000	2.318692 
2477.000000	2.318453 
2476.000000	2.318286 
2475.000000	2.318096 
2474.000000	2.317905 
2473.000000	2.317619 
2472.000000	2.317214 
2471.000000	2.316617 
2470.000000	2.315855 
2469.000000	2.314925 
2468.000000	2.313899 
2467.000000	2.312803 
2466.000000	2.311706 
2465.000000	2.310562 
2464.000000	2.309393 
2463.000000	2.308249 
2462.000000	2.307128 
2461.000000	2.306056 
2460.000000	2.305054 
2459.000000	2.304100 
2458.000000	2.303290 
2457.000000	2.302646 
2456.000000	2.302098 
2455.000000	2.301597 
2454.000000	2.301049 
2453.000000	2.300453 
2452.000000	2.299690 
2451.000000	2.298760 
2450.000000	2.297639 
2449.000000	2.296447 
2448.000000	2.295255 
2447.000000	2.294087 
2446.000000	2.293062 
2445.000000	2.292156 
2444.000000	2.291345 
2443.000000	2.290534 
2442.000000	2.289676 
2441.000000	2.288627 
2440.000000	2.287387 
2439.000000	2.285909 
2438.000000	2.284216 
2437.000000	2.282357 
2436.000000	2.280521 
2435.000000	2.278804 
2434.000000	2.277302 
2433.000000	2.276182 
2432.000000	2.275490 
2431.000000	2.275180 
2430.000000	2.275228 
2429.000000	2.275657 
2428.000000	2.276277 
2427.000000	2.277040 
2426.000000	2.277827 
2425.000000	2.278470 
2424.000000	2.278852 
2423.000000	2.278804 
2422.000000	2.278256 
2421.000000	2.277064 
2420.000000	2.275204 
2419.000000	2.272725 
2418.000000	2.269697 
2417.000000	2.266335 
2416.000000	2.262854 
2415.000000	2.259469 
2414.000000	2.256464 
2413.000000	2.253937 
2412.000000	2.252030 
2411.000000	2.250766 
2410.000000	2.250123 
2409.000000	2.250027 
2408.000000	2.250337 
2407.000000	2.250981 
2406.000000	2.251815 
2405.000000	2.252674 
2404.000000	2.253484 
2403.000000	2.254223 
2402.000000	2.254748 
2401.000000	2.255034 
2400.000000	2.255010 
2399.000000	2.254724 
2398.000000	2.254152 
2397.000000	2.253413 
2396.000000	2.252531 
2395.000000	2.251577 
2394.000000	2.250576 
2393.000000	2.249598 
2392.000000	2.248644 
2391.000000	2.247738 
2390.000000	2.246880 
2389.000000	2.246117 
2388.000000	2.245402 
2387.000000	2.244782 
2386.000000	2.244281 
2385.000000	2.243876 
2384.000000	2.243614 
2383.000000	2.243423 
2382.000000	2.243256 
2381.000000	2.243089 
2380.000000	2.242851 
2379.000000	2.242517 
2378.000000	2.242040 
2377.000000	2.241396 
2376.000000	2.240657 
2375.000000	2.239775 
2374.000000	2.238798 
2373.000000	2.237820 
2372.000000	2.236747 
2371.000000	2.235651 
2370.000000	2.234649 
2369.000000	2.233672 
2368.000000	2.232789 
2367.000000	2.232074 
2366.000000	2.231597 
2365.000000	2.231431 
2364.000000	2.231597 
2363.000000	2.232122 
2362.000000	2.233052 
2361.000000	2.234411 
2360.000000	2.236080 
2359.000000	2.238082 
2358.000000	2.240252 
2357.000000	2.242541 
2356.000000	2.244853 
2355.000000	2.247095 
2354.000000	2.249145 
2353.000000	2.251076 
2352.000000	2.252769 
2351.000000	2.254247 
2350.000000	2.255511 
2349.000000	2.256655 
2348.000000	2.257633 
2347.000000	2.258515 
2346.000000	2.259397 
2345.000000	2.260255 
2344.000000	2.261161 
2343.000000	2.262139 
2342.000000	2.263188 
2341.000000	2.264261 
2340.000000	2.265381 
2339.000000	2.266550 
2338.000000	2.267694 
2337.000000	2.268815 
2336.000000	2.269911 
2335.000000	2.271008 
2334.000000	2.272176 
2333.000000	2.273440 
2332.000000	2.274847 
2331.000000	2.276420 
2330.000000	2.278208 
2329.000000	2.280187 
2328.000000	2.282381 
2327.000000	2.284717 
2326.000000	2.287173 
2325.000000	2.289652 
2324.000000	2.292156 
2323.000000	2.294588 
2322.000000	2.296996 
2321.000000	2.299308 
2320.000000	2.301549 
2319.000000	2.303767 
2318.000000	2.305912 
2317.000000	2.308058 
2316.000000	2.310228 
2315.000000	2.312374 
2314.000000	2.314496 
2313.000000	2.316570 
2312.000000	2.318525 
2311.000000	2.320408 
2310.000000	2.322125 
2309.000000	2.323651 
2308.000000	2.325034 
2307.000000	2.326250 
2306.000000	2.327346 
2305.000000	2.328395 
2304.000000	2.329468 
2303.000000	2.330708 
2302.000000	2.332091 
2301.000000	2.333664 
2300.000000	2.335429 
2299.000000	2.337312 
2298.000000	2.339243 
2297.000000	2.341175 
2296.000000	2.343010 
2295.000000	2.344703 
2294.000000	2.346253 
2293.000000	2.347660 
2292.000000	2.348971 
2291.000000	2.350258 
2290.000000	2.351498 
2289.000000	2.352809 
2288.000000	2.354121 
2287.000000	2.355408 
2286.000000	2.356743 
2285.000000	2.358055 
2284.000000	2.359366 
2283.000000	2.360653 
2282.000000	2.361869 
2281.000000	2.363014 
2280.000000	2.364110 
2279.000000	2.365088 
2278.000000	2.365946 
2277.000000	2.366733 
2276.000000	2.367353 
2275.000000	2.367901 
2274.000000	2.368402 
2273.000000	2.368903 
2272.000000	2.369379 
2271.000000	2.369880 
2270.000000	2.370357 
2269.000000	2.370834 
2268.000000	2.371287 
2267.000000	2.371716 
2266.000000	2.372193 
2265.000000	2.372670 
2264.000000	2.373266 
2263.000000	2.373957 
2262.000000	2.374815 
2261.000000	2.375769 
2260.000000	2.376794 
2259.000000	2.377891 
2258.000000	2.378892 
2257.000000	2.379751 
2256.000000	2.380418 
2255.000000	2.380824 
2254.000000	2.380990 
2253.000000	2.380943 
2252.000000	2.380728 
2251.000000	2.380466 
2250.000000	2.380156 
2249.000000	2.379918 
2248.000000	2.379798 
2247.000000	2.379822 
2246.000000	2.379989 
2245.000000	2.380251 
2244.000000	2.380633 
2243.000000	2.381062 
2242.000000	2.381539 
2241.000000	2.382040 
2240.000000	2.382516 
2239.000000	2.382922 
2238.000000	2.383232 
2237.000000	2.383422 
2236.000000	2.383470 
2235.000000	2.383375 
2234.000000	2.383184 
2233.000000	2.382922 
2232.000000	2.382540 
2231.000000	2.382135 
2230.000000	2.381730 
2229.000000	2.381324 
2228.000000	2.380895 
2227.000000	2.380466 
2226.000000	2.380013 
2225.000000	2.379488 
2224.000000	2.378892 
2223.000000	2.378249 
2222.000000	2.377462 
2221.000000	2.376627 
2220.000000	2.375721 
2219.000000	2.374744 
2218.000000	2.373766 
2217.000000	2.372789 
2216.000000	2.371788 
2215.000000	2.370786 
2214.000000	2.369785 
2213.000000	2.368760 
2212.000000	2.367687 
2211.000000	2.366566 
2210.000000	2.365398 
2209.000000	2.364230 
2208.000000	2.363014 
2207.000000	2.361822 
2206.000000	2.360677 
2205.000000	2.359604 
2204.000000	2.358603 
2203.000000	2.357745 
2202.000000	2.356982 
2201.000000	2.356314 
2200.000000	2.355718 
2199.000000	2.355146 
2198.000000	2.354598 
2197.000000	2.354001 
2196.000000	2.353382 
2195.000000	2.352690 
2194.000000	2.351999 
2193.000000	2.351307 
2192.000000	2.350640 
2191.000000	2.349972 
2190.000000	2.349352 
2189.000000	2.348780 
2188.000000	2.348232 
2187.000000	2.347683 
2186.000000	2.347111 
2185.000000	2.346491 
2184.000000	2.345824 
2183.000000	2.345061 
2182.000000	2.344226 
2181.000000	2.343392 
2180.000000	2.342510 
2179.000000	2.341628 
2178.000000	2.340817 
2177.000000	2.340054 
2176.000000	2.339363 
2175.000000	2.338743 
2174.000000	2.338194 
2173.000000	2.337670 
2172.000000	2.337169 
2171.000000	2.336621 
2170.000000	2.336049 
2169.000000	2.335429 
2168.000000	2.334809 
2167.000000	2.334189 
2166.000000	2.333593 
2165.000000	2.333116 
2164.000000	2.332878 
2163.000000	2.332806 
2162.000000	2.332949 
2161.000000	2.333283 
2160.000000	2.333712 
2159.000000	2.334165 
2158.000000	2.334570 
2157.000000	2.334856 
2156.000000	2.334928 
2155.000000	2.334809 
2154.000000	2.334499 
2153.000000	2.334117 
2152.000000	2.333688 
2151.000000	2.333331 
2150.000000	2.333045 
2149.000000	2.332949 
2148.000000	2.333021 
2147.000000	2.333211 
2146.000000	2.333474 
2145.000000	2.333784 
2144.000000	2.334070 
2143.000000	2.334332 
2142.000000	2.334523 
2141.000000	2.334642 
2140.000000	2.334713 
2139.000000	2.334785 
2138.000000	2.334856 
2137.000000	2.334976 
2136.000000	2.335143 
2135.000000	2.335333 
2134.000000	2.335500 
2133.000000	2.335619 
2132.000000	2.335667 
2131.000000	2.335667 
2130.000000	2.335572 
2129.000000	2.335453 
2128.000000	2.335357 
2127.000000	2.335309 
2126.000000	2.335333 
2125.000000	2.335405 
2124.000000	2.335548 
2123.000000	2.335739 
2122.000000	2.335906 
2121.000000	2.336049 
2120.000000	2.336192 
2119.000000	2.336287 
2118.000000	2.336406 
2117.000000	2.336549 
2116.000000	2.336740 
2115.000000	2.336978 
2114.000000	2.337241 
2113.000000	2.337503 
2112.000000	2.337741 
2111.000000	2.337932 
2110.000000	2.338051 
2109.000000	2.338099 
2108.000000	2.338075 
2107.000000	2.337980 
2106.000000	2.337861 
2105.000000	2.337670 
2104.000000	2.337479 
2103.000000	2.337288 
2102.000000	2.337145 
2101.000000	2.337050 
2100.000000	2.337026 
2099.000000	2.337074 
2098.000000	2.337193 
2097.000000	2.337384 
2096.000000	2.337551 
2095.000000	2.337765 
2094.000000	2.337932 
2093.000000	2.338099 
2092.000000	2.338242 
2091.000000	2.338433 
2090.000000	2.338719 
2089.000000	2.339196 
2088.000000	2.339935 
2087.000000	2.340984 
2086.000000	2.342367 
2085.000000	2.344036 
2084.000000	2.345943 
2083.000000	2.347946 
2082.000000	2.349901 
2081.000000	2.351737 
2080.000000	2.353286 
2079.000000	2.354431 
2078.000000	2.355241 
2077.000000	2.355599 
2076.000000	2.355647 
2075.000000	2.355480 
2074.000000	2.355122 
2073.000000	2.354598 
2072.000000	2.354073 
2071.000000	2.353501 
2070.000000	2.353000 
2069.000000	2.352666 
2068.000000	2.352571 
2067.000000	2.352833 
2066.000000	2.353620 
2065.000000	2.355003 
2064.000000	2.357172 
2063.000000	2.360129 
2062.000000	2.363872 
2061.000000	2.368283 
2060.000000	2.373170 
2059.000000	2.378249 
2058.000000	2.383303 
2057.000000	2.388095 
2056.000000	2.392411 
2055.000000	2.396202 
2054.000000	2.399396 
2053.000000	2.402091 
2052.000000	2.404356 
2051.000000	2.406311 
2050.000000	2.408123 
2049.000000	2.409839 
2048.000000	2.411627 
2047.000000	2.413415 
2046.000000	2.415251 
2045.000000	2.417087 
2044.000000	2.418899 
2043.000000	2.420663 
2042.000000	2.422332 
2041.000000	2.423882 
2040.000000	2.425336 
2039.000000	2.426624 
2038.000000	2.427768 
2037.000000	2.428793 
2036.000000	2.429723 
2035.000000	2.430582 
2034.000000	2.431392 
2033.000000	2.432203 
2032.000000	2.433061 
2031.000000	2.433991 
2030.000000	2.434968 
2029.000000	2.436065 
2028.000000	2.437210 
2027.000000	2.438378 
2026.000000	2.439546 
2025.000000	2.440714 
2024.000000	2.441787 
2023.000000	2.442789 
2022.000000	2.443742 
2021.000000	2.444672 
2020.000000	2.445507 
2019.000000	2.446317 
2018.000000	2.447128 
2017.000000	2.447938 
2016.000000	2.448773 
2015.000000	2.449560 
2014.000000	2.450346 
2013.000000	2.451086 
2012.000000	2.451801 
2011.000000	2.452468 
2010.000000	2.453064 
2009.000000	2.453613 
2008.000000	2.454137 
2007.000000	2.454662 
2006.000000	2.455163 
2005.000000	2.455735 
2004.000000	2.456331 
2003.000000	2.456974 
2002.000000	2.457618 
2001.000000	2.458286 
2000.000000	2.458834 
1999.000000	2.459311 
1998.000000	2.459621 
1997.000000	2.459764 
1996.000000	2.459764 
1995.000000	2.459526 
1994.000000	2.459144 
1993.000000	2.458596 
1992.000000	2.457928 
1991.000000	2.457165 
1990.000000	2.456355 
1989.000000	2.455472 
1988.000000	2.454590 
1987.000000	2.453660 
1986.000000	2.452683 
1985.000000	2.451682 
1984.000000	2.450704 
1983.000000	2.449727 
1982.000000	2.448797 
1981.000000	2.447938 
1980.000000	2.447128 
1979.000000	2.446413 
1978.000000	2.445721 
1977.000000	2.445077 
1976.000000	2.444481 
1975.000000	2.443933 
1974.000000	2.443432 
1973.000000	2.442979 
1972.000000	2.442526 
1971.000000	2.442097 
1970.000000	2.441668 
1969.000000	2.441096 
1968.000000	2.440452 
1967.000000	2.439641 
1966.000000	2.438688 
1965.000000	2.437663 
1964.000000	2.436542 
1963.000000	2.435398 
1962.000000	2.434349 
1961.000000	2.433347 
1960.000000	2.432417 
1959.000000	2.431583 
1958.000000	2.430820 
1957.000000	2.430057 
1956.000000	2.429294 
1955.000000	2.428555 
1954.000000	2.427792 
1953.000000	2.427029 
1952.000000	2.426242 
1951.000000	2.425479 
1950.000000	2.424669 
1949.000000	2.423858 
1948.000000	2.423071 
1947.000000	2.422285 
1946.000000	2.421569 
1945.000000	2.420926 
1944.000000	2.420377 
1943.000000	2.419972 
1942.000000	2.419638 
1941.000000	2.419352 
1940.000000	2.418994 
1939.000000	2.418613 
1938.000000	2.418112 
1937.000000	2.417469 
1936.000000	2.416634 
1935.000000	2.415680 
1934.000000	2.414631 
1933.000000	2.413463 
1932.000000	2.412199 
1931.000000	2.410840 
1930.000000	2.409434 
1929.000000	2.407908 
1928.000000	2.406263 
1927.000000	2.404570 
1926.000000	2.402877 
1925.000000	2.401161 
1924.000000	2.399563 
1923.000000	2.398014 
1922.000000	2.396559 
1921.000000	2.395224 
1920.000000	2.393960 
1919.000000	2.392792 
1918.000000	2.391624 
1917.000000	2.390456 
1916.000000	2.389335 
1915.000000	2.388167 
1914.000000	2.387070 
1913.000000	2.385973 
1912.000000	2.385020 
1911.000000	2.384161 
1910.000000	2.383399 
1909.000000	2.382707 
1908.000000	2.382087 
1907.000000	2.381539 
1906.000000	2.381014 
1905.000000	2.380490 
1904.000000	2.379918 
1903.000000	2.379322 
1902.000000	2.378678 
1901.000000	2.378010 
1900.000000	2.377247 
1899.000000	2.376484 
1898.000000	2.375769 
1897.000000	2.375054 
1896.000000	2.374362 
1895.000000	2.373790 
1894.000000	2.373290 
1893.000000	2.372908 
1892.000000	2.372622 
1891.000000	2.372503 
1890.000000	2.372479 
1889.000000	2.372550 
1888.000000	2.372789 
1887.000000	2.373099 
1886.000000	2.373456 
1885.000000	2.373814 
1884.000000	2.374196 
1883.000000	2.374529 
1882.000000	2.374911 
1881.000000	2.375245 
1880.000000	2.375555 
1879.000000	2.375936 
1878.000000	2.376341 
1877.000000	2.376818 
1876.000000	2.377319 
1875.000000	2.377843 
1874.000000	2.378392 
1873.000000	2.378940 
1872.000000	2.379536 
1871.000000	2.380204 
1870.000000	2.380967 
1869.000000	2.381873 
1868.000000	2.382922 
1867.000000	2.384185 
1866.000000	2.385544 
1865.000000	2.386903 
1864.000000	2.388215 
1863.000000	2.389359 
1862.000000	2.390313 
1861.000000	2.391052 
1860.000000	2.391552 
1859.000000	2.391886 
1858.000000	2.392125 
1857.000000	2.392292 
1856.000000	2.392482 
1855.000000	2.392697 
1854.000000	2.392935 
1853.000000	2.393174 
1852.000000	2.393388 
1851.000000	2.393531 
1850.000000	2.393603 
1849.000000	2.393651 
1848.000000	2.393722 
1847.000000	2.393937 
1846.000000	2.394366 
1845.000000	2.395129 
1844.000000	2.396297 
1843.000000	2.397847 
1842.000000	2.399682 
1841.000000	2.401733 
1840.000000	2.403759 
1839.000000	2.405643 
1838.000000	2.407193 
1837.000000	2.408337 
1836.000000	2.408981 
1835.000000	2.409148 
1834.000000	2.409029 
1833.000000	2.408695 
1832.000000	2.408385 
1831.000000	2.408218 
1830.000000	2.408313 
1829.000000	2.408719 
1828.000000	2.409482 
1827.000000	2.410554 
1826.000000	2.411842 
1825.000000	2.413320 
1824.000000	2.414822 
1823.000000	2.416419 
1822.000000	2.417993 
1821.000000	2.419543 
1820.000000	2.421045 
1819.000000	2.422547 
1818.000000	2.424025 
1817.000000	2.425503 
1816.000000	2.426981 
1815.000000	2.428483 
1814.000000	2.429914 
1813.000000	2.431297 
1812.000000	2.432608 
1811.000000	2.433705 
1810.000000	2.434611 
1809.000000	2.435278 
1808.000000	2.435660 
1807.000000	2.435755 
1806.000000	2.435564 
1805.000000	2.435159 
1804.000000	2.434611 
1803.000000	2.433919 
1802.000000	2.433180 
1801.000000	2.432417 
1800.000000	2.431750 
1799.000000	2.431154 
1798.000000	2.430677 
1797.000000	2.430343 
1796.000000	2.430200 
1795.000000	2.430272 
1794.000000	2.430510 
1793.000000	2.430939 
1792.000000	2.431488 
1791.000000	2.432131 
1790.000000	2.432775 
1789.000000	2.433371 
1788.000000	2.433753 
1787.000000	2.433967 
1786.000000	2.433872 
1785.000000	2.433633 
1784.000000	2.433133 
1783.000000	2.432417 
1782.000000	2.431511 
1781.000000	2.430367 
1780.000000	2.428984 
1779.000000	2.427315 
1778.000000	2.425312 
1777.000000	2.423119 
1776.000000	2.420783 
1775.000000	2.418494 
1774.000000	2.416491 
1773.000000	2.414941 
1772.000000	2.413940 
1771.000000	2.413535 
1770.000000	2.413654 
1769.000000	2.414155 
1768.000000	2.414822 
1767.000000	2.415418 
1766.000000	2.415800 
1765.000000	2.415847 
1764.000000	2.415513 
1763.000000	2.414846 
1762.000000	2.413845 
1761.000000	2.412581 
1760.000000	2.411055 
1759.000000	2.409267 
1758.000000	2.407097 
1757.000000	2.404618 
1756.000000	2.401757 
1755.000000	2.398562 
1754.000000	2.395153 
1753.000000	2.391624 
1752.000000	2.388119 
1751.000000	2.384805 
1750.000000	2.381706 
1749.000000	2.378797 
1748.000000	2.376103 
1747.000000	2.373504 
1746.000000	2.370834 
1745.000000	2.367973 
1744.000000	2.364850 
1743.000000	2.361392 
1742.000000	2.357554 
1741.000000	2.353429 
1740.000000	2.349066 
1739.000000	2.344727 
1738.000000	2.340602 
1737.000000	2.336883 
1736.000000	2.333807 
1735.000000	2.331519 
1734.000000	2.330160 
1733.000000	2.329587 
1732.000000	2.329659 
1731.000000	2.330183 
1730.000000	2.330827 
1729.000000	2.331280 
1728.000000	2.331328 
1727.000000	2.330684 
1726.000000	2.329325 
1725.000000	2.327179 
1724.000000	2.324342 
1723.000000	2.320933 
1722.000000	2.317142 
1721.000000	2.313208 
1720.000000	2.309441 
1719.000000	2.306008 
1718.000000	2.303171 
1717.000000	2.301025 
1716.000000	2.299618 
1715.000000	2.298855 
1714.000000	2.298545 
1713.000000	2.298426 
1712.000000	2.298307 
1711.000000	2.297782 
1710.000000	2.296710 
1709.000000	2.294993 
1708.000000	2.292561 
1707.000000	2.289414 
1706.000000	2.285671 
1705.000000	2.281475 
1704.000000	2.276897 
1703.000000	2.272248 
1702.000000	2.267694 
1701.000000	2.263498 
1700.000000	2.259922 
1699.000000	2.257227 
1698.000000	2.255535 
1697.000000	2.254891 
1696.000000	2.255177 
1695.000000	2.256178 
1694.000000	2.257466 
1693.000000	2.258610 
1692.000000	2.259182 
1691.000000	2.258944 
1690.000000	2.257704 
1689.000000	2.255630 
1688.000000	2.252864 
1687.000000	2.249860 
1686.000000	2.246952 
1685.000000	2.244544 
1684.000000	2.242803 
1683.000000	2.241778 
1682.000000	2.241301 
1681.000000	2.241110 
1680.000000	2.240943 
1679.000000	2.240514 
1678.000000	2.239632 
1677.000000	2.238249 
1676.000000	2.236390 
1675.000000	2.234315 
1674.000000	2.232098 
1673.000000	2.230000 
1672.000000	2.228045 
1671.000000	2.226352 
1670.000000	2.224874 
1669.000000	2.223563 
1668.000000	2.222371 
1667.000000	2.221226 
1666.000000	2.220058 
1665.000000	2.218818 
1664.000000	2.217340 
1663.000000	2.215504 
1662.000000	2.213072 
1661.000000	2.209949 
1660.000000	2.205944 
1659.000000	2.201080 
1658.000000	2.195453 
1657.000000	2.189326 
1656.000000	2.183079 
1655.000000	2.177166 
1654.000000	2.172064 
1653.000000	2.167987 
1652.000000	2.165174 
1651.000000	2.163600 
1650.000000	2.163147 
1649.000000	2.163529 
1648.000000	2.164363 
1647.000000	2.165341 
1646.000000	2.166128 
1645.000000	2.166461 
1644.000000	2.166080 
1643.000000	2.164864 
1642.000000	2.162766 
1641.000000	2.159905 
1640.000000	2.156400 
1639.000000	2.152490 
1638.000000	2.148532 
1637.000000	2.144837 
1636.000000	2.141618 
1635.000000	2.139067 
1634.000000	2.137160 
1633.000000	2.135729 
1632.000000	2.134490 
1631.000000	2.133226 
1630.000000	2.131533 
1629.000000	2.129268 
1628.000000	2.126312 
1627.000000	2.122569 
1626.000000	2.118110 
1625.000000	2.112936 
1624.000000	2.107119 
1623.000000	2.100706 
1622.000000	2.093720 
1621.000000	2.086162 
1620.000000	2.078056 
1619.000000	2.069354 
1618.000000	2.060127 
1617.000000	2.050471 
1616.000000	2.040410 
1615.000000	2.030110 
1614.000000	2.019786 
1613.000000	2.009701 
1612.000000	2.000164 
1611.000000	1.991558 
1610.000000	1.984238 
1609.000000	1.978564 
1608.000000	1.974725 
1607.000000	1.972842 
1606.000000	1.972818 
1605.000000	1.974487 
1604.000000	1.977396 
1603.000000	1.981258 
1602.000000	1.985597 
1601.000000	1.990079 
1600.000000	1.994442 
1599.000000	1.998543 
1598.000000	2.002286 
1597.000000	2.005672 
1596.000000	2.008628 
1595.000000	2.011156 
1594.000000	2.013278 
1593.000000	2.014946 
1592.000000	2.016067 
1591.000000	2.016687 
1590.000000	2.016830 
1589.000000	2.016448 
1588.000000	2.015662 
1587.000000	2.014493 
1586.000000	2.012968 
1585.000000	2.011084 
1584.000000	2.008843 
1583.000000	2.006268 
1582.000000	2.003502 
1581.000000	2.000617 
1580.000000	1.997733 
1579.000000	1.995038 
1578.000000	1.992654 
1577.000000	1.990652 
1576.000000	1.989078 
1575.000000	1.987838 
1574.000000	1.986885 
1573.000000	1.986026 
1572.000000	1.985120 
1571.000000	1.983976 
1570.000000	1.982426 
1569.000000	1.980257 
1568.000000	1.977324 
1567.000000	1.973509 
1566.000000	1.968717 
1565.000000	1.963090 
1564.000000	1.956796 
1563.000000	1.950240 
1562.000000	1.943826 
1561.000000	1.938176 
1560.000000	1.933836 
1559.000000	1.931238 
1558.000000	1.930546 
1557.000000	1.931810 
1556.000000	1.934719 
1555.000000	1.938843 
1554.000000	1.943564 
1553.000000	1.948332 
1552.000000	1.952552 
1551.000000	1.955914 
1550.000000	1.958155 
1549.000000	1.959300 
1548.000000	1.959514 
1547.000000	1.959085 
1546.000000	1.958537 
1545.000000	1.958394 
1544.000000	1.959276 
1543.000000	1.961660 
1542.000000	1.966023 
1541.000000	1.972556 
1540.000000	1.981306 
1539.000000	1.992034 
1538.000000	2.004361 
1537.000000	2.017688 
1536.000000	2.031373 
1535.000000	2.044844 
1534.000000	2.057623 
1533.000000	2.069234 
1532.000000	2.079439 
1531.000000	2.088165 
1530.000000	2.095460 
1529.000000	2.101230 
1528.000000	2.105641 
1527.000000	2.108860 
1526.000000	2.111029 
1525.000000	2.112340 
1524.000000	2.112984 
1523.000000	2.113103 
1522.000000	2.112889 
1521.000000	2.112483 
1520.000000	2.111864 
1519.000000	2.111029 
1518.000000	2.109980 
1517.000000	2.108573 
1516.000000	2.106738 
1515.000000	2.104306 
1514.000000	2.101206 
1513.000000	2.097368 
1512.000000	2.092814 
1511.000000	2.087354 
1510.000000	2.080988 
1509.000000	2.073335 
1508.000000	2.064037 
1507.000000	2.052307 
1506.000000	2.037405 
1505.000000	2.018380 
1504.000000	1.994490 
1503.000000	1.965284 
1502.000000	1.930809 
1501.000000	1.891851 
1500.000000	1.849913 
1499.000000	1.807236 
1498.000000	1.766371 
1497.000000	1.730132 
1496.000000	1.701116 
1495.000000	1.681303 
1494.000000	1.671814 
1493.000000	1.672840 
1492.000000	1.683712 
1491.000000	1.702880 
1490.000000	1.728343 
1489.000000	1.757717 
1488.000000	1.789021 
1487.000000	1.820206 
1486.000000	1.849746 
1485.000000	1.876473 
1484.000000	1.899814 
1483.000000	1.919484 
1482.000000	1.935482 
1481.000000	1.947951 
1480.000000	1.957273 
1479.000000	1.964020 
1478.000000	1.968598 
1477.000000	1.971507 
1476.000000	1.973128 
1475.000000	1.973843 
1474.000000	1.973915 
1473.000000	1.973462 
1472.000000	1.972436 
1471.000000	1.970887 
1470.000000	1.968765 
1469.000000	1.965832 
1468.000000	1.961994 
1467.000000	1.957154 
1466.000000	1.951193 
1465.000000	1.943826 
1464.000000	1.934862 
1463.000000	1.924133 
1462.000000	1.911497 
1461.000000	1.896858 
1460.000000	1.880335 
1459.000000	1.862192 
1458.000000	1.843047 
1457.000000	1.823806 
1456.000000	1.805400 
1455.000000	1.788878 
1454.000000	1.775336 
1453.000000	1.765799 
1452.000000	1.760745 
1451.000000	1.760411 
1450.000000	1.764655 
1449.000000	1.772832 
1448.000000	1.783943 
1447.000000	1.796793 
1446.000000	1.810193 
1445.000000	1.823043 
1444.000000	1.834487 
1443.000000	1.843976 
1442.000000	1.851344 
1441.000000	1.856708 
1440.000000	1.860404 
1439.000000	1.862859 
1438.000000	1.864480 
1437.000000	1.865649 
1436.000000	1.866531 
1435.000000	1.867246 
1434.000000	1.867794 
1433.000000	1.868200 
1432.000000	1.868438 
1431.000000	1.868486 
1430.000000	1.868271 
1429.000000	1.867866 
1428.000000	1.867270 
1427.000000	1.866531 
1426.000000	1.865482 
1425.000000	1.864171 
1424.000000	1.862668 
1423.000000	1.860928 
1422.000000	1.858973 
1421.000000	1.856851 
1420.000000	1.854681 
1419.000000	1.852440 
1418.000000	1.850008 
1417.000000	1.847171 
1416.000000	1.843690 
1415.000000	1.839232 
1414.000000	1.833415 
1413.000000	1.825976 
1412.000000	1.816749 
1411.000000	1.805830 
1410.000000	1.793456 
1409.000000	1.780223 
1408.000000	1.766729 
1407.000000	1.753902 
1406.000000	1.742577 
1405.000000	1.733422 
1404.000000	1.727056 
1403.000000	1.723814 
1402.000000	1.723647 
1401.000000	1.726365 
1400.000000	1.731514 
1399.000000	1.738548 
1398.000000	1.746702 
1397.000000	1.755380 
1396.000000	1.763916 
1395.000000	1.771736 
1394.000000	1.778388 
1393.000000	1.783585 
1392.000000	1.787114 
1391.000000	1.788997 
1390.000000	1.789402 
1389.000000	1.788711 
1388.000000	1.787376 
1387.000000	1.785898 
1386.000000	1.784873 
1385.000000	1.784682 
1384.000000	1.785492 
1383.000000	1.787424 
1382.000000	1.790285 
1381.000000	1.793742 
1380.000000	1.797485 
1379.000000	1.801109 
1378.000000	1.804375 
1377.000000	1.807117 
1376.000000	1.809310 
1375.000000	1.811003 
1374.000000	1.812410 
1373.000000	1.813530 
1372.000000	1.814532 
1371.000000	1.815390 
1370.000000	1.816129 
1369.000000	1.816701 
1368.000000	1.817083 
1367.000000	1.817226 
1366.000000	1.817202 
1365.000000	1.817059 
1364.000000	1.816868 
1363.000000	1.816678 
1362.000000	1.816511 
1361.000000	1.816439 
1360.000000	1.816415 
1359.000000	1.816368 
1358.000000	1.816320 
1357.000000	1.816201 
1356.000000	1.816034 
1355.000000	1.815795 
1354.000000	1.815509 
1353.000000	1.815176 
1352.000000	1.814866 
1351.000000	1.814603 
1350.000000	1.814413 
1349.000000	1.814317 
1348.000000	1.814246 
1347.000000	1.814270 
1346.000000	1.814365 
1345.000000	1.814556 
1344.000000	1.814866 
1343.000000	1.815319 
1342.000000	1.816010 
1341.000000	1.817035 
1340.000000	1.818442 
1339.000000	1.820182 
1338.000000	1.822280 
1337.000000	1.824665 
1336.000000	1.827192 
1335.000000	1.829791 
1334.000000	1.832365 
1333.000000	1.834797 
1332.000000	1.837062 
1331.000000	1.839137 
1330.000000	1.841020 
1329.000000	1.842761 
1328.000000	1.844334 
1327.000000	1.845788 
1326.000000	1.847076 
1325.000000	1.848220 
1324.000000	1.849150 
1323.000000	1.849961 
1322.000000	1.850557 
1321.000000	1.851034 
1320.000000	1.851415 
1319.000000	1.851844 
1318.000000	1.852273 
1317.000000	1.852726 
1316.000000	1.853251 
1315.000000	1.853799 
1314.000000	1.854300 
1313.000000	1.854729 
1312.000000	1.855063 
1311.000000	1.855254 
1310.000000	1.855325 
1309.000000	1.855301 
1308.000000	1.855254 
1307.000000	1.855230 
1306.000000	1.855254 
1305.000000	1.855349 
1304.000000	1.855516 
1303.000000	1.855731 
1302.000000	1.856017 
1301.000000	1.856255 
1300.000000	1.856493 
1299.000000	1.856708 
1298.000000	1.856970 
1297.000000	1.857209 
1296.000000	1.857447 
1295.000000	1.857757 
1294.000000	1.858043 
1293.000000	1.858329 
1292.000000	1.858592 
1291.000000	1.858758 
1290.000000	1.858830 
1289.000000	1.858711 
1288.000000	1.858353 
1287.000000	1.857757 
1286.000000	1.856875 
1285.000000	1.855731 
1284.000000	1.854276 
1283.000000	1.852536 
1282.000000	1.850557 
1281.000000	1.848292 
1280.000000	1.845765 
1279.000000	1.842880 
1278.000000	1.839566 
1277.000000	1.835775 
1276.000000	1.831340 
1275.000000	1.826190 
1274.000000	1.820158 
1273.000000	1.813125 
1272.000000	1.805019 
1271.000000	1.795816 
1270.000000	1.785612 
1269.000000	1.774644 
1268.000000	1.763272 
1267.000000	1.751923 
1266.000000	1.741218 
1265.000000	1.731848 
1264.000000	1.724338 
1263.000000	1.719260 
1262.000000	1.716995 
1261.000000	1.717710 
1260.000000	1.721358 
1259.000000	1.727676 
1258.000000	1.736140 
1257.000000	1.746177 
1256.000000	1.757073 
1255.000000	1.768183 
1254.000000	1.779007 
1253.000000	1.789069 
1252.000000	1.798081 
1251.000000	1.805877 
1250.000000	1.812529 
1249.000000	1.818060 
1248.000000	1.822566 
1247.000000	1.826214 
1246.000000	1.829099 
1245.000000	1.831316 
1244.000000	1.832962 
1243.000000	1.834106 
1242.000000	1.834845 
1241.000000	1.835227 
1240.000000	1.835298 
1239.000000	1.835155 
1238.000000	1.834774 
1237.000000	1.834201 
1236.000000	1.833462 
1235.000000	1.832556 
1234.000000	1.831531 
1233.000000	1.830315 
1232.000000	1.828980 
1231.000000	1.827502 
1230.000000	1.825904 
1229.000000	1.824188 
1228.000000	1.822328 
1227.000000	1.820278 
1226.000000	1.817989 
1225.000000	1.815414 
1224.000000	1.812505 
1223.000000	1.809239 
1222.000000	1.805615 
1221.000000	1.801609 
1220.000000	1.797270 
1219.000000	1.792621 
1218.000000	1.787734 
1217.000000	1.782655 
1216.000000	1.777505 
1215.000000	1.772451 
1214.000000	1.767539 
1213.000000	1.762914 
1212.000000	1.758670 
1211.000000	1.754903 
1210.000000	1.751685 
1209.000000	1.749110 
1208.000000	1.747083 
1207.000000	1.745629 
1206.000000	1.744699 
1205.000000	1.744246 
1204.000000	1.744103 
1203.000000	1.744198 
1202.000000	1.744437 
1201.000000	1.744651 
1200.000000	1.744794 
1199.000000	1.744771 
1198.000000	1.744461 
1197.000000	1.743912 
1196.000000	1.743078 
1195.000000	1.742005 
1194.000000	1.740717 
1193.000000	1.739215 
1192.000000	1.737499 
1191.000000	1.735615 
1190.000000	1.733565 
1189.000000	1.731300 
1188.000000	1.728820 
1187.000000	1.726174 
1186.000000	1.723456 
1185.000000	1.720666 
1184.000000	1.717925 
1183.000000	1.715278 
1182.000000	1.712775 
1181.000000	1.710367 
1180.000000	1.708078 
1179.000000	1.705765 
1178.000000	1.703405 
1177.000000	1.700925 
1176.000000	1.698255 
1175.000000	1.695275 
1174.000000	1.691985 
1173.000000	1.688337 
1172.000000	1.684355 
1171.000000	1.680040 
1170.000000	1.675438 
1169.000000	1.670646 
1168.000000	1.665687 
1167.000000	1.660656 
1166.000000	1.655578 
1165.000000	1.650547 
1164.000000	1.645612 
1163.000000	1.640844 
1162.000000	1.636338 
1161.000000	1.632165 
1160.000000	1.628398 
1159.000000	1.625061 
1158.000000	1.622176 
1157.000000	1.619672 
1156.000000	1.617574 
1155.000000	1.615762 
1154.000000	1.614165 
1153.000000	1.612663 
1152.000000	1.611208 
1151.000000	1.609683 
1150.000000	1.608085 
1149.000000	1.606369 
1148.000000	1.604437 
1147.000000	1.602339 
1146.000000	1.600098 
1145.000000	1.597666 
1144.000000	1.595091 
1143.000000	1.592373 
1142.000000	1.589512 
1141.000000	1.586556 
1140.000000	1.583480 
1139.000000	1.580309 
1138.000000	1.577043 
1137.000000	1.573681 
1136.000000	1.570177 
1135.000000	1.566576 
1134.000000	1.562857 
1133.000000	1.559042 
1132.000000	1.555180 
1131.000000	1.551246 
1130.000000	1.547241 
1129.000000	1.543092 
1128.000000	1.538848 
1127.000000	1.534485 
1126.000000	1.529908 
1125.000000	1.525115 
1124.000000	1.520156 
1123.000000	1.514959 
1122.000000	1.509571 
1121.000000	1.504039 
1120.000000	1.498365 
1119.000000	1.492619 
1118.000000	1.486802 
1117.000000	1.481008 
1116.000000	1.475214 
1115.000000	1.469516 
1114.000000	1.463937 
1113.000000	1.458549 
1112.000000	1.453399 
1111.000000	1.448559 
1110.000000	1.444077 
1109.000000	1.439976 
1108.000000	1.436281 
1107.000000	1.433014 
1106.000000	1.430201 
1105.000000	1.427841 
1104.000000	1.425909 
1103.000000	1.424455 
1102.000000	1.423358 
1101.000000	1.422691 
1100.000000	1.422333 
1099.000000	1.422262 
1098.000000	1.422381 
1097.000000	1.422595 
1096.000000	1.422929 
1095.000000	1.423287 
1094.000000	1.423645 
1093.000000	1.424002 
1092.000000	1.424384 
1091.000000	1.424813 
1090.000000	1.425266 
1089.000000	1.425766 
1088.000000	1.426315 
1087.000000	1.426839 
1086.000000	1.427316 
1085.000000	1.427698 
1084.000000	1.427817 
1083.000000	1.427817 
1082.000000	1.427650 
1081.000000	1.427364 
1080.000000	1.427006 
1079.000000	1.426625 
1078.000000	1.426386 
1077.000000	1.426339 
1076.000000	1.426577 
1075.000000	1.427078 
1074.000000	1.427817 
1073.000000	1.428818 
1072.000000	1.429963 
1071.000000	1.431202 
1070.000000	1.432466 
1069.000000	1.433658 
1068.000000	1.434779 
1067.000000	1.435685 
1066.000000	1.436376 
1065.000000	1.436710 
1064.000000	1.436448 
1063.000000	1.435256 
1062.000000	1.432847 
1061.000000	1.428747 
1060.000000	1.422500 
1059.000000	1.413774 
1058.000000	1.402425 
1057.000000	1.388669 
1056.000000	1.373004 
1055.000000	1.356315 
1054.000000	1.339769 
1053.000000	1.324725 
1052.000000	1.312446 
1051.000000	1.304030 
1050.000000	1.300096 
1049.000000	1.300787 
1048.000000	1.305818 
1047.000000	1.314258 
1046.000000	1.325058 
1045.000000	1.336908 
1044.000000	1.348662 
1043.000000	1.359295 
1042.000000	1.368236 
1041.000000	1.375126 
1040.000000	1.379966 
1039.000000	1.382970 
1038.000000	1.384496 
1037.000000	1.384830 
1036.000000	1.384353 
1035.000000	1.383376 
1034.000000	1.382064 
1033.000000	1.380538 
1032.000000	1.378917 
1031.000000	1.377201 
1030.000000	1.375412 
1029.000000	1.373529 
1028.000000	1.371622 
1027.000000	1.369714 
1026.000000	1.367783 
1025.000000	1.365900 
1024.000000	1.364159 
1023.000000	1.362681 
1022.000000	1.361584 
1021.000000	1.360917 
1020.000000	1.360774 
1019.000000	1.361250 
1018.000000	1.362299 
1017.000000	1.363873 
1016.000000	1.365900 
1015.000000	1.368260 
1014.000000	1.370882 
1013.000000	1.373648 
1012.000000	1.376461 
1011.000000	1.379227 
1010.000000	1.381969 
1009.000000	1.384592 
1008.000000	1.387095 
1007.000000	1.389455 
1006.000000	1.391696 
1005.000000	1.393795 
1004.000000	1.395726 
1003.000000	1.397490 
1002.000000	1.398992 
1001.000000	1.400327 
1000.000000	1.401352 
999.000000	 1.401996 
998.000000	 1.402235 
997.000000	 1.402020 
996.000000	 1.401329 
995.000000	 1.400184 
994.000000	 1.398658 
993.000000	 1.396846 
992.000000	 1.394844 
991.000000	 1.392769 
990.000000	 1.390719 
989.000000	 1.388716 
988.000000	 1.386833 
987.000000	 1.385068 
986.000000	 1.383447 
985.000000	 1.381921 
984.000000	 1.380443 
983.000000	 1.379013 
982.000000	 1.377582 
981.000000	 1.376080 
980.000000	 1.374459 
979.000000	 1.372694 
978.000000	 1.370739 
977.000000	 1.368594 
976.000000	 1.366233 
975.000000	 1.363778 
974.000000	 1.361131 
973.000000	 1.358389 
972.000000	 1.355576 
971.000000	 1.352691 
970.000000	 1.349711 
969.000000	 1.346635 
968.000000	 1.343441 
967.000000	 1.340103 
966.000000	 1.336622 
965.000000	 1.333022 
964.000000	 1.329326 
963.000000	 1.325607 
962.000000	 1.321840 
961.000000	 1.318097 
960.000000	 1.314449 
959.000000	 1.310825 
958.000000	 1.307225 
957.000000	 1.303672 
956.000000	 1.300168 
955.000000	 1.296639 
954.000000	 1.293158 
953.000000	 1.289749 
952.000000	 1.286458 
951.000000	 1.283288 
950.000000	 1.280260 
949.000000	 1.277375 
948.000000	 1.274728 
947.000000	 1.272273 
946.000000	 1.270031 
945.000000	 1.268005 
944.000000	 1.266193 
943.000000	 1.264572 
942.000000	 1.263070 
941.000000	 1.261615 
940.000000	 1.260137 
939.000000	 1.258516 
938.000000	 1.256704 
937.000000	 1.254630 
936.000000	 1.252293 
935.000000	 1.249718 
934.000000	 1.246976 
933.000000	 1.244139 
932.000000	 1.241278 
931.000000	 1.238489 
930.000000	 1.235795 
929.000000	 1.233220 
928.000000	 1.230859 
927.000000	 1.228642 
926.000000	 1.226520 
925.000000	 1.224493 
924.000000	 1.222467 
923.000000	 1.220417 
922.000000	 1.218271 
921.000000	 1.215958 
920.000000	 1.213455 
919.000000	 1.210665 
918.000000	 1.207590 
917.000000	 1.204156 
916.000000	 1.200437 
915.000000	 1.196432 
914.000000	 1.192235 
913.000000	 1.187920 
912.000000	 1.183581 
911.000000	 1.179313 
910.000000	 1.175236 
909.000000	 1.171398 
908.000000	 1.167821 
907.000000	 1.164603 
906.000000	 1.161789 
905.000000	 1.159381 
904.000000	 1.157426 
903.000000	 1.155972 
902.000000	 1.154923 
901.000000	 1.154160 
900.000000	 1.153588 
899.000000	 1.153111 
898.000000	 1.152586 
897.000000	 1.151823 
896.000000	 1.150774 
895.000000	 1.149415 
894.000000	 1.147651 
893.000000	 1.145386 
892.000000	 1.142621 
891.000000	 1.139259 
890.000000	 1.135110 
889.000000	 1.130080 
888.000000	 1.124143 
887.000000	 1.117229 
886.000000	 1.109361 
885.000000	 1.100635 
884.000000	 1.091313 
883.000000	 1.081609 
882.000000	 1.071906 
881.000000	 1.062560 
880.000000	 1.053905 
879.000000	 1.046299 
878.000000	 1.040029 
877.000000	 1.035356 
876.000000	 1.032447 
875.000000	 1.031351 
874.000000	 1.032090 
873.000000	 1.034498 
872.000000	 1.038384 
871.000000	 1.043462 
870.000000	 1.049399 
869.000000	 1.055812 
868.000000	 1.062440 
867.000000	 1.068973 
866.000000	 1.075220 
865.000000	 1.080942 
864.000000	 1.086091 
863.000000	 1.090550 
862.000000	 1.094245 
861.000000	 1.097130 
860.000000	 1.099205 
859.000000	 1.100492 
858.000000	 1.100969 
857.000000	 1.100683 
856.000000	 1.099705 
855.000000	 1.098179 
854.000000	 1.096248 
853.000000	 1.094079 
852.000000	 1.091790 
851.000000	 1.089477 
850.000000	 1.087307 
849.000000	 1.085233 
848.000000	 1.083183 
847.000000	 1.081109 
846.000000	 1.078867 
845.000000	 1.076364 
844.000000	 1.073455 
843.000000	 1.069927 
842.000000	 1.065731 
841.000000	 1.060795 
840.000000	 1.054978 
839.000000	 1.048135 
838.000000	 1.040124 
837.000000	 1.030850 
836.000000	 1.020026 
835.000000	 1.007485 
834.000000	 0.993156 
833.000000	 0.977015 
832.000000	 0.959277 
831.000000	 0.940322 
830.000000	 0.920844 
829.000000	 0.901675 
828.000000	 0.883841 
827.000000	 0.868344 
826.000000	 0.856113 
825.000000	 0.847864 
824.000000	 0.844001 
823.000000	 0.844573 
822.000000	 0.849199 
821.000000	 0.857234 
820.000000	 0.867772 
819.000000	 0.879812 
818.000000	 0.892329 
817.000000	 0.904440 
816.000000	 0.915479 
815.000000	 0.924992 
814.000000	 0.932765 
813.000000	 0.938701 
812.000000	 0.943040 
811.000000	 0.945949 
810.000000	 0.947737 
809.000000	 0.948619 
808.000000	 0.949001 
807.000000	 0.948977 
806.000000	 0.948739 
805.000000	 0.948381 
804.000000	 0.948071 
803.000000	 0.947880 
802.000000	 0.947809 
801.000000	 0.947856 
800.000000	 0.948095 
799.000000	 0.948500 
798.000000	 0.949144 
797.000000	 0.950026 
796.000000	 0.951242 
795.000000	 0.952816 
794.000000	 0.954699 
793.000000	 0.957012 
792.000000	 0.959610 
791.000000	 0.962424 
790.000000	 0.965332 
789.000000	 0.968170 
788.000000	 0.970792 
787.000000	 0.973033 
786.000000	 0.974845 
785.000000	 0.976181 
784.000000	 0.976991 
783.000000	 0.977396 
782.000000	 0.977516 
781.000000	 0.977492 
780.000000	 0.977325 
779.000000	 0.977206 
778.000000	 0.977134 
777.000000	 0.977087 
776.000000	 0.977015 
775.000000	 0.976920 
774.000000	 0.976657 
773.000000	 0.976157 
772.000000	 0.975441 
771.000000	 0.974535 
770.000000	 0.973486 
769.000000	 0.972437 
768.000000	 0.971412 
767.000000	 0.970482 
766.000000	 0.969672 
765.000000	 0.969004 
764.000000	 0.968337 
763.000000	 0.967693 
762.000000	 0.966954 
761.000000	 0.966095 
760.000000	 0.965118 
759.000000	 0.964045 
758.000000	 0.962924 
757.000000	 0.961709 
756.000000	 0.960469 
755.000000	 0.959157 
754.000000	 0.957798 
753.000000	 0.956225 
752.000000	 0.954461 
751.000000	 0.952434 
750.000000	 0.950121 
749.000000	 0.947642 
748.000000	 0.945019 
747.000000	 0.942349 
746.000000	 0.939726 
745.000000	 0.937199 
744.000000	 0.934815 
743.000000	 0.932621 
742.000000	 0.930619 
741.000000	 0.928735 
740.000000	 0.926995 
739.000000	 0.925278 
738.000000	 0.923609 
737.000000	 0.921964 
736.000000	 0.920295 
735.000000	 0.918650 
734.000000	 0.917005 
733.000000	 0.915312 
732.000000	 0.913572 
731.000000	 0.911760 
730.000000	 0.909733 
729.000000	 0.907492 
728.000000	 0.904965 
727.000000	 0.902128 
726.000000	 0.899004 
725.000000	 0.895690 
724.000000	 0.892281 
723.000000	 0.888872 
722.000000	 0.885558 
721.000000	 0.882458 
720.000000	 0.879597 
719.000000	 0.876975 
718.000000	 0.874543 
717.000000	 0.872254 
716.000000	 0.870013 
715.000000	 0.867748 
714.000000	 0.865364 
713.000000	 0.862765 
712.000000	 0.859951 
711.000000	 0.856876 
710.000000	 0.853514 
709.000000	 0.849914 
708.000000	 0.846099 
707.000000	 0.842070 
706.000000	 0.837969 
705.000000	 0.833773 
704.000000	 0.829505 
703.000000	 0.825214 
702.000000	 0.820875 
701.000000	 0.816464 
700.000000	 0.811958 
699.000000	 0.807166 
698.000000	 0.802016 
697.000000	 0.796365 
696.000000	 0.790071 
695.000000	 0.783085 
694.000000	 0.775527 
693.000000	 0.767517 
692.000000	 0.759410 
691.000000	 0.751590 
690.000000	 0.744557 
689.000000	 0.738668 
688.000000	 0.734257 
687.000000	 0.731492 
686.000000	 0.730323 
685.000000	 0.730514 
684.000000	 0.731682 
683.000000	 0.733399 
682.000000	 0.735187 
681.000000	 0.736689 
680.000000	 0.737571 
679.000000	 0.737762 
678.000000	 0.737214 
677.000000	 0.736069 
676.000000	 0.734376 
675.000000	 0.732302 
674.000000	 0.729966 
673.000000	 0.727438 
672.000000	 0.724816 
671.000000	 0.722146 
670.000000	 0.719475 
669.000000	 0.716876 
668.000000	 0.714397 
667.000000	 0.712108 
666.000000	 0.710034 
665.000000	 0.708198 
664.000000	 0.706505 
663.000000	 0.704932 
662.000000	 0.703334 
661.000000	 0.701642 
660.000000	 0.699782 
659.000000	 0.697684 
658.000000	 0.695323 
657.000000	 0.692701 
656.000000	 0.689840 
655.000000	 0.686836 
654.000000	 0.683712 
653.000000	 0.680541 
652.000000	 0.677394 
651.000000	 0.674319 
650.000000	 0.671362 
649.000000	 0.668525 
648.000000	 0.665831 
647.000000	 0.663280 
646.000000	 0.660872 
645.000000	 0.658488 
644.000000	 0.656151 
643.000000	 0.653743 
642.000000	 0.651168 
641.000000	 0.648427 
640.000000	 0.645518 
639.000000	 0.642466 
638.000000	 0.639271 
637.000000	 0.636076 
636.000000	 0.632905 
635.000000	 0.629806 
634.000000	 0.626921 
633.000000	 0.624203 
632.000000	 0.621700 
631.000000	 0.619292 
630.000000	 0.617003 
629.000000	 0.614738 
628.000000	 0.612473 
627.000000	 0.610184 
626.000000	 0.607800 
625.000000	 0.605320 
624.000000	 0.602746 
623.000000	 0.600051 
622.000000	 0.597262 
621.000000	 0.594377 
620.000000	 0.591325 
619.000000	 0.588130 
618.000000	 0.584745 
617.000000	 0.581121 
616.000000	 0.577211 
615.000000	 0.572943 
614.000000	 0.568318 
613.000000	 0.563335 
612.000000	 0.558018 
611.000000	 0.552535 
610.000000	 0.547003 
609.000000	 0.541687 
608.000000	 0.536775 
607.000000	 0.532460 
606.000000	 0.528979 
605.000000	 0.526452 
604.000000	 0.524806 
603.000000	 0.524020 
602.000000	 0.523805 
601.000000	 0.523996 
600.000000	 0.524282 
599.000000	 0.524520 
598.000000	 0.524497 
597.000000	 0.524163 
596.000000	 0.523400 
595.000000	 0.522375 
594.000000	 0.521111 
593.000000	 0.519728 
592.000000	 0.518298 
591.000000	 0.516891 
590.000000	 0.515508 
589.000000	 0.514221 
588.000000	 0.513029 
587.000000	 0.511908 
586.000000	 0.510907 
585.000000	 0.509977 
584.000000	 0.509119 
583.000000	 0.508332 
582.000000	 0.507545 
581.000000	 0.506758 
580.000000	 0.505900 
579.000000	 0.504994 
578.000000	 0.503969 
577.000000	 0.502824 
576.000000	 0.501561 
575.000000	 0.500226 
574.000000	 0.498843 
573.000000	 0.497484 
572.000000	 0.496101 
571.000000	 0.494790 
570.000000	 0.493526 
569.000000	 0.492310 
568.000000	 0.491166 
567.000000	 0.490045 
566.000000	 0.488901 
565.000000	 0.487709 
564.000000	 0.486397 
563.000000	 0.485038 
562.000000	 0.483465 
561.000000	 0.481796 
560.000000	 0.479984 
559.000000	 0.478053 
558.000000	 0.476121 
557.000000	 0.474071 
556.000000	 0.472092 
555.000000	 0.470137 
554.000000	 0.468230 
553.000000	 0.466370 
552.000000	 0.464606 
551.000000	 0.462937 
550.000000	 0.461292 
549.000000	 0.459671 
548.000000	 0.458073 
547.000000	 0.456428 
546.000000	 0.454711 
545.000000	 0.452899 
544.000000	 0.451040 
543.000000	 0.449085 
542.000000	 0.447082 
541.000000	 0.445103 
540.000000	 0.443172 
539.000000	 0.441360 
538.000000	 0.439572 
537.000000	 0.437855 
536.000000	 0.436162 
535.000000	 0.434494 
534.000000	 0.432729 
533.000000	 0.430893 
532.000000	 0.428938 
531.000000	 0.426888 
530.000000	 0.424742 
529.000000	 0.422406 
528.000000	 0.419950 
527.000000	 0.417351 
526.000000	 0.414609 
525.000000	 0.411796 
524.000000	 0.408959 
523.000000	 0.406122 
522.000000	 0.403380 
521.000000	 0.400757 
520.000000	 0.398325 
519.000000	 0.396084 
518.000000	 0.394034 
517.000000	 0.392127 
516.000000	 0.390291 
515.000000	 0.388550 
514.000000	 0.386786 
513.000000	 0.385022 
512.000000	 0.383234 
511.000000	 0.381302 
510.000000	 0.379276 
509.000000	 0.377082 
508.000000	 0.374722 
507.000000	 0.372219 
506.000000	 0.369501 
505.000000	 0.366640 
504.000000	 0.363683 
503.000000	 0.360631 
502.000000	 0.357556 
501.000000	 0.354409 
500.000000	 0.351238 
499.000000	 0.347971 
498.000000	 0.344586 
497.000000	 0.341010 
496.000000	 0.337219 
495.000000	 0.333261 
494.000000	 0.329113 
493.000000	 0.324940 
492.000000	 0.320720 
491.000000	 0.316667 
490.000000	 0.312733 
489.000000	 0.309038 
488.000000	 0.305461 
487.000000	 0.302052 
486.000000	 0.298690 
485.000000	 0.295305 
484.000000	 0.291919 
483.000000	 0.288414 
482.000000	 0.284838 
481.000000	 0.281262 
480.000000	 0.277709 
479.000000	 0.274181 
478.000000	 0.270724 
477.000000	 0.267338 
476.000000	 0.264000 
475.000000	 0.260686 
474.000000	 0.257372 
473.000000	 0.254058 
472.000000	 0.250720 
471.000000	 0.247359 
470.000000	 0.244021 
469.000000	 0.240659 
468.000000	 0.237298 
467.000000	 0.233888 
466.000000	 0.230431 
465.000000	 0.226831 
464.000000	 0.223159 
463.000000	 0.219368 
462.000000	 0.215530 
461.000000	 0.211644 
460.000000	 0.207829 
459.000000	 0.204062 
458.000000	 0.200438 
457.000000	 0.196909 
456.000000	 0.193524 
455.000000	 0.190305 
454.000000	 0.187277 
453.000000	 0.184392 
452.000000	 0.181698 
451.000000	 0.179147 
450.000000	 0.176763 
449.000000	 0.174474 
448.000000	 0.172233 
447.000000	 0.169968 
446.000000	 0.167632 
445.000000	 0.165104 
444.000000	 0.162482 
443.000000	 0.159716 
442.000000	 0.156831 
441.000000	 0.153827 
440.000000	 0.150752 
439.000000	 0.147652 
438.000000	 0.144505 
437.000000	 0.141382 
436.000000	 0.138211 
435.000000	 0.135016 
434.000000	 0.131821 
433.000000	 0.128579 
432.000000	 0.125241 
431.000000	 0.121831 
430.000000	 0.118398 
429.000000	 0.114893 
428.000000	 0.111413 
427.000000	 0.107955 
426.000000	 0.104618 
425.000000	 0.101375 
424.000000	 0.098252 
423.000000	 0.095248 
422.000000	 0.092411 
421.000000	 0.089645 
420.000000	 0.086975 
419.000000	 0.084304 
418.000000	 0.081610 
417.000000	 0.078821 
416.000000	 0.075912 
415.000000	 0.072860 
414.000000	 0.069665 
413.000000	 0.066375 
412.000000	 0.063061 
411.000000	 0.059723 
410.000000	 0.056529 
409.000000	 0.053501 
408.000000	 0.050711 
407.000000	 0.048089 
406.000000	 0.045704 
405.000000	 0.043463 
404.000000	 0.041413 
403.000000	 0.039505 
402.000000	 0.037765 
401.000000	 0.036191 
400.000000	 0.034832 
399.000000	 0.033760 
398.000000	 0.032949 
397.000000	 0.032401 
396.000000	 0.032067 
395.000000	 0.031805 
394.000000	 0.031542 
393.000000	 0.031137 
392.000000	 0.030517 
391.000000	 0.029587 
390.000000	 0.028347 
389.000000	 0.026774 
388.000000	 0.025033 
387.000000	 0.023245 
386.000000	 0.021457 
385.000000	 0.019812 
384.000000	 0.018334 
383.000000	 0.017023 
382.000000	 0.015926 
381.000000	 0.014925 
380.000000	 0.014019 
379.000000	 0.013113 
378.000000	 0.012302 
377.000000	 0.011515 
376.000000	 0.010800 
375.000000	 0.010180 
374.000000	 0.009727 
373.000000	 0.009369 
372.000000	 0.009083 
371.000000	 0.008845 
370.000000	 0.008606 

