PE IR       SPECTRUM    SPECTRUM    ASCII       PEDS        1.60        
  -1
C-3BCF~1.ASC
17/03/27
21:45:55.00
17/03/27
21:45:55.00
tln
$C-4040-8_e0126$<ebV0>[-23.3,12.1,10.0,0.0,27,1,0]
370.000000
64









2002,4.07    
MIRTGS : RIGHTBACK : INTERNAL 2
MIR : ON : INTERNAL 2
OPTKBR

0.200000
8
8.000000
FILLER
SINGLE
SPECTRUM
UNLOCKED 256

DOUBLE

COMBINED
1
0
0


1.000000
BACKG


1
0
TRUE
51149
0
LEFT NOT FITTED RIGHT NOT FITTED 0
NONE
NONE
15600
12.000000
4.427000
51148
TRUE
1 0 8 72 0 0 0 0 

15798.010000






#HDR
-1
-1
#GR
CM-1
EGY
0.00002384185791015625
0.0
5000.000000
-1.000000
4631
8
2.458310
0.003147
#DATA
5000.000000	0.763607 
4999.000000	0.764226 
4998.000000	0.765013 
4997.000000	0.765895 
4996.000000	0.766849 
4995.000000	0.767755 
4994.000000	0.768613 
4993.000000	0.769329 
4992.000000	0.769877 
4991.000000	0.770258 
4990.000000	0.770497 
4989.000000	0.770640 
4988.000000	0.770759 
4987.000000	0.770926 
4986.000000	0.771236 
4985.000000	0.771689 
4984.000000	0.772309 
4983.000000	0.773048 
4982.000000	0.773882 
4981.000000	0.774717 
4980.000000	0.775504 
4979.000000	0.776267 
4978.000000	0.776863 
4977.000000	0.777411 
4976.000000	0.777912 
4975.000000	0.778388 
4974.000000	0.778841 
4973.000000	0.779318 
4972.000000	0.779795 
4971.000000	0.780224 
4970.000000	0.780558 
4969.000000	0.780820 
4968.000000	0.780916 
4967.000000	0.780892 
4966.000000	0.780701 
4965.000000	0.780391 
4964.000000	0.779986 
4963.000000	0.779509 
4962.000000	0.779080 
4961.000000	0.778722 
4960.000000	0.778555 
4959.000000	0.778651 
4958.000000	0.779032 
4957.000000	0.779724 
4956.000000	0.780701 
4955.000000	0.781846 
4954.000000	0.783085 
4953.000000	0.784230 
4952.000000	0.785183 
4951.000000	0.785923 
4950.000000	0.786423 
4949.000000	0.786781 
4948.000000	0.787091 
4947.000000	0.787401 
4946.000000	0.787806 
4945.000000	0.788378 
4944.000000	0.789093 
4943.000000	0.789928 
4942.000000	0.790786 
4941.000000	0.791573 
4940.000000	0.792264 
4939.000000	0.792837 
4938.000000	0.793337 
4937.000000	0.793743 
4936.000000	0.794124 
4935.000000	0.794577 
4934.000000	0.795078 
4933.000000	0.795650 
4932.000000	0.796246 
4931.000000	0.796866 
4930.000000	0.797438 
4929.000000	0.797867 
4928.000000	0.798177 
4927.000000	0.798273 
4926.000000	0.798201 
4925.000000	0.797963 
4924.000000	0.797581 
4923.000000	0.797176 
4922.000000	0.796794 
4921.000000	0.796461 
4920.000000	0.796246 
4919.000000	0.796127 
4918.000000	0.796079 
4917.000000	0.796103 
4916.000000	0.796246 
4915.000000	0.796437 
4914.000000	0.796747 
4913.000000	0.797152 
4912.000000	0.797700 
4911.000000	0.798320 
4910.000000	0.799107 
4909.000000	0.799965 
4908.000000	0.800871 
4907.000000	0.801801 
4906.000000	0.802707 
4905.000000	0.803542 
4904.000000	0.804281 
4903.000000	0.804901 
4902.000000	0.805354 
4901.000000	0.805711 
4900.000000	0.805926 
4899.000000	0.806069 
4898.000000	0.806164 
4897.000000	0.806212 
4896.000000	0.806260 
4895.000000	0.806379 
4894.000000	0.806546 
4893.000000	0.806736 
4892.000000	0.806903 
4891.000000	0.807070 
4890.000000	0.807094 
4889.000000	0.806999 
4888.000000	0.806784 
4887.000000	0.806498 
4886.000000	0.806212 
4885.000000	0.806045 
4884.000000	0.806045 
4883.000000	0.806307 
4882.000000	0.806832 
4881.000000	0.807571 
4880.000000	0.808525 
4879.000000	0.809550 
4878.000000	0.810599 
4877.000000	0.811600 
4876.000000	0.812482 
4875.000000	0.813174 
4874.000000	0.813722 
4873.000000	0.814127 
4872.000000	0.814366 
4871.000000	0.814557 
4870.000000	0.814700 
4869.000000	0.814914 
4868.000000	0.815224 
4867.000000	0.815725 
4866.000000	0.816440 
4865.000000	0.817275 
4864.000000	0.818300 
4863.000000	0.819420 
4862.000000	0.820565 
4861.000000	0.821757 
4860.000000	0.822973 
4859.000000	0.824117 
4858.000000	0.825214 
4857.000000	0.826239 
4856.000000	0.827121 
4855.000000	0.827836 
4854.000000	0.828409 
4853.000000	0.828766 
4852.000000	0.828957 
4851.000000	0.829005 
4850.000000	0.829005 
4849.000000	0.829076 
4848.000000	0.829267 
4847.000000	0.829696 
4846.000000	0.830340 
4845.000000	0.831270 
4844.000000	0.832414 
4843.000000	0.833702 
4842.000000	0.835061 
4841.000000	0.836420 
4840.000000	0.837731 
4839.000000	0.838899 
4838.000000	0.839972 
4837.000000	0.840926 
4836.000000	0.841760 
4835.000000	0.842452 
4834.000000	0.843024 
4833.000000	0.843548 
4832.000000	0.843954 
4831.000000	0.844240 
4830.000000	0.844454 
4829.000000	0.844645 
4828.000000	0.844836 
4827.000000	0.845074 
4826.000000	0.845360 
4825.000000	0.845742 
4824.000000	0.846195 
4823.000000	0.846695 
4822.000000	0.847268 
4821.000000	0.847887 
4820.000000	0.848531 
4819.000000	0.849175 
4818.000000	0.849819 
4817.000000	0.850439 
4816.000000	0.851058 
4815.000000	0.851702 
4814.000000	0.852322 
4813.000000	0.852918 
4812.000000	0.853514 
4811.000000	0.854110 
4810.000000	0.854754 
4809.000000	0.855445 
4808.000000	0.856184 
4807.000000	0.856995 
4806.000000	0.857853 
4805.000000	0.858712 
4804.000000	0.859594 
4803.000000	0.860428 
4802.000000	0.861191 
4801.000000	0.861811 
4800.000000	0.862360 
4799.000000	0.862789 
4798.000000	0.863122 
4797.000000	0.863409 
4796.000000	0.863671 
4795.000000	0.863957 
4794.000000	0.864338 
4793.000000	0.864744 
4792.000000	0.865197 
4791.000000	0.865674 
4790.000000	0.866150 
4789.000000	0.866627 
4788.000000	0.867056 
4787.000000	0.867509 
4786.000000	0.867986 
4785.000000	0.868487 
4784.000000	0.869107 
4783.000000	0.869846 
4782.000000	0.870704 
4781.000000	0.871682 
4780.000000	0.872755 
4779.000000	0.873875 
4778.000000	0.874924 
4777.000000	0.875973 
4776.000000	0.876903 
4775.000000	0.877714 
4774.000000	0.878429 
4773.000000	0.879025 
4772.000000	0.879549 
4771.000000	0.879979 
4770.000000	0.880408 
4769.000000	0.880813 
4768.000000	0.881218 
4767.000000	0.881648 
4766.000000	0.882077 
4765.000000	0.882506 
4764.000000	0.882887 
4763.000000	0.883245 
4762.000000	0.883555 
4761.000000	0.883793 
4760.000000	0.883960 
4759.000000	0.884151 
4758.000000	0.884342 
4757.000000	0.884556 
4756.000000	0.884842 
4755.000000	0.885200 
4754.000000	0.885581 
4753.000000	0.886011 
4752.000000	0.886464 
4751.000000	0.886940 
4750.000000	0.887441 
4749.000000	0.888061 
4748.000000	0.888776 
4747.000000	0.889658 
4746.000000	0.890588 
4745.000000	0.891661 
4744.000000	0.892782 
4743.000000	0.893926 
4742.000000	0.894975 
4741.000000	0.895929 
4740.000000	0.896644 
4739.000000	0.897121 
4738.000000	0.897336 
4737.000000	0.897312 
4736.000000	0.897121 
4735.000000	0.896763 
4734.000000	0.896406 
4733.000000	0.896000 
4732.000000	0.895714 
4731.000000	0.895452 
4730.000000	0.895309 
4729.000000	0.895237 
4728.000000	0.895190 
4727.000000	0.895142 
4726.000000	0.895094 
4725.000000	0.895047 
4724.000000	0.895071 
4723.000000	0.895214 
4722.000000	0.895524 
4721.000000	0.896024 
4720.000000	0.896668 
4719.000000	0.897407 
4718.000000	0.898146 
4717.000000	0.898742 
4716.000000	0.899171 
4715.000000	0.899410 
4714.000000	0.899362 
4713.000000	0.899100 
4712.000000	0.898814 
4711.000000	0.898504 
4710.000000	0.898313 
4709.000000	0.898289 
4708.000000	0.898456 
4707.000000	0.898814 
4706.000000	0.899314 
4705.000000	0.899863 
4704.000000	0.900387 
4703.000000	0.900864 
4702.000000	0.901246 
4701.000000	0.901484 
4700.000000	0.901627 
4699.000000	0.901627 
4698.000000	0.901603 
4697.000000	0.901532 
4696.000000	0.901412 
4695.000000	0.901293 
4694.000000	0.901198 
4693.000000	0.901126 
4692.000000	0.901126 
4691.000000	0.901150 
4690.000000	0.901246 
4689.000000	0.901365 
4688.000000	0.901556 
4687.000000	0.901746 
4686.000000	0.901937 
4685.000000	0.902104 
4684.000000	0.902271 
4683.000000	0.902462 
4682.000000	0.902652 
4681.000000	0.902962 
4680.000000	0.903296 
4679.000000	0.903749 
4678.000000	0.904226 
4677.000000	0.904703 
4676.000000	0.905156 
4675.000000	0.905489 
4674.000000	0.905680 
4673.000000	0.905728 
4672.000000	0.905656 
4671.000000	0.905466 
4670.000000	0.905251 
4669.000000	0.905060 
4668.000000	0.904917 
4667.000000	0.904870 
4666.000000	0.904917 
4665.000000	0.905060 
4664.000000	0.905299 
4663.000000	0.905561 
4662.000000	0.905847 
4661.000000	0.906085 
4660.000000	0.906229 
4659.000000	0.906324 
4658.000000	0.906300 
4657.000000	0.906229 
4656.000000	0.906062 
4655.000000	0.905871 
4654.000000	0.905680 
4653.000000	0.905513 
4652.000000	0.905442 
4651.000000	0.905418 
4650.000000	0.905489 
4649.000000	0.905609 
4648.000000	0.905799 
4647.000000	0.906109 
4646.000000	0.906443 
4645.000000	0.906896 
4644.000000	0.907421 
4643.000000	0.908041 
4642.000000	0.908780 
4641.000000	0.909566 
4640.000000	0.910353 
4639.000000	0.911116 
4638.000000	0.911831 
4637.000000	0.912451 
4636.000000	0.912928 
4635.000000	0.913286 
4634.000000	0.913548 
4633.000000	0.913715 
4632.000000	0.913763 
4631.000000	0.913810 
4630.000000	0.913834 
4629.000000	0.913953 
4628.000000	0.914168 
4627.000000	0.914502 
4626.000000	0.914955 
4625.000000	0.915575 
4624.000000	0.916266 
4623.000000	0.917029 
4622.000000	0.917768 
4621.000000	0.918483 
4620.000000	0.919127 
4619.000000	0.919675 
4618.000000	0.920200 
4617.000000	0.920701 
4616.000000	0.921249 
4615.000000	0.921916 
4614.000000	0.922751 
4613.000000	0.923728 
4612.000000	0.924849 
4611.000000	0.926089 
4610.000000	0.927400 
4609.000000	0.928664 
4608.000000	0.929832 
4607.000000	0.930881 
4606.000000	0.931787 
4605.000000	0.932502 
4604.000000	0.933074 
4603.000000	0.933504 
4602.000000	0.933790 
4601.000000	0.934004 
4600.000000	0.934171 
4599.000000	0.934314 
4598.000000	0.934410 
4597.000000	0.934505 
4596.000000	0.934648 
4595.000000	0.934839 
4594.000000	0.935101 
4593.000000	0.935459 
4592.000000	0.935864 
4591.000000	0.936365 
4590.000000	0.936889 
4589.000000	0.937414 
4588.000000	0.937938 
4587.000000	0.938439 
4586.000000	0.938892 
4585.000000	0.939297 
4584.000000	0.939750 
4583.000000	0.940251 
4582.000000	0.940799 
4581.000000	0.941514 
4580.000000	0.942373 
4579.000000	0.943398 
4578.000000	0.944590 
4577.000000	0.945901 
4576.000000	0.947260 
4575.000000	0.948667 
4574.000000	0.950050 
4573.000000	0.951361 
4572.000000	0.952601 
4571.000000	0.953698 
4570.000000	0.954699 
4569.000000	0.955557 
4568.000000	0.956320 
4567.000000	0.956988 
4566.000000	0.957560 
4565.000000	0.958013 
4564.000000	0.958347 
4563.000000	0.958585 
4562.000000	0.958728 
4561.000000	0.958800 
4560.000000	0.958871 
4559.000000	0.958991 
4558.000000	0.959229 
4557.000000	0.959634 
4556.000000	0.960183 
4555.000000	0.960874 
4554.000000	0.961709 
4553.000000	0.962638 
4552.000000	0.963568 
4551.000000	0.964474 
4550.000000	0.965380 
4549.000000	0.966310 
4548.000000	0.967240 
4547.000000	0.968313 
4546.000000	0.969552 
4545.000000	0.971031 
4544.000000	0.972771 
4543.000000	0.974750 
4542.000000	0.976991 
4541.000000	0.979328 
4540.000000	0.981712 
4539.000000	0.984025 
4538.000000	0.986099 
4537.000000	0.987911 
4536.000000	0.989389 
4535.000000	0.990438 
4534.000000	0.991058 
4533.000000	0.991201 
4532.000000	0.990986 
4531.000000	0.990414 
4530.000000	0.989603 
4529.000000	0.988698 
4528.000000	0.987768 
4527.000000	0.986933 
4526.000000	0.986289 
4525.000000	0.985908 
4524.000000	0.985836 
4523.000000	0.986075 
4522.000000	0.986647 
4521.000000	0.987458 
4520.000000	0.988483 
4519.000000	0.989627 
4518.000000	0.990867 
4517.000000	0.992083 
4516.000000	0.993227 
4515.000000	0.994181 
4514.000000	0.994944 
4513.000000	0.995516 
4512.000000	0.995945 
4511.000000	0.996303 
4510.000000	0.996661 
4509.000000	0.997114 
4508.000000	0.997686 
4507.000000	0.998425 
4506.000000	0.999307 
4505.000000	1.000285 
4504.000000	1.001238 
4503.000000	1.002120 
4502.000000	1.002836 
4501.000000	1.003336 
4500.000000	1.003599 
4499.000000	1.003694 
4498.000000	1.003694 
4497.000000	1.003623 
4496.000000	1.003599 
4495.000000	1.003623 
4494.000000	1.003694 
4493.000000	1.003789 
4492.000000	1.003932 
4491.000000	1.004052 
4490.000000	1.004123 
4489.000000	1.004195 
4488.000000	1.004195 
4487.000000	1.004171 
4486.000000	1.004099 
4485.000000	1.004052 
4484.000000	1.003980 
4483.000000	1.003956 
4482.000000	1.003932 
4481.000000	1.004028 
4480.000000	1.004219 
4479.000000	1.004528 
4478.000000	1.004958 
4477.000000	1.005506 
4476.000000	1.006150 
4475.000000	1.006817 
4474.000000	1.007509 
4473.000000	1.008176 
4472.000000	1.008749 
4471.000000	1.009225 
4470.000000	1.009583 
4469.000000	1.009869 
4468.000000	1.010084 
4467.000000	1.010251 
4466.000000	1.010441 
4465.000000	1.010656 
4464.000000	1.010918 
4463.000000	1.011300 
4462.000000	1.011729 
4461.000000	1.012253 
4460.000000	1.012802 
4459.000000	1.013374 
4458.000000	1.013922 
4457.000000	1.014423 
4456.000000	1.014852 
4455.000000	1.015162 
4454.000000	1.015281 
4453.000000	1.015233 
4452.000000	1.015043 
4451.000000	1.014637 
4450.000000	1.014161 
4449.000000	1.013708 
4448.000000	1.013374 
4447.000000	1.013255 
4446.000000	1.013374 
4445.000000	1.013708 
4444.000000	1.014184 
4443.000000	1.014733 
4442.000000	1.015233 
4441.000000	1.015639 
4440.000000	1.015806 
4439.000000	1.015782 
4438.000000	1.015543 
4437.000000	1.015090 
4436.000000	1.014423 
4435.000000	1.013660 
4434.000000	1.012825 
4433.000000	1.011991 
4432.000000	1.011204 
4431.000000	1.010584 
4430.000000	1.010155 
4429.000000	1.009964 
4428.000000	1.010012 
4427.000000	1.010298 
4426.000000	1.010727 
4425.000000	1.011204 
4424.000000	1.011705 
4423.000000	1.012158 
4422.000000	1.012420 
4421.000000	1.012420 
4420.000000	1.012277 
4419.000000	1.011919 
4418.000000	1.011347 
4417.000000	1.010537 
4416.000000	1.009631 
4415.000000	1.008749 
4414.000000	1.007986 
4413.000000	1.007390 
4412.000000	1.006841 
4411.000000	1.006269 
4410.000000	1.005554 
4409.000000	1.004719 
4408.000000	1.003623 
4407.000000	1.002502 
4406.000000	1.001429 
4405.000000	1.000475 
4404.000000	0.999546 
4403.000000	0.998544 
4402.000000	0.997138 
4401.000000	0.995206 
4400.000000	0.992512 
4399.000000	0.989151 
4398.000000	0.985074 
4397.000000	0.980210 
4396.000000	0.973892 
4395.000000	0.965309 
4394.000000	0.953030 
4393.000000	0.935459 
4392.000000	0.911283 
4391.000000	0.880002 
4390.000000	0.842714 
4389.000000	0.802183 
4388.000000	0.762796 
4387.000000	0.729846 
4386.000000	0.708723 
4385.000000	0.703620 
4384.000000	0.716423 
4383.000000	0.746512 
4382.000000	0.790476 
4381.000000	0.843071 
4380.000000	0.898003 
4379.000000	0.949311 
4378.000000	0.992274 
4377.000000	1.024293 
4376.000000	1.044917 
4375.000000	1.055622 
4374.000000	1.058888 
4373.000000	1.057791 
4372.000000	1.055073 
4371.000000	1.052641 
4370.000000	1.051449 
4369.000000	1.051664 
4368.000000	1.053071 
4367.000000	1.055073 
4366.000000	1.057195 
4365.000000	1.059055 
4364.000000	1.060557 
4363.000000	1.061749 
4362.000000	1.062655 
4361.000000	1.063418 
4360.000000	1.064181 
4359.000000	1.064968 
4358.000000	1.065754 
4357.000000	1.066589 
4356.000000	1.067447 
4355.000000	1.068401 
4354.000000	1.069378 
4353.000000	1.070332 
4352.000000	1.071214 
4351.000000	1.072049 
4350.000000	1.072835 
4349.000000	1.073455 
4348.000000	1.073908 
4347.000000	1.074266 
4346.000000	1.074814 
4345.000000	1.075530 
4344.000000	1.076436 
4343.000000	1.077556 
4342.000000	1.078820 
4341.000000	1.080203 
4340.000000	1.081562 
4339.000000	1.082825 
4338.000000	1.083922 
4337.000000	1.084804 
4336.000000	1.085472 
4335.000000	1.085948 
4334.000000	1.086378 
4333.000000	1.086735 
4332.000000	1.087045 
4331.000000	1.087284 
4330.000000	1.087403 
4329.000000	1.087355 
4328.000000	1.087069 
4327.000000	1.086664 
4326.000000	1.086211 
4325.000000	1.085853 
4324.000000	1.085734 
4323.000000	1.086068 
4322.000000	1.086926 
4321.000000	1.088333 
4320.000000	1.090312 
4319.000000	1.092672 
4318.000000	1.095223 
4317.000000	1.097846 
4316.000000	1.100397 
4315.000000	1.102781 
4314.000000	1.104927 
4313.000000	1.106858 
4312.000000	1.108622 
4311.000000	1.110267 
4310.000000	1.111817 
4309.000000	1.113271 
4308.000000	1.114630 
4307.000000	1.115942 
4306.000000	1.117229 
4305.000000	1.118421 
4304.000000	1.119589 
4303.000000	1.120710 
4302.000000	1.121830 
4301.000000	1.122951 
4300.000000	1.124024 
4299.000000	1.125049 
4298.000000	1.126050 
4297.000000	1.126980 
4296.000000	1.127958 
4295.000000	1.128888 
4294.000000	1.129865 
4293.000000	1.130890 
4292.000000	1.131963 
4291.000000	1.133012 
4290.000000	1.134085 
4289.000000	1.135087 
4288.000000	1.136040 
4287.000000	1.136970 
4286.000000	1.137900 
4285.000000	1.138830 
4284.000000	1.139807 
4283.000000	1.140761 
4282.000000	1.141715 
4281.000000	1.142573 
4280.000000	1.143264 
4279.000000	1.143765 
4278.000000	1.144051 
4277.000000	1.144170 
4276.000000	1.144218 
4275.000000	1.144289 
4274.000000	1.144456 
4273.000000	1.144790 
4272.000000	1.145291 
4271.000000	1.145887 
4270.000000	1.146578 
4269.000000	1.147246 
4268.000000	1.147890 
4267.000000	1.148438 
4266.000000	1.148915 
4265.000000	1.149415 
4264.000000	1.149940 
4263.000000	1.150608 
4262.000000	1.151418 
4261.000000	1.152396 
4260.000000	1.153540 
4259.000000	1.154828 
4258.000000	1.156282 
4257.000000	1.157832 
4256.000000	1.159477 
4255.000000	1.161170 
4254.000000	1.162886 
4253.000000	1.164603 
4252.000000	1.166224 
4251.000000	1.167726 
4250.000000	1.169013 
4249.000000	1.170086 
4248.000000	1.170897 
4247.000000	1.171493 
4246.000000	1.171970 
4245.000000	1.172375 
4244.000000	1.172757 
4243.000000	1.173210 
4242.000000	1.173686 
4241.000000	1.174163 
4240.000000	1.174664 
4239.000000	1.175069 
4238.000000	1.175403 
4237.000000	1.175713 
4236.000000	1.175951 
4235.000000	1.176238 
4234.000000	1.176619 
4233.000000	1.177144 
4232.000000	1.177835 
4231.000000	1.178693 
4230.000000	1.179647 
4229.000000	1.180648 
4228.000000	1.181554 
4227.000000	1.182365 
4226.000000	1.183032 
4225.000000	1.183581 
4224.000000	1.184010 
4223.000000	1.184368 
4222.000000	1.184654 
4221.000000	1.184892 
4220.000000	1.185083 
4219.000000	1.185274 
4218.000000	1.185464 
4217.000000	1.185631 
4216.000000	1.185870 
4215.000000	1.186180 
4214.000000	1.186561 
4213.000000	1.187062 
4212.000000	1.187610 
4211.000000	1.188182 
4210.000000	1.188683 
4209.000000	1.189112 
4208.000000	1.189446 
4207.000000	1.189732 
4206.000000	1.190042 
4205.000000	1.190471 
4204.000000	1.191139 
4203.000000	1.192092 
4202.000000	1.193284 
4201.000000	1.194667 
4200.000000	1.196169 
4199.000000	1.197648 
4198.000000	1.198983 
4197.000000	1.200079 
4196.000000	1.201009 
4195.000000	1.201748 
4194.000000	1.202368 
4193.000000	1.202940 
4192.000000	1.203489 
4191.000000	1.203989 
4190.000000	1.204442 
4189.000000	1.204729 
4188.000000	1.204872 
4187.000000	1.204729 
4186.000000	1.204419 
4185.000000	1.203942 
4184.000000	1.203346 
4183.000000	1.202726 
4182.000000	1.202106 
4181.000000	1.201510 
4180.000000	1.200938 
4179.000000	1.200413 
4178.000000	1.199984 
4177.000000	1.199793 
4176.000000	1.199817 
4175.000000	1.200199 
4174.000000	1.200938 
4173.000000	1.202058 
4172.000000	1.203489 
4171.000000	1.205015 
4170.000000	1.206541 
4169.000000	1.207852 
4168.000000	1.208829 
4167.000000	1.209449 
4166.000000	1.209688 
4165.000000	1.209664 
4164.000000	1.209568 
4163.000000	1.209449 
4162.000000	1.209425 
4161.000000	1.209568 
4160.000000	1.209878 
4159.000000	1.210331 
4158.000000	1.210904 
4157.000000	1.211500 
4156.000000	1.212143 
4155.000000	1.212811 
4154.000000	1.213407 
4153.000000	1.214003 
4152.000000	1.214528 
4151.000000	1.215004 
4150.000000	1.215386 
4149.000000	1.215696 
4148.000000	1.215958 
4147.000000	1.216197 
4146.000000	1.216483 
4145.000000	1.216816 
4144.000000	1.217269 
4143.000000	1.217794 
4142.000000	1.218461 
4141.000000	1.219153 
4140.000000	1.219940 
4139.000000	1.220750 
4138.000000	1.221632 
4137.000000	1.222681 
4136.000000	1.223826 
4135.000000	1.225090 
4134.000000	1.226496 
4133.000000	1.227998 
4132.000000	1.229476 
4131.000000	1.230931 
4130.000000	1.232194 
4129.000000	1.233243 
4128.000000	1.234006 
4127.000000	1.234531 
4126.000000	1.234865 
4125.000000	1.235127 
4124.000000	1.235342 
4123.000000	1.235651 
4122.000000	1.236104 
4121.000000	1.236677 
4120.000000	1.237440 
4119.000000	1.238369 
4118.000000	1.239371 
4117.000000	1.240515 
4116.000000	1.241683 
4115.000000	1.242923 
4114.000000	1.244187 
4113.000000	1.245450 
4112.000000	1.246666 
4111.000000	1.247787 
4110.000000	1.248812 
4109.000000	1.249670 
4108.000000	1.250410 
4107.000000	1.250982 
4106.000000	1.251506 
4105.000000	1.252031 
4104.000000	1.252627 
4103.000000	1.253294 
4102.000000	1.254129 
4101.000000	1.255130 
4100.000000	1.256299 
4099.000000	1.257586 
4098.000000	1.258993 
4097.000000	1.260519 
4096.000000	1.262211 
4095.000000	1.263976 
4094.000000	1.265811 
4093.000000	1.267671 
4092.000000	1.269578 
4091.000000	1.271414 
4090.000000	1.273107 
4089.000000	1.274681 
4088.000000	1.276063 
4087.000000	1.277303 
4086.000000	1.278424 
4085.000000	1.279401 
4084.000000	1.280379 
4083.000000	1.281404 
4082.000000	1.282548 
4081.000000	1.283812 
4080.000000	1.285266 
4079.000000	1.286864 
4078.000000	1.288604 
4077.000000	1.290464 
4076.000000	1.292371 
4075.000000	1.294231 
4074.000000	1.296019 
4073.000000	1.297664 
4072.000000	1.299214 
4071.000000	1.300668 
4070.000000	1.302051 
4069.000000	1.303386 
4068.000000	1.304745 
4067.000000	1.306128 
4066.000000	1.307559 
4065.000000	1.308965 
4064.000000	1.310348 
4063.000000	1.311659 
4062.000000	1.312851 
4061.000000	1.313924 
4060.000000	1.314949 
4059.000000	1.315927 
4058.000000	1.316881 
4057.000000	1.317882 
4056.000000	1.319003 
4055.000000	1.320219 
4054.000000	1.321601 
4053.000000	1.323080 
4052.000000	1.324725 
4051.000000	1.326441 
4050.000000	1.328206 
4049.000000	1.329994 
4048.000000	1.331734 
4047.000000	1.333379 
4046.000000	1.334857 
4045.000000	1.336121 
4044.000000	1.337218 
4043.000000	1.338076 
4042.000000	1.338815 
4041.000000	1.339435 
4040.000000	1.340031 
4039.000000	1.340699 
4038.000000	1.341438 
4037.000000	1.342344 
4036.000000	1.343369 
4035.000000	1.344513 
4034.000000	1.345753 
4033.000000	1.346993 
4032.000000	1.348185 
4031.000000	1.349353 
4030.000000	1.350426 
4029.000000	1.351404 
4028.000000	1.352286 
4027.000000	1.353096 
4026.000000	1.353907 
4025.000000	1.354718 
4024.000000	1.355576 
4023.000000	1.356554 
4022.000000	1.357626 
4021.000000	1.358842 
4020.000000	1.360177 
4019.000000	1.361632 
4018.000000	1.363134 
4017.000000	1.364684 
4016.000000	1.366233 
4015.000000	1.367712 
4014.000000	1.369118 
4013.000000	1.370453 
4012.000000	1.371669 
4011.000000	1.372814 
4010.000000	1.373815 
4009.000000	1.374769 
4008.000000	1.375675 
4007.000000	1.376533 
4006.000000	1.377415 
4005.000000	1.378393 
4004.000000	1.379442 
4003.000000	1.380586 
4002.000000	1.381778 
4001.000000	1.382994 
4000.000000	1.384258 
3999.000000	1.385450 
3998.000000	1.386547 
3997.000000	1.387524 
3996.000000	1.388359 
3995.000000	1.389122 
3994.000000	1.389765 
3993.000000	1.390337 
3992.000000	1.390838 
3991.000000	1.391267 
3990.000000	1.391649 
3989.000000	1.391983 
3988.000000	1.392197 
3987.000000	1.392340 
3986.000000	1.392507 
3985.000000	1.392698 
3984.000000	1.393008 
3983.000000	1.393508 
3982.000000	1.394224 
3981.000000	1.395153 
3980.000000	1.396322 
3979.000000	1.397585 
3978.000000	1.398897 
3977.000000	1.400160 
3976.000000	1.401257 
3975.000000	1.402139 
3974.000000	1.402807 
3973.000000	1.403284 
3972.000000	1.403594 
3971.000000	1.403760 
3970.000000	1.403832 
3969.000000	1.403903 
3968.000000	1.403951 
3967.000000	1.404047 
3966.000000	1.404190 
3965.000000	1.404404 
3964.000000	1.404762 
3963.000000	1.405310 
3962.000000	1.406025 
3961.000000	1.406955 
3960.000000	1.408076 
3959.000000	1.409316 
3958.000000	1.410627 
3957.000000	1.411867 
3956.000000	1.412916 
3955.000000	1.413750 
3954.000000	1.414299 
3953.000000	1.414537 
3952.000000	1.414608 
3951.000000	1.414537 
3950.000000	1.414442 
3949.000000	1.414370 
3948.000000	1.414394 
3947.000000	1.414489 
3946.000000	1.414680 
3945.000000	1.414918 
3944.000000	1.415133 
3943.000000	1.415276 
3942.000000	1.415419 
3941.000000	1.415491 
3940.000000	1.415514 
3939.000000	1.415562 
3938.000000	1.415634 
3937.000000	1.415777 
3936.000000	1.416039 
3935.000000	1.416397 
3934.000000	1.416850 
3933.000000	1.417446 
3932.000000	1.418137 
3931.000000	1.418900 
3930.000000	1.419687 
3929.000000	1.420450 
3928.000000	1.421117 
3927.000000	1.421689 
3926.000000	1.422071 
3925.000000	1.422333 
3924.000000	1.422429 
3923.000000	1.422405 
3922.000000	1.422333 
3921.000000	1.422190 
3920.000000	1.422047 
3919.000000	1.421928 
3918.000000	1.421880 
3917.000000	1.421904 
3916.000000	1.421999 
3915.000000	1.422119 
3914.000000	1.422309 
3913.000000	1.422476 
3912.000000	1.422619 
3911.000000	1.422762 
3910.000000	1.422810 
3909.000000	1.422786 
3908.000000	1.422715 
3907.000000	1.422643 
3906.000000	1.422619 
3905.000000	1.422762 
3904.000000	1.423072 
3903.000000	1.423645 
3902.000000	1.424431 
3901.000000	1.425433 
3900.000000	1.426529 
3899.000000	1.427626 
3898.000000	1.428675 
3897.000000	1.429533 
3896.000000	1.430201 
3895.000000	1.430749 
3894.000000	1.431202 
3893.000000	1.431655 
3892.000000	1.432108 
3891.000000	1.432681 
3890.000000	1.433348 
3889.000000	1.434087 
3888.000000	1.434826 
3887.000000	1.435542 
3886.000000	1.436209 
3885.000000	1.436805 
3884.000000	1.437306 
3883.000000	1.437807 
3882.000000	1.438212 
3881.000000	1.438617 
3880.000000	1.438975 
3879.000000	1.439261 
3878.000000	1.439452 
3877.000000	1.439571 
3876.000000	1.439595 
3875.000000	1.439571 
3874.000000	1.439595 
3873.000000	1.439666 
3872.000000	1.439881 
3871.000000	1.440215 
3870.000000	1.440691 
3869.000000	1.441335 
3868.000000	1.442122 
3867.000000	1.442980 
3866.000000	1.443910 
3865.000000	1.444840 
3864.000000	1.445674 
3863.000000	1.446390 
3862.000000	1.446843 
3861.000000	1.446938 
3860.000000	1.446676 
3859.000000	1.446175 
3858.000000	1.445531 
3857.000000	1.444983 
3856.000000	1.444768 
3855.000000	1.445126 
3854.000000	1.446223 
3853.000000	1.448082 
3852.000000	1.450634 
3851.000000	1.453614 
3850.000000	1.456809 
3849.000000	1.459836 
3848.000000	1.462411 
3847.000000	1.464343 
3846.000000	1.465582 
3845.000000	1.466131 
3844.000000	1.466131 
3843.000000	1.465797 
3842.000000	1.465320 
3841.000000	1.465010 
3840.000000	1.465034 
3839.000000	1.465487 
3838.000000	1.466536 
3837.000000	1.468181 
3836.000000	1.470375 
3835.000000	1.473045 
3834.000000	1.476073 
3833.000000	1.479268 
3832.000000	1.482486 
3831.000000	1.485514 
3830.000000	1.488161 
3829.000000	1.490354 
3828.000000	1.491951 
3827.000000	1.492929 
3826.000000	1.493287 
3825.000000	1.493120 
3824.000000	1.492547 
3823.000000	1.491737 
3822.000000	1.490855 
3821.000000	1.490092 
3820.000000	1.489615 
3819.000000	1.489591 
3818.000000	1.490044 
3817.000000	1.490998 
3816.000000	1.492428 
3815.000000	1.494193 
3814.000000	1.496219 
3813.000000	1.498317 
3812.000000	1.500368 
3811.000000	1.502299 
3810.000000	1.504015 
3809.000000	1.505446 
3808.000000	1.506638 
3807.000000	1.507616 
3806.000000	1.508426 
3805.000000	1.509141 
3804.000000	1.509881 
3803.000000	1.510691 
3802.000000	1.511693 
3801.000000	1.512908 
3800.000000	1.514339 
3799.000000	1.516008 
3798.000000	1.517844 
3797.000000	1.519775 
3796.000000	1.521682 
3795.000000	1.523542 
3794.000000	1.525259 
3793.000000	1.526832 
3792.000000	1.528215 
3791.000000	1.529455 
3790.000000	1.530551 
3789.000000	1.531505 
3788.000000	1.532411 
3787.000000	1.533246 
3786.000000	1.534152 
3785.000000	1.535081 
3784.000000	1.536107 
3783.000000	1.537203 
3782.000000	1.538348 
3781.000000	1.539468 
3780.000000	1.540541 
3779.000000	1.541447 
3778.000000	1.542139 
3777.000000	1.542568 
3776.000000	1.542711 
3775.000000	1.542687 
3774.000000	1.542544 
3773.000000	1.542425 
3772.000000	1.542472 
3771.000000	1.542758 
3770.000000	1.543402 
3769.000000	1.544404 
3768.000000	1.545667 
3767.000000	1.547169 
3766.000000	1.548743 
3765.000000	1.550292 
3764.000000	1.551675 
3763.000000	1.552796 
3762.000000	1.553511 
3761.000000	1.553797 
3760.000000	1.553630 
3759.000000	1.553010 
3758.000000	1.552009 
3757.000000	1.550698 
3756.000000	1.549243 
3755.000000	1.547670 
3754.000000	1.546096 
3753.000000	1.544642 
3752.000000	1.543354 
3751.000000	1.542305 
3750.000000	1.541495 
3749.000000	1.541042 
3748.000000	1.540994 
3747.000000	1.541352 
3746.000000	1.542186 
3745.000000	1.543450 
3744.000000	1.545095 
3743.000000	1.547026 
3742.000000	1.549029 
3741.000000	1.550960 
3740.000000	1.552653 
3739.000000	1.554036 
3738.000000	1.555061 
3737.000000	1.555752 
3736.000000	1.556253 
3735.000000	1.556706 
3734.000000	1.557207 
3733.000000	1.557779 
3732.000000	1.558518 
3731.000000	1.559352 
3730.000000	1.560163 
3729.000000	1.560950 
3728.000000	1.561713 
3727.000000	1.562404 
3726.000000	1.563096 
3725.000000	1.563835 
3724.000000	1.564621 
3723.000000	1.565480 
3722.000000	1.566410 
3721.000000	1.567244 
3720.000000	1.567983 
3719.000000	1.568484 
3718.000000	1.568770 
3717.000000	1.568770 
3716.000000	1.568627 
3715.000000	1.568365 
3714.000000	1.568174 
3713.000000	1.568102 
3712.000000	1.568245 
3711.000000	1.568627 
3710.000000	1.569199 
3709.000000	1.569890 
3708.000000	1.570606 
3707.000000	1.571273 
3706.000000	1.571846 
3705.000000	1.572275 
3704.000000	1.572608 
3703.000000	1.572823 
3702.000000	1.572990 
3701.000000	1.573109 
3700.000000	1.573133 
3699.000000	1.573014 
3698.000000	1.572680 
3697.000000	1.572060 
3696.000000	1.571059 
3695.000000	1.569771 
3694.000000	1.568222 
3693.000000	1.566553 
3692.000000	1.565027 
3691.000000	1.563763 
3690.000000	1.562976 
3689.000000	1.562762 
3688.000000	1.563096 
3687.000000	1.563930 
3686.000000	1.565074 
3685.000000	1.566314 
3684.000000	1.567435 
3683.000000	1.568245 
3682.000000	1.568627 
3681.000000	1.568508 
3680.000000	1.567912 
3679.000000	1.566934 
3678.000000	1.565694 
3677.000000	1.564407 
3676.000000	1.563143 
3675.000000	1.562118 
3674.000000	1.561403 
3673.000000	1.561117 
3672.000000	1.561260 
3671.000000	1.561832 
3670.000000	1.562786 
3669.000000	1.564097 
3668.000000	1.565551 
3667.000000	1.567101 
3666.000000	1.568603 
3665.000000	1.569938 
3664.000000	1.571011 
3663.000000	1.571798 
3662.000000	1.572251 
3661.000000	1.572418 
3660.000000	1.572299 
3659.000000	1.571941 
3658.000000	1.571369 
3657.000000	1.570606 
3656.000000	1.569676 
3655.000000	1.568698 
3654.000000	1.567649 
3653.000000	1.566648 
3652.000000	1.565837 
3651.000000	1.565337 
3650.000000	1.565170 
3649.000000	1.565384 
3648.000000	1.566028 
3647.000000	1.566934 
3646.000000	1.568055 
3645.000000	1.569342 
3644.000000	1.570653 
3643.000000	1.571893 
3642.000000	1.573038 
3641.000000	1.574087 
3640.000000	1.574993 
3639.000000	1.575684 
3638.000000	1.576161 
3637.000000	1.576399 
3636.000000	1.576304 
3635.000000	1.575875 
3634.000000	1.575183 
3633.000000	1.574254 
3632.000000	1.573300 
3631.000000	1.572418 
3630.000000	1.571774 
3629.000000	1.571440 
3628.000000	1.571393 
3627.000000	1.571655 
3626.000000	1.572108 
3625.000000	1.572632 
3624.000000	1.573204 
3623.000000	1.573729 
3622.000000	1.574230 
3621.000000	1.574707 
3620.000000	1.575207 
3619.000000	1.575779 
3618.000000	1.576447 
3617.000000	1.577186 
3616.000000	1.577997 
3615.000000	1.578855 
3614.000000	1.579713 
3613.000000	1.580524 
3612.000000	1.581335 
3611.000000	1.582098 
3610.000000	1.582884 
3609.000000	1.583695 
3608.000000	1.584553 
3607.000000	1.585412 
3606.000000	1.586270 
3605.000000	1.587033 
3604.000000	1.587748 
3603.000000	1.588368 
3602.000000	1.588845 
3601.000000	1.589274 
3600.000000	1.589608 
3599.000000	1.589918 
3598.000000	1.590180 
3597.000000	1.590347 
3596.000000	1.590442 
3595.000000	1.590442 
3594.000000	1.590347 
3593.000000	1.590180 
3592.000000	1.589989 
3591.000000	1.589870 
3590.000000	1.589894 
3589.000000	1.590180 
3588.000000	1.590752 
3587.000000	1.591563 
3586.000000	1.592588 
3585.000000	1.593780 
3584.000000	1.595067 
3583.000000	1.596331 
3582.000000	1.597499 
3581.000000	1.598596 
3580.000000	1.599597 
3579.000000	1.600503 
3578.000000	1.601338 
3577.000000	1.602125 
3576.000000	1.602792 
3575.000000	1.603317 
3574.000000	1.603651 
3573.000000	1.603722 
3572.000000	1.603627 
3571.000000	1.603341 
3570.000000	1.602959 
3569.000000	1.602602 
3568.000000	1.602387 
3567.000000	1.602363 
3566.000000	1.602649 
3565.000000	1.603269 
3564.000000	1.604127 
3563.000000	1.605272 
3562.000000	1.606583 
3561.000000	1.608014 
3560.000000	1.609444 
3559.000000	1.610827 
3558.000000	1.612114 
3557.000000	1.613306 
3556.000000	1.614379 
3555.000000	1.615309 
3554.000000	1.616120 
3553.000000	1.616859 
3552.000000	1.617550 
3551.000000	1.618194 
3550.000000	1.618814 
3549.000000	1.619458 
3548.000000	1.620101 
3547.000000	1.620721 
3546.000000	1.621317 
3545.000000	1.621794 
3544.000000	1.622104 
3543.000000	1.622295 
3542.000000	1.622319 
3541.000000	1.622200 
3540.000000	1.621985 
3539.000000	1.621651 
3538.000000	1.621317 
3537.000000	1.620984 
3536.000000	1.620697 
3535.000000	1.620483 
3534.000000	1.620340 
3533.000000	1.620316 
3532.000000	1.620388 
3531.000000	1.620531 
3530.000000	1.620721 
3529.000000	1.620936 
3528.000000	1.621127 
3527.000000	1.621317 
3526.000000	1.621484 
3525.000000	1.621651 
3524.000000	1.621794 
3523.000000	1.621961 
3522.000000	1.622223 
3521.000000	1.622509 
3520.000000	1.622915 
3519.000000	1.623320 
3518.000000	1.623725 
3517.000000	1.624059 
3516.000000	1.624274 
3515.000000	1.624298 
3514.000000	1.624178 
3513.000000	1.623868 
3512.000000	1.623392 
3511.000000	1.622891 
3510.000000	1.622366 
3509.000000	1.621913 
3508.000000	1.621627 
3507.000000	1.621508 
3506.000000	1.621556 
3505.000000	1.621794 
3504.000000	1.622176 
3503.000000	1.622605 
3502.000000	1.623034 
3501.000000	1.623368 
3500.000000	1.623511 
3499.000000	1.623439 
3498.000000	1.623082 
3497.000000	1.622509 
3496.000000	1.621699 
3495.000000	1.620745 
3494.000000	1.619744 
3493.000000	1.618766 
3492.000000	1.617908 
3491.000000	1.617264 
3490.000000	1.616835 
3489.000000	1.616644 
3488.000000	1.616692 
3487.000000	1.616930 
3486.000000	1.617264 
3485.000000	1.617646 
3484.000000	1.617956 
3483.000000	1.618099 
3482.000000	1.618027 
3481.000000	1.617765 
3480.000000	1.617193 
3479.000000	1.616430 
3478.000000	1.615428 
3477.000000	1.614260 
3476.000000	1.612949 
3475.000000	1.611590 
3474.000000	1.610136 
3473.000000	1.608705 
3472.000000	1.607298 
3471.000000	1.605987 
3470.000000	1.604866 
3469.000000	1.603960 
3468.000000	1.603293 
3467.000000	1.602864 
3466.000000	1.602625 
3465.000000	1.602482 
3464.000000	1.602411 
3463.000000	1.602315 
3462.000000	1.602077 
3461.000000	1.601719 
3460.000000	1.601243 
3459.000000	1.600646 
3458.000000	1.600003 
3457.000000	1.599407 
3456.000000	1.598882 
3455.000000	1.598429 
3454.000000	1.598095 
3453.000000	1.597857 
3452.000000	1.597619 
3451.000000	1.597332 
3450.000000	1.596999 
3449.000000	1.596498 
3448.000000	1.595830 
3447.000000	1.595020 
3446.000000	1.594090 
3445.000000	1.593065 
3444.000000	1.591920 
3443.000000	1.590776 
3442.000000	1.589608 
3441.000000	1.588487 
3440.000000	1.587438 
3439.000000	1.586389 
3438.000000	1.585435 
3437.000000	1.584601 
3436.000000	1.583790 
3435.000000	1.583075 
3434.000000	1.582407 
3433.000000	1.581859 
3432.000000	1.581454 
3431.000000	1.581168 
3430.000000	1.581096 
3429.000000	1.581168 
3428.000000	1.581430 
3427.000000	1.581811 
3426.000000	1.582312 
3425.000000	1.582884 
3424.000000	1.583480 
3423.000000	1.584029 
3422.000000	1.584553 
3421.000000	1.585006 
3420.000000	1.585388 
3419.000000	1.585721 
3418.000000	1.585984 
3417.000000	1.586198 
3416.000000	1.586365 
3415.000000	1.586532 
3414.000000	1.586723 
3413.000000	1.586937 
3412.000000	1.587152 
3411.000000	1.587438 
3410.000000	1.587772 
3409.000000	1.588177 
3408.000000	1.588654 
3407.000000	1.589202 
3406.000000	1.589870 
3405.000000	1.590633 
3404.000000	1.591539 
3403.000000	1.592564 
3402.000000	1.593708 
3401.000000	1.594924 
3400.000000	1.596164 
3399.000000	1.597404 
3398.000000	1.598644 
3397.000000	1.599812 
3396.000000	1.600885 
3395.000000	1.601862 
3394.000000	1.602745 
3393.000000	1.603531 
3392.000000	1.604247 
3391.000000	1.604890 
3390.000000	1.605486 
3389.000000	1.606035 
3388.000000	1.606583 
3387.000000	1.607108 
3386.000000	1.607656 
3385.000000	1.608204 
3384.000000	1.608753 
3383.000000	1.609277 
3382.000000	1.609826 
3381.000000	1.610374 
3380.000000	1.611018 
3379.000000	1.611661 
3378.000000	1.612377 
3377.000000	1.613163 
3376.000000	1.614046 
3375.000000	1.614904 
3374.000000	1.615810 
3373.000000	1.616740 
3372.000000	1.617646 
3371.000000	1.618623 
3370.000000	1.619601 
3369.000000	1.620650 
3368.000000	1.621794 
3367.000000	1.623034 
3366.000000	1.624417 
3365.000000	1.625943 
3364.000000	1.627564 
3363.000000	1.629257 
3362.000000	1.631021 
3361.000000	1.632857 
3360.000000	1.634621 
3359.000000	1.636362 
3358.000000	1.638054 
3357.000000	1.639604 
3356.000000	1.641011 
3355.000000	1.642227 
3354.000000	1.643252 
3353.000000	1.644182 
3352.000000	1.644992 
3351.000000	1.645779 
3350.000000	1.646566 
3349.000000	1.647472 
3348.000000	1.648569 
3347.000000	1.649808 
3346.000000	1.651334 
3345.000000	1.653051 
3344.000000	1.654958 
3343.000000	1.656985 
3342.000000	1.659107 
3341.000000	1.661205 
3340.000000	1.663231 
3339.000000	1.665163 
3338.000000	1.666927 
3337.000000	1.668548 
3336.000000	1.669979 
3335.000000	1.671266 
3334.000000	1.672506 
3333.000000	1.673650 
3332.000000	1.674795 
3331.000000	1.675915 
3330.000000	1.677083 
3329.000000	1.678299 
3328.000000	1.679611 
3327.000000	1.681017 
3326.000000	1.682543 
3325.000000	1.684284 
3324.000000	1.686096 
3323.000000	1.688075 
3322.000000	1.690101 
3321.000000	1.692175 
3320.000000	1.694250 
3319.000000	1.696228 
3318.000000	1.698136 
3317.000000	1.699900 
3316.000000	1.701569 
3315.000000	1.703095 
3314.000000	1.704573 
3313.000000	1.705980 
3312.000000	1.707363 
3311.000000	1.708698 
3310.000000	1.710033 
3309.000000	1.711297 
3308.000000	1.712560 
3307.000000	1.713848 
3306.000000	1.715111 
3305.000000	1.716399 
3304.000000	1.717686 
3303.000000	1.718974 
3302.000000	1.720285 
3301.000000	1.721620 
3300.000000	1.722955 
3299.000000	1.724267 
3298.000000	1.725578 
3297.000000	1.726865 
3296.000000	1.728129 
3295.000000	1.729416 
3294.000000	1.730775 
3293.000000	1.732182 
3292.000000	1.733684 
3291.000000	1.735186 
3290.000000	1.736688 
3289.000000	1.738142 
3288.000000	1.739454 
3287.000000	1.740598 
3286.000000	1.741600 
3285.000000	1.742506 
3284.000000	1.743292 
3283.000000	1.744031 
3282.000000	1.744818 
3281.000000	1.745653 
3280.000000	1.746559 
3279.000000	1.747512 
3278.000000	1.748490 
3277.000000	1.749420 
3276.000000	1.750326 
3275.000000	1.751160 
3274.000000	1.751947 
3273.000000	1.752758 
3272.000000	1.753544 
3271.000000	1.754403 
3270.000000	1.755332 
3269.000000	1.756310 
3268.000000	1.757383 
3267.000000	1.758456 
3266.000000	1.759576 
3265.000000	1.760721 
3264.000000	1.761841 
3263.000000	1.762938 
3262.000000	1.764011 
3261.000000	1.764965 
3260.000000	1.765847 
3259.000000	1.766657 
3258.000000	1.767396 
3257.000000	1.768040 
3256.000000	1.768636 
3255.000000	1.769185 
3254.000000	1.769804 
3253.000000	1.770472 
3252.000000	1.771187 
3251.000000	1.771974 
3250.000000	1.772785 
3249.000000	1.773571 
3248.000000	1.774334 
3247.000000	1.775026 
3246.000000	1.775670 
3245.000000	1.776266 
3244.000000	1.776814 
3243.000000	1.777410 
3242.000000	1.778054 
3241.000000	1.778793 
3240.000000	1.779580 
3239.000000	1.780390 
3238.000000	1.781225 
3237.000000	1.782035 
3236.000000	1.782774 
3235.000000	1.783394 
3234.000000	1.783967 
3233.000000	1.784467 
3232.000000	1.784920 
3231.000000	1.785373 
3230.000000	1.785755 
3229.000000	1.786088 
3228.000000	1.786303 
3227.000000	1.786398 
3226.000000	1.786327 
3225.000000	1.786088 
3224.000000	1.785683 
3223.000000	1.785111 
3222.000000	1.784491 
3221.000000	1.783871 
3220.000000	1.783323 
3219.000000	1.782846 
3218.000000	1.782512 
3217.000000	1.782369 
3216.000000	1.782321 
3215.000000	1.782321 
3214.000000	1.782417 
3213.000000	1.782512 
3212.000000	1.782727 
3211.000000	1.783061 
3210.000000	1.783514 
3209.000000	1.784157 
3208.000000	1.784968 
3207.000000	1.785922 
3206.000000	1.786971 
3205.000000	1.788091 
3204.000000	1.789236 
3203.000000	1.790356 
3202.000000	1.791453 
3201.000000	1.792478 
3200.000000	1.793432 
3199.000000	1.794290 
3198.000000	1.795029 
3197.000000	1.795601 
3196.000000	1.795983 
3195.000000	1.796150 
3194.000000	1.796078 
3193.000000	1.795840 
3192.000000	1.795530 
3191.000000	1.795220 
3190.000000	1.794958 
3189.000000	1.794838 
3188.000000	1.794910 
3187.000000	1.795101 
3186.000000	1.795363 
3185.000000	1.795625 
3184.000000	1.795840 
3183.000000	1.795911 
3182.000000	1.795935 
3181.000000	1.795816 
3180.000000	1.795649 
3179.000000	1.795434 
3178.000000	1.795244 
3177.000000	1.795077 
3176.000000	1.794981 
3175.000000	1.794910 
3174.000000	1.794910 
3173.000000	1.795029 
3172.000000	1.795220 
3171.000000	1.795554 
3170.000000	1.796054 
3169.000000	1.796674 
3168.000000	1.797389 
3167.000000	1.798200 
3166.000000	1.798939 
3165.000000	1.799583 
3164.000000	1.800036 
3163.000000	1.800227 
3162.000000	1.800274 
3161.000000	1.800203 
3160.000000	1.800131 
3159.000000	1.800155 
3158.000000	1.800394 
3157.000000	1.800966 
3156.000000	1.801848 
3155.000000	1.803088 
3154.000000	1.804590 
3153.000000	1.806282 
3152.000000	1.808071 
3151.000000	1.809835 
3150.000000	1.811480 
3149.000000	1.812911 
3148.000000	1.814079 
3147.000000	1.814937 
3146.000000	1.815462 
3145.000000	1.815652 
3144.000000	1.815629 
3143.000000	1.815509 
3142.000000	1.815390 
3141.000000	1.815414 
3140.000000	1.815748 
3139.000000	1.816391 
3138.000000	1.817321 
3137.000000	1.818490 
3136.000000	1.819753 
3135.000000	1.820945 
3134.000000	1.821994 
3133.000000	1.822781 
3132.000000	1.823377 
3131.000000	1.823854 
3130.000000	1.824378 
3129.000000	1.825165 
3128.000000	1.826310 
3127.000000	1.827907 
3126.000000	1.829910 
3125.000000	1.832270 
3124.000000	1.834750 
3123.000000	1.837253 
3122.000000	1.839590 
3121.000000	1.841640 
3120.000000	1.843452 
3119.000000	1.845026 
3118.000000	1.846408 
3117.000000	1.847767 
3116.000000	1.849150 
3115.000000	1.850509 
3114.000000	1.851844 
3113.000000	1.853060 
3112.000000	1.854109 
3111.000000	1.854944 
3110.000000	1.855540 
3109.000000	1.855993 
3108.000000	1.856374 
3107.000000	1.856851 
3106.000000	1.857519 
3105.000000	1.858544 
3104.000000	1.859998 
3103.000000	1.861953 
3102.000000	1.864337 
3101.000000	1.867032 
3100.000000	1.869940 
3099.000000	1.872968 
3098.000000	1.875948 
3097.000000	1.878857 
3096.000000	1.881575 
3095.000000	1.884102 
3094.000000	1.886463 
3093.000000	1.888680 
3092.000000	1.890778 
3091.000000	1.892828 
3090.000000	1.894903 
3089.000000	1.897001 
3088.000000	1.899147 
3087.000000	1.901388 
3086.000000	1.903676 
3085.000000	1.905989 
3084.000000	1.908302 
3083.000000	1.910519 
3082.000000	1.912641 
3081.000000	1.914548 
3080.000000	1.916241 
3079.000000	1.917672 
3078.000000	1.918864 
3077.000000	1.919865 
3076.000000	1.920771 
3075.000000	1.921629 
3074.000000	1.922464 
3073.000000	1.923418 
3072.000000	1.924514 
3071.000000	1.925778 
3070.000000	1.927208 
3069.000000	1.928806 
3068.000000	1.930546 
3067.000000	1.932382 
3066.000000	1.934266 
3065.000000	1.936173 
3064.000000	1.938009 
3063.000000	1.939821 
3062.000000	1.941585 
3061.000000	1.943278 
3060.000000	1.944923 
3059.000000	1.946520 
3058.000000	1.948142 
3057.000000	1.949787 
3056.000000	1.951408 
3055.000000	1.953053 
3054.000000	1.954674 
3053.000000	1.956272 
3052.000000	1.957750 
3051.000000	1.959085 
3050.000000	1.960277 
3049.000000	1.961374 
3048.000000	1.962399 
3047.000000	1.963376 
3046.000000	1.964354 
3045.000000	1.965403 
3044.000000	1.966452 
3043.000000	1.967501 
3042.000000	1.968502 
3041.000000	1.969456 
3040.000000	1.970291 
3039.000000	1.970982 
3038.000000	1.971602 
3037.000000	1.972103 
3036.000000	1.972556 
3035.000000	1.972937 
3034.000000	1.973271 
3033.000000	1.973485 
3032.000000	1.973462 
3031.000000	1.973199 
3030.000000	1.972627 
3029.000000	1.971673 
3028.000000	1.970362 
3027.000000	1.968717 
3026.000000	1.966810 
3025.000000	1.964735 
3024.000000	1.962637 
3023.000000	1.960659 
3022.000000	1.958990 
3021.000000	1.957750 
3020.000000	1.957082 
3019.000000	1.957082 
3018.000000	1.957917 
3017.000000	1.959562 
3016.000000	1.962041 
3015.000000	1.965284 
3014.000000	1.969265 
3013.000000	1.973772 
3012.000000	1.978659 
3011.000000	1.983761 
3010.000000	1.988887 
3009.000000	1.993870 
3008.000000	1.998615 
3007.000000	2.002978 
3006.000000	2.006864 
3005.000000	2.010345 
3004.000000	2.013349 
3003.000000	2.015995 
3002.000000	2.018237 
3001.000000	2.020192 
3000.000000	2.021908 
2999.000000	2.023386 
2998.000000	2.024626 
2997.000000	2.025628 
2996.000000	2.026438 
2995.000000	2.027010 
2994.000000	2.027368 
2993.000000	2.027511 
2992.000000	2.027535 
2991.000000	2.027416 
2990.000000	2.027249 
2989.000000	2.027058 
2988.000000	2.026867 
2987.000000	2.026581 
2986.000000	2.026176 
2985.000000	2.025580 
2984.000000	2.024674 
2983.000000	2.023434 
2982.000000	2.021741 
2981.000000	2.019572 
2980.000000	2.016973 
2979.000000	2.013921 
2978.000000	2.010464 
2977.000000	2.006697 
2976.000000	2.002620 
2975.000000	1.998186 
2974.000000	1.993441 
2973.000000	1.988339 
2972.000000	1.982831 
2971.000000	1.976966 
2970.000000	1.970791 
2969.000000	1.964426 
2968.000000	1.958012 
2967.000000	1.951766 
2966.000000	1.945853 
2965.000000	1.940512 
2964.000000	1.935815 
2963.000000	1.931858 
2962.000000	1.928615 
2961.000000	1.926088 
2960.000000	1.924228 
2959.000000	1.922845 
2958.000000	1.921916 
2957.000000	1.921296 
2956.000000	1.920866 
2955.000000	1.920461 
2954.000000	1.920032 
2953.000000	1.919364 
2952.000000	1.918411 
2951.000000	1.916933 
2950.000000	1.914811 
2949.000000	1.911926 
2948.000000	1.908159 
2947.000000	1.903414 
2946.000000	1.897597 
2945.000000	1.890826 
2944.000000	1.883172 
2943.000000	1.874685 
2942.000000	1.865601 
2941.000000	1.856160 
2940.000000	1.846647 
2939.000000	1.837182 
2938.000000	1.828026 
2937.000000	1.819300 
2936.000000	1.811146 
2935.000000	1.803565 
2934.000000	1.796507 
2933.000000	1.789999 
2932.000000	1.784014 
2931.000000	1.778602 
2930.000000	1.773834 
2929.000000	1.769924 
2928.000000	1.767063 
2927.000000	1.765513 
2926.000000	1.765513 
2925.000000	1.767301 
2924.000000	1.770997 
2923.000000	1.776552 
2922.000000	1.783967 
2921.000000	1.793026 
2920.000000	1.803421 
2919.000000	1.814818 
2918.000000	1.826906 
2917.000000	1.839232 
2916.000000	1.851534 
2915.000000	1.863479 
2914.000000	1.874804 
2913.000000	1.885414 
2912.000000	1.895117 
2911.000000	1.903867 
2910.000000	1.911687 
2909.000000	1.918649 
2908.000000	1.924800 
2907.000000	1.930260 
2906.000000	1.935243 
2905.000000	1.939845 
2904.000000	1.944303 
2903.000000	1.948571 
2902.000000	1.952767 
2901.000000	1.956915 
2900.000000	1.960968 
2899.000000	1.964831 
2898.000000	1.968502 
2897.000000	1.971912 
2896.000000	1.975107 
2895.000000	1.978063 
2894.000000	1.980781 
2893.000000	1.983404 
2892.000000	1.985931 
2891.000000	1.988387 
2890.000000	1.990771 
2889.000000	1.993131 
2888.000000	1.995444 
2887.000000	1.997709 
2886.000000	1.999735 
2885.000000	2.001571 
2884.000000	2.003073 
2883.000000	2.004218 
2882.000000	2.004861 
2881.000000	2.005028 
2880.000000	2.004694 
2879.000000	2.003860 
2878.000000	2.002573 
2877.000000	2.000784 
2876.000000	1.998448 
2875.000000	1.995587 
2874.000000	1.992106 
2873.000000	1.987814 
2872.000000	1.982617 
2871.000000	1.976490 
2870.000000	1.969313 
2869.000000	1.961112 
2868.000000	1.952123 
2867.000000	1.942610 
2866.000000	1.933050 
2865.000000	1.923894 
2864.000000	1.915693 
2863.000000	1.909041 
2862.000000	1.904368 
2861.000000	1.902031 
2860.000000	1.902103 
2859.000000	1.904606 
2858.000000	1.909351 
2857.000000	1.916050 
2856.000000	1.924252 
2855.000000	1.933550 
2854.000000	1.943564 
2853.000000	1.954007 
2852.000000	1.964616 
2851.000000	1.975274 
2850.000000	1.985788 
2849.000000	1.996231 
2848.000000	2.006411 
2847.000000	2.016353 
2846.000000	2.025890 
2845.000000	2.034926 
2844.000000	2.043366 
2843.000000	2.051091 
2842.000000	2.058124 
2841.000000	2.064371 
2840.000000	2.069926 
2839.000000	2.074909 
2838.000000	2.079391 
2837.000000	2.083563 
2836.000000	2.087521 
2835.000000	2.091431 
2834.000000	2.095270 
2833.000000	2.099132 
2832.000000	2.102971 
2831.000000	2.106761 
2830.000000	2.110433 
2829.000000	2.113914 
2828.000000	2.117252 
2827.000000	2.120423 
2826.000000	2.123403 
2825.000000	2.126216 
2824.000000	2.128958 
2823.000000	2.131605 
2822.000000	2.134227 
2821.000000	2.136826 
2820.000000	2.139377 
2819.000000	2.141904 
2818.000000	2.144408 
2817.000000	2.146816 
2816.000000	2.149200 
2815.000000	2.151536 
2814.000000	2.153801 
2813.000000	2.156019 
2812.000000	2.158164 
2811.000000	2.160286 
2810.000000	2.162313 
2809.000000	2.164292 
2808.000000	2.166223 
2807.000000	2.168107 
2806.000000	2.169990 
2805.000000	2.171874 
2804.000000	2.173686 
2803.000000	2.175498 
2802.000000	2.177286 
2801.000000	2.178931 
2800.000000	2.180433 
2799.000000	2.181768 
2798.000000	2.182888 
2797.000000	2.183842 
2796.000000	2.184700 
2795.000000	2.185535 
2794.000000	2.186393 
2793.000000	2.187466 
2792.000000	2.188777 
2791.000000	2.190375 
2790.000000	2.192234 
2789.000000	2.194333 
2788.000000	2.196598 
2787.000000	2.199029 
2786.000000	2.201461 
2785.000000	2.203917 
2784.000000	2.206325 
2783.000000	2.208638 
2782.000000	2.210879 
2781.000000	2.213048 
2780.000000	2.215170 
2779.000000	2.217245 
2778.000000	2.219271 
2777.000000	2.221202 
2776.000000	2.223062 
2775.000000	2.224826 
2774.000000	2.226471 
2773.000000	2.228021 
2772.000000	2.229475 
2771.000000	2.230834 
2770.000000	2.232122 
2769.000000	2.233409 
2768.000000	2.234673 
2767.000000	2.235937 
2766.000000	2.237200 
2765.000000	2.238488 
2764.000000	2.239680 
2763.000000	2.240777 
2762.000000	2.241754 
2761.000000	2.242588 
2760.000000	2.243256 
2759.000000	2.243757 
2758.000000	2.244186 
2757.000000	2.244567 
2756.000000	2.244949 
2755.000000	2.245306 
2754.000000	2.245759 
2753.000000	2.246284 
2752.000000	2.246856 
2751.000000	2.247476 
2750.000000	2.248191 
2749.000000	2.248930 
2748.000000	2.249741 
2747.000000	2.250528 
2746.000000	2.251338 
2745.000000	2.252101 
2744.000000	2.252793 
2743.000000	2.253365 
2742.000000	2.253746 
2741.000000	2.254009 
2740.000000	2.254104 
2739.000000	2.254056 
2738.000000	2.253937 
2737.000000	2.253794 
2736.000000	2.253651 
2735.000000	2.253532 
2734.000000	2.253508 
2733.000000	2.253556 
2732.000000	2.253651 
2731.000000	2.253818 
2730.000000	2.253985 
2729.000000	2.254033 
2728.000000	2.254033 
2727.000000	2.253937 
2726.000000	2.253746 
2725.000000	2.253508 
2724.000000	2.253174 
2723.000000	2.252817 
2722.000000	2.252483 
2721.000000	2.252173 
2720.000000	2.251863 
2719.000000	2.251601 
2718.000000	2.251386 
2717.000000	2.251148 
2716.000000	2.250885 
2715.000000	2.250623 
2714.000000	2.250266 
2713.000000	2.249813 
2712.000000	2.249264 
2711.000000	2.248597 
2710.000000	2.247881 
2709.000000	2.247095 
2708.000000	2.246308 
2707.000000	2.245569 
2706.000000	2.244925 
2705.000000	2.244448 
2704.000000	2.244067 
2703.000000	2.243804 
2702.000000	2.243590 
2701.000000	2.243423 
2700.000000	2.243185 
2699.000000	2.242898 
2698.000000	2.242493 
2697.000000	2.241992 
2696.000000	2.241373 
2695.000000	2.240729 
2694.000000	2.240061 
2693.000000	2.239465 
2692.000000	2.238941 
2691.000000	2.238512 
2690.000000	2.238178 
2689.000000	2.237820 
2688.000000	2.237462 
2687.000000	2.237105 
2686.000000	2.236652 
2685.000000	2.236127 
2684.000000	2.235531 
2683.000000	2.234888 
2682.000000	2.234244 
2681.000000	2.233624 
2680.000000	2.232980 
2679.000000	2.232408 
2678.000000	2.231812 
2677.000000	2.231216 
2676.000000	2.230548 
2675.000000	2.229762 
2674.000000	2.228832 
2673.000000	2.227687 
2672.000000	2.226424 
2671.000000	2.224993 
2670.000000	2.223539 
2669.000000	2.222061 
2668.000000	2.220654 
2667.000000	2.219390 
2666.000000	2.218341 
2665.000000	2.217531 
2664.000000	2.216935 
2663.000000	2.216553 
2662.000000	2.216362 
2661.000000	2.216339 
2660.000000	2.216458 
2659.000000	2.216577 
2658.000000	2.216744 
2657.000000	2.216911 
2656.000000	2.217030 
2655.000000	2.217078 
2654.000000	2.217078 
2653.000000	2.216958 
2652.000000	2.216768 
2651.000000	2.216529 
2650.000000	2.216172 
2649.000000	2.215814 
2648.000000	2.215409 
2647.000000	2.215099 
2646.000000	2.214860 
2645.000000	2.214789 
2644.000000	2.214860 
2643.000000	2.215147 
2642.000000	2.215600 
2641.000000	2.216196 
2640.000000	2.216839 
2639.000000	2.217483 
2638.000000	2.218008 
2637.000000	2.218365 
2636.000000	2.218508 
2635.000000	2.218484 
2634.000000	2.218270 
2633.000000	2.217912 
2632.000000	2.217483 
2631.000000	2.217078 
2630.000000	2.216744 
2629.000000	2.216482 
2628.000000	2.216315 
2627.000000	2.216267 
2626.000000	2.216339 
2625.000000	2.216458 
2624.000000	2.216649 
2623.000000	2.216863 
2622.000000	2.217102 
2621.000000	2.217411 
2620.000000	2.217721 
2619.000000	2.218055 
2618.000000	2.218389 
2617.000000	2.218770 
2616.000000	2.219128 
2615.000000	2.219486 
2614.000000	2.219796 
2613.000000	2.220153 
2612.000000	2.220487 
2611.000000	2.220773 
2610.000000	2.221083 
2609.000000	2.221393 
2608.000000	2.221775 
2607.000000	2.222180 
2606.000000	2.222609 
2605.000000	2.223134 
2604.000000	2.223706 
2603.000000	2.224349 
2602.000000	2.224993 
2601.000000	2.225637 
2600.000000	2.226281 
2599.000000	2.226877 
2598.000000	2.227377 
2597.000000	2.227854 
2596.000000	2.228260 
2595.000000	2.228689 
2594.000000	2.229094 
2593.000000	2.229523 
2592.000000	2.230048 
2591.000000	2.230620 
2590.000000	2.231264 
2589.000000	2.231979 
2588.000000	2.232813 
2587.000000	2.233672 
2586.000000	2.234673 
2585.000000	2.235817 
2584.000000	2.237176 
2583.000000	2.238726 
2582.000000	2.240467 
2581.000000	2.242374 
2580.000000	2.244329 
2579.000000	2.246356 
2578.000000	2.248358 
2577.000000	2.250289 
2576.000000	2.252125 
2575.000000	2.253842 
2574.000000	2.255535 
2573.000000	2.257156 
2572.000000	2.258777 
2571.000000	2.260351 
2570.000000	2.261853 
2569.000000	2.263283 
2568.000000	2.264595 
2567.000000	2.265810 
2566.000000	2.266907 
2565.000000	2.267956 
2564.000000	2.268958 
2563.000000	2.270007 
2562.000000	2.271127 
2561.000000	2.272295 
2560.000000	2.273511 
2559.000000	2.274799 
2558.000000	2.276039 
2557.000000	2.277302 
2556.000000	2.278494 
2555.000000	2.279710 
2554.000000	2.280902 
2553.000000	2.282142 
2552.000000	2.283358 
2551.000000	2.284598 
2550.000000	2.285790 
2549.000000	2.286934 
2548.000000	2.287983 
2547.000000	2.288937 
2546.000000	2.289867 
2545.000000	2.290844 
2544.000000	2.291846 
2543.000000	2.292943 
2542.000000	2.294182 
2541.000000	2.295494 
2540.000000	2.296900 
2539.000000	2.298331 
2538.000000	2.299809 
2537.000000	2.301263 
2536.000000	2.302694 
2535.000000	2.304124 
2534.000000	2.305626 
2533.000000	2.307152 
2532.000000	2.308750 
2531.000000	2.310299 
2530.000000	2.311778 
2529.000000	2.313137 
2528.000000	2.314305 
2527.000000	2.315258 
2526.000000	2.315998 
2525.000000	2.316522 
2524.000000	2.316904 
2523.000000	2.317214 
2522.000000	2.317476 
2521.000000	2.317738 
2520.000000	2.318000 
2519.000000	2.318239 
2518.000000	2.318477 
2517.000000	2.318716 
2516.000000	2.318978 
2515.000000	2.319240 
2514.000000	2.319598 
2513.000000	2.320051 
2512.000000	2.320623 
2511.000000	2.321314 
2510.000000	2.322077 
2509.000000	2.322888 
2508.000000	2.323627 
2507.000000	2.324247 
2506.000000	2.324676 
2505.000000	2.324819 
2504.000000	2.324676 
2503.000000	2.324223 
2502.000000	2.323508 
2501.000000	2.322649 
2500.000000	2.321720 
2499.000000	2.320861 
2498.000000	2.320170 
2497.000000	2.319645 
2496.000000	2.319335 
2495.000000	2.319216 
2494.000000	2.319216 
2493.000000	2.319335 
2492.000000	2.319455 
2491.000000	2.319598 
2490.000000	2.319693 
2489.000000	2.319812 
2488.000000	2.319931 
2487.000000	2.320051 
2486.000000	2.320146 
2485.000000	2.320218 
2484.000000	2.320170 
2483.000000	2.319979 
2482.000000	2.319622 
2481.000000	2.319073 
2480.000000	2.318406 
2479.000000	2.317667 
2478.000000	2.316904 
2477.000000	2.316188 
2476.000000	2.315545 
2475.000000	2.315068 
2474.000000	2.314734 
2473.000000	2.314519 
2472.000000	2.314400 
2471.000000	2.314352 
2470.000000	2.314329 
2469.000000	2.314305 
2468.000000	2.314233 
2467.000000	2.314114 
2466.000000	2.313828 
2465.000000	2.313375 
2464.000000	2.312707 
2463.000000	2.311849 
2462.000000	2.310800 
2461.000000	2.309608 
2460.000000	2.308368 
2459.000000	2.307081 
2458.000000	2.305817 
2457.000000	2.304649 
2456.000000	2.303576 
2455.000000	2.302575 
2454.000000	2.301692 
2453.000000	2.300834 
2452.000000	2.300024 
2451.000000	2.299284 
2450.000000	2.298521 
2449.000000	2.297830 
2448.000000	2.297115 
2447.000000	2.296400 
2446.000000	2.295708 
2445.000000	2.295017 
2444.000000	2.294325 
2443.000000	2.293610 
2442.000000	2.292847 
2441.000000	2.292084 
2440.000000	2.291274 
2439.000000	2.290415 
2438.000000	2.289509 
2437.000000	2.288556 
2436.000000	2.287554 
2435.000000	2.286553 
2434.000000	2.285575 
2433.000000	2.284669 
2432.000000	2.283883 
2431.000000	2.283215 
2430.000000	2.282738 
2429.000000	2.282357 
2428.000000	2.281975 
2427.000000	2.281522 
2426.000000	2.280879 
2425.000000	2.279949 
2424.000000	2.278614 
2423.000000	2.276992 
2422.000000	2.275037 
2421.000000	2.272868 
2420.000000	2.270650 
2419.000000	2.268505 
2418.000000	2.266550 
2417.000000	2.264904 
2416.000000	2.263545 
2415.000000	2.262496 
2414.000000	2.261638 
2413.000000	2.260875 
2412.000000	2.260088 
2411.000000	2.259206 
2410.000000	2.258157 
2409.000000	2.257037 
2408.000000	2.255797 
2407.000000	2.254557 
2406.000000	2.253389 
2405.000000	2.252340 
2404.000000	2.251505 
2403.000000	2.250814 
2402.000000	2.250337 
2401.000000	2.250003 
2400.000000	2.249789 
2399.000000	2.249693 
2398.000000	2.249670 
2397.000000	2.249670 
2396.000000	2.249622 
2395.000000	2.249574 
2394.000000	2.249455 
2393.000000	2.249264 
2392.000000	2.249050 
2391.000000	2.248787 
2390.000000	2.248525 
2389.000000	2.248263 
2388.000000	2.248048 
2387.000000	2.247810 
2386.000000	2.247548 
2385.000000	2.247238 
2384.000000	2.246856 
2383.000000	2.246356 
2382.000000	2.245736 
2381.000000	2.245044 
2380.000000	2.244329 
2379.000000	2.243590 
2378.000000	2.242875 
2377.000000	2.242159 
2376.000000	2.241468 
2375.000000	2.240729 
2374.000000	2.239894 
2373.000000	2.239036 
2372.000000	2.238130 
2371.000000	2.237153 
2370.000000	2.236151 
2369.000000	2.235198 
2368.000000	2.234315 
2367.000000	2.233576 
2366.000000	2.233052 
2365.000000	2.232789 
2364.000000	2.232789 
2363.000000	2.233099 
2362.000000	2.233743 
2361.000000	2.234745 
2360.000000	2.236127 
2359.000000	2.237796 
2358.000000	2.239799 
2357.000000	2.242112 
2356.000000	2.244615 
2355.000000	2.247285 
2354.000000	2.250003 
2353.000000	2.252650 
2352.000000	2.255153 
2351.000000	2.257347 
2350.000000	2.259182 
2349.000000	2.260637 
2348.000000	2.261734 
2347.000000	2.262449 
2346.000000	2.262926 
2345.000000	2.263259 
2344.000000	2.263569 
2343.000000	2.263903 
2342.000000	2.264332 
2341.000000	2.264857 
2340.000000	2.265477 
2339.000000	2.266263 
2338.000000	2.267169 
2337.000000	2.268266 
2336.000000	2.269554 
2335.000000	2.271056 
2334.000000	2.272748 
2333.000000	2.274632 
2332.000000	2.276635 
2331.000000	2.278757 
2330.000000	2.280902 
2329.000000	2.283000 
2328.000000	2.285003 
2327.000000	2.286958 
2326.000000	2.288818 
2325.000000	2.290630 
2324.000000	2.292418 
2323.000000	2.294230 
2322.000000	2.296066 
2321.000000	2.297973 
2320.000000	2.299904 
2319.000000	2.301859 
2318.000000	2.303886 
2317.000000	2.305960 
2316.000000	2.308034 
2315.000000	2.310156 
2314.000000	2.312302 
2313.000000	2.314496 
2312.000000	2.316737 
2311.000000	2.318954 
2310.000000	2.321171 
2309.000000	2.323317 
2308.000000	2.325344 
2307.000000	2.327251 
2306.000000	2.329039 
2305.000000	2.330684 
2304.000000	2.332186 
2303.000000	2.333688 
2302.000000	2.335119 
2301.000000	2.336549 
2300.000000	2.337956 
2299.000000	2.339363 
2298.000000	2.340745 
2297.000000	2.342081 
2296.000000	2.343320 
2295.000000	2.344512 
2294.000000	2.345609 
2293.000000	2.346658 
2292.000000	2.347683 
2291.000000	2.348756 
2290.000000	2.349901 
2289.000000	2.351117 
2288.000000	2.352404 
2287.000000	2.353739 
2286.000000	2.355051 
2285.000000	2.356290 
2284.000000	2.357459 
2283.000000	2.358484 
2282.000000	2.359366 
2281.000000	2.360129 
2280.000000	2.360820 
2279.000000	2.361464 
2278.000000	2.362155 
2277.000000	2.362942 
2276.000000	2.363824 
2275.000000	2.364897 
2274.000000	2.366018 
2273.000000	2.367258 
2272.000000	2.368521 
2271.000000	2.369761 
2270.000000	2.370953 
2269.000000	2.372050 
2268.000000	2.372980 
2267.000000	2.373814 
2266.000000	2.374529 
2265.000000	2.375125 
2264.000000	2.375578 
2263.000000	2.375984 
2262.000000	2.376294 
2261.000000	2.376604 
2260.000000	2.376961 
2259.000000	2.377343 
2258.000000	2.377772 
2257.000000	2.378273 
2256.000000	2.378797 
2255.000000	2.379345 
2254.000000	2.379870 
2253.000000	2.380228 
2252.000000	2.380490 
2251.000000	2.380609 
2250.000000	2.380585 
2249.000000	2.380561 
2248.000000	2.380537 
2247.000000	2.380585 
2246.000000	2.380776 
2245.000000	2.381062 
2244.000000	2.381491 
2243.000000	2.381992 
2242.000000	2.382540 
2241.000000	2.383017 
2240.000000	2.383399 
2239.000000	2.383637 
2238.000000	2.383685 
2237.000000	2.383494 
2236.000000	2.383136 
2235.000000	2.382659 
2234.000000	2.382040 
2233.000000	2.381372 
2232.000000	2.380681 
2231.000000	2.379989 
2230.000000	2.379345 
2229.000000	2.378749 
2228.000000	2.378225 
2227.000000	2.377700 
2226.000000	2.377176 
2225.000000	2.376627 
2224.000000	2.376008 
2223.000000	2.375316 
2222.000000	2.374601 
2221.000000	2.373886 
2220.000000	2.373170 
2219.000000	2.372550 
2218.000000	2.371978 
2217.000000	2.371573 
2216.000000	2.371263 
2215.000000	2.371072 
2214.000000	2.370905 
2213.000000	2.370715 
2212.000000	2.370500 
2211.000000	2.370166 
2210.000000	2.369689 
2209.000000	2.369070 
2208.000000	2.368283 
2207.000000	2.367448 
2206.000000	2.366590 
2205.000000	2.365708 
2204.000000	2.364897 
2203.000000	2.364110 
2202.000000	2.363348 
2201.000000	2.362608 
2200.000000	2.361845 
2199.000000	2.361011 
2198.000000	2.360033 
2197.000000	2.358937 
2196.000000	2.357697 
2195.000000	2.356410 
2194.000000	2.355146 
2193.000000	2.353858 
2192.000000	2.352714 
2191.000000	2.351689 
2190.000000	2.350807 
2189.000000	2.349996 
2188.000000	2.349209 
2187.000000	2.348399 
2186.000000	2.347493 
2185.000000	2.346539 
2184.000000	2.345538 
2183.000000	2.344560 
2182.000000	2.343654 
2181.000000	2.342915 
2180.000000	2.342343 
2179.000000	2.341985 
2178.000000	2.341747 
2177.000000	2.341508 
2176.000000	2.341175 
2175.000000	2.340698 
2174.000000	2.340030 
2173.000000	2.339172 
2172.000000	2.338194 
2171.000000	2.337169 
2170.000000	2.336144 
2169.000000	2.335214 
2168.000000	2.334451 
2167.000000	2.333831 
2166.000000	2.333354 
2165.000000	2.332925 
2164.000000	2.332544 
2163.000000	2.332139 
2162.000000	2.331686 
2161.000000	2.331185 
2160.000000	2.330660 
2159.000000	2.330112 
2158.000000	2.329587 
2157.000000	2.329158 
2156.000000	2.328872 
2155.000000	2.328801 
2154.000000	2.328991 
2153.000000	2.329468 
2152.000000	2.330160 
2151.000000	2.331066 
2150.000000	2.332067 
2149.000000	2.332997 
2148.000000	2.333736 
2147.000000	2.334237 
2146.000000	2.334499 
2145.000000	2.334475 
2144.000000	2.334237 
2143.000000	2.333903 
2142.000000	2.333521 
2141.000000	2.333188 
2140.000000	2.332925 
2139.000000	2.332735 
2138.000000	2.332615 
2137.000000	2.332520 
2136.000000	2.332448 
2135.000000	2.332401 
2134.000000	2.332425 
2133.000000	2.332472 
2132.000000	2.332663 
2131.000000	2.332997 
2130.000000	2.333474 
2129.000000	2.334117 
2128.000000	2.334809 
2127.000000	2.335572 
2126.000000	2.336287 
2125.000000	2.336883 
2124.000000	2.337336 
2123.000000	2.337574 
2122.000000	2.337646 
2121.000000	2.337551 
2120.000000	2.337336 
2119.000000	2.337002 
2118.000000	2.336573 
2117.000000	2.336096 
2116.000000	2.335548 
2115.000000	2.334976 
2114.000000	2.334356 
2113.000000	2.333736 
2112.000000	2.333188 
2111.000000	2.332854 
2110.000000	2.332735 
2109.000000	2.332997 
2108.000000	2.333641 
2107.000000	2.334642 
2106.000000	2.335906 
2105.000000	2.337312 
2104.000000	2.338719 
2103.000000	2.339959 
2102.000000	2.340960 
2101.000000	2.341580 
2100.000000	2.341842 
2099.000000	2.341794 
2098.000000	2.341413 
2097.000000	2.340888 
2096.000000	2.340340 
2095.000000	2.339887 
2094.000000	2.339601 
2093.000000	2.339577 
2092.000000	2.339863 
2091.000000	2.340388 
2090.000000	2.341127 
2089.000000	2.342033 
2088.000000	2.342963 
2087.000000	2.343845 
2086.000000	2.344608 
2085.000000	2.345204 
2084.000000	2.345657 
2083.000000	2.346038 
2082.000000	2.346348 
2081.000000	2.346634 
2080.000000	2.346873 
2079.000000	2.347087 
2078.000000	2.347207 
2077.000000	2.347159 
2076.000000	2.346897 
2075.000000	2.346444 
2074.000000	2.345776 
2073.000000	2.345061 
2072.000000	2.344489 
2071.000000	2.344322 
2070.000000	2.344727 
2069.000000	2.345871 
2068.000000	2.347874 
2067.000000	2.350711 
2066.000000	2.354288 
2065.000000	2.358436 
2064.000000	2.363038 
2063.000000	2.367877 
2062.000000	2.372717 
2061.000000	2.377510 
2060.000000	2.382159 
2059.000000	2.386569 
2058.000000	2.390694 
2057.000000	2.394461 
2056.000000	2.397847 
2055.000000	2.400732 
2054.000000	2.403163 
2053.000000	2.405118 
2052.000000	2.406644 
2051.000000	2.407789 
2050.000000	2.408742 
2049.000000	2.409553 
2048.000000	2.410340 
2047.000000	2.411222 
2046.000000	2.412271 
2045.000000	2.413487 
2044.000000	2.414917 
2043.000000	2.416539 
2042.000000	2.418375 
2041.000000	2.420282 
2040.000000	2.422308 
2039.000000	2.424359 
2038.000000	2.426362 
2037.000000	2.428269 
2036.000000	2.430009 
2035.000000	2.431607 
2034.000000	2.432990 
2033.000000	2.434206 
2032.000000	2.435278 
2031.000000	2.436280 
2030.000000	2.437186 
2029.000000	2.438139 
2028.000000	2.439117 
2027.000000	2.440094 
2026.000000	2.441096 
2025.000000	2.442073 
2024.000000	2.443051 
2023.000000	2.443909 
2022.000000	2.444720 
2021.000000	2.445411 
2020.000000	2.446103 
2019.000000	2.446722 
2018.000000	2.447342 
2017.000000	2.447962 
2016.000000	2.448606 
2015.000000	2.449274 
2014.000000	2.449965 
2013.000000	2.450656 
2012.000000	2.451348 
2011.000000	2.452039 
2010.000000	2.452754 
2009.000000	2.453494 
2008.000000	2.454257 
2007.000000	2.455019 
2006.000000	2.455735 
2005.000000	2.456426 
2004.000000	2.457022 
2003.000000	2.457499 
2002.000000	2.457857 
2001.000000	2.458119 
2000.000000	2.458262 
1999.000000	2.458310 
1998.000000	2.458286 
1997.000000	2.458238 
1996.000000	2.458214 
1995.000000	2.458167 
1994.000000	2.458047 
1993.000000	2.457928 
1992.000000	2.457714 
1991.000000	2.457427 
1990.000000	2.456951 
1989.000000	2.456331 
1988.000000	2.455592 
1987.000000	2.454733 
1986.000000	2.453804 
1985.000000	2.452850 
1984.000000	2.451968 
1983.000000	2.451109 
1982.000000	2.450370 
1981.000000	2.449727 
1980.000000	2.449083 
1979.000000	2.448463 
1978.000000	2.447772 
1977.000000	2.446961 
1976.000000	2.446079 
1975.000000	2.444934 
1974.000000	2.443718 
1973.000000	2.442383 
1972.000000	2.440977 
1971.000000	2.439546 
1970.000000	2.438139 
1969.000000	2.436852 
1968.000000	2.435660 
1967.000000	2.434635 
1966.000000	2.433776 
1965.000000	2.433133 
1964.000000	2.432632 
1963.000000	2.432298 
1962.000000	2.432036 
1961.000000	2.431845 
1960.000000	2.431654 
1959.000000	2.431368 
1958.000000	2.431011 
1957.000000	2.430629 
1956.000000	2.430105 
1955.000000	2.429556 
1954.000000	2.428936 
1953.000000	2.428293 
1952.000000	2.427577 
1951.000000	2.426767 
1950.000000	2.425932 
1949.000000	2.424979 
1948.000000	2.423882 
1947.000000	2.422714 
1946.000000	2.421450 
1945.000000	2.420139 
1944.000000	2.418804 
1943.000000	2.417469 
1942.000000	2.416181 
1941.000000	2.414941 
1940.000000	2.413725 
1939.000000	2.412557 
1938.000000	2.411460 
1937.000000	2.410364 
1936.000000	2.409362 
1935.000000	2.408385 
1934.000000	2.407455 
1933.000000	2.406597 
1932.000000	2.405810 
1931.000000	2.405047 
1930.000000	2.404284 
1929.000000	2.403521 
1928.000000	2.402710 
1927.000000	2.401876 
1926.000000	2.400970 
1925.000000	2.399921 
1924.000000	2.398848 
1923.000000	2.397704 
1922.000000	2.396535 
1921.000000	2.395439 
1920.000000	2.394437 
1919.000000	2.393555 
1918.000000	2.392911 
1917.000000	2.392411 
1916.000000	2.392077 
1915.000000	2.391791 
1914.000000	2.391505 
1913.000000	2.391147 
1912.000000	2.390646 
1911.000000	2.389931 
1910.000000	2.388978 
1909.000000	2.387881 
1908.000000	2.386617 
1907.000000	2.385258 
1906.000000	2.383828 
1905.000000	2.382349 
1904.000000	2.380943 
1903.000000	2.379584 
1902.000000	2.378320 
1901.000000	2.377152 
1900.000000	2.376103 
1899.000000	2.375173 
1898.000000	2.374362 
1897.000000	2.373671 
1896.000000	2.373051 
1895.000000	2.372479 
1894.000000	2.372050 
1893.000000	2.371668 
1892.000000	2.371406 
1891.000000	2.371239 
1890.000000	2.371144 
1889.000000	2.371168 
1888.000000	2.371311 
1887.000000	2.371549 
1886.000000	2.371907 
1885.000000	2.372336 
1884.000000	2.372789 
1883.000000	2.373337 
1882.000000	2.373957 
1881.000000	2.374601 
1880.000000	2.375268 
1879.000000	2.375936 
1878.000000	2.376556 
1877.000000	2.377104 
1876.000000	2.377533 
1875.000000	2.377867 
1874.000000	2.378082 
1873.000000	2.378249 
1872.000000	2.378416 
1871.000000	2.378678 
1870.000000	2.379059 
1869.000000	2.379631 
1868.000000	2.380347 
1867.000000	2.381229 
1866.000000	2.382183 
1865.000000	2.383112 
1864.000000	2.384090 
1863.000000	2.384972 
1862.000000	2.385807 
1861.000000	2.386689 
1860.000000	2.387547 
1859.000000	2.388429 
1858.000000	2.389359 
1857.000000	2.390313 
1856.000000	2.391266 
1855.000000	2.392148 
1854.000000	2.392864 
1853.000000	2.393388 
1852.000000	2.393698 
1851.000000	2.393770 
1850.000000	2.393627 
1849.000000	2.393341 
1848.000000	2.392983 
1847.000000	2.392697 
1846.000000	2.392601 
1845.000000	2.392768 
1844.000000	2.393293 
1843.000000	2.394175 
1842.000000	2.395367 
1841.000000	2.396845 
1840.000000	2.398419 
1839.000000	2.400016 
1838.000000	2.401471 
1837.000000	2.402734 
1836.000000	2.403736 
1835.000000	2.404451 
1834.000000	2.404832 
1833.000000	2.405095 
1832.000000	2.405214 
1831.000000	2.405405 
1830.000000	2.405714 
1829.000000	2.406263 
1828.000000	2.407073 
1827.000000	2.408194 
1826.000000	2.409625 
1825.000000	2.411270 
1824.000000	2.413058 
1823.000000	2.414941 
1822.000000	2.416825 
1821.000000	2.418613 
1820.000000	2.420306 
1819.000000	2.421784 
1818.000000	2.423095 
1817.000000	2.424240 
1816.000000	2.425241 
1815.000000	2.426171 
1814.000000	2.427005 
1813.000000	2.427816 
1812.000000	2.428603 
1811.000000	2.429342 
1810.000000	2.429986 
1809.000000	2.430510 
1808.000000	2.430891 
1807.000000	2.431178 
1806.000000	2.431321 
1805.000000	2.431368 
1804.000000	2.431392 
1803.000000	2.431416 
1802.000000	2.431440 
1801.000000	2.431464 
1800.000000	2.431488 
1799.000000	2.431392 
1798.000000	2.431225 
1797.000000	2.430987 
1796.000000	2.430629 
1795.000000	2.430272 
1794.000000	2.429962 
1793.000000	2.429771 
1792.000000	2.429819 
1791.000000	2.430033 
1790.000000	2.430415 
1789.000000	2.430939 
1788.000000	2.431416 
1787.000000	2.431797 
1786.000000	2.431988 
1785.000000	2.431964 
1784.000000	2.431702 
1783.000000	2.431201 
1782.000000	2.430462 
1781.000000	2.429461 
1780.000000	2.428197 
1779.000000	2.426624 
1778.000000	2.424812 
1777.000000	2.422738 
1776.000000	2.420496 
1775.000000	2.418255 
1774.000000	2.416181 
1773.000000	2.414441 
1772.000000	2.413153 
1771.000000	2.412366 
1770.000000	2.412056 
1769.000000	2.412128 
1768.000000	2.412390 
1767.000000	2.412652 
1766.000000	2.412891 
1765.000000	2.412939 
1764.000000	2.412772 
1763.000000	2.412462 
1762.000000	2.411937 
1761.000000	2.411222 
1760.000000	2.410292 
1759.000000	2.409076 
1758.000000	2.407479 
1757.000000	2.405500 
1756.000000	2.403068 
1755.000000	2.400159 
1754.000000	2.396893 
1753.000000	2.393388 
1752.000000	2.389717 
1751.000000	2.386116 
1750.000000	2.382588 
1749.000000	2.379202 
1748.000000	2.375936 
1747.000000	2.372694 
1746.000000	2.369451 
1745.000000	2.366065 
1744.000000	2.362489 
1743.000000	2.358698 
1742.000000	2.354645 
1741.000000	2.350401 
1740.000000	2.346110 
1739.000000	2.341818 
1738.000000	2.337765 
1737.000000	2.334141 
1736.000000	2.331042 
1735.000000	2.328681 
1734.000000	2.327179 
1733.000000	2.326464 
1732.000000	2.326488 
1731.000000	2.327060 
1730.000000	2.328014 
1729.000000	2.329039 
1728.000000	2.329826 
1727.000000	2.330112 
1726.000000	2.329754 
1725.000000	2.328562 
1724.000000	2.326560 
1723.000000	2.323818 
1722.000000	2.320504 
1721.000000	2.316856 
1720.000000	2.313184 
1719.000000	2.309751 
1718.000000	2.306747 
1717.000000	2.304363 
1716.000000	2.302575 
1715.000000	2.301359 
1714.000000	2.300477 
1713.000000	2.299761 
1712.000000	2.298903 
1711.000000	2.297711 
1710.000000	2.295994 
1709.000000	2.293634 
1708.000000	2.290630 
1707.000000	2.287030 
1706.000000	2.282953 
1705.000000	2.278518 
1704.000000	2.273964 
1703.000000	2.269482 
1702.000000	2.265262 
1701.000000	2.261567 
1700.000000	2.258610 
1699.000000	2.256560 
1698.000000	2.255487 
1697.000000	2.255368 
1696.000000	2.256035 
1695.000000	2.257227 
1694.000000	2.258491 
1693.000000	2.259492 
1692.000000	2.259802 
1691.000000	2.259206 
1690.000000	2.257633 
1689.000000	2.255225 
1688.000000	2.252221 
1687.000000	2.249026 
1686.000000	2.246093 
1685.000000	2.243709 
1684.000000	2.242064 
1683.000000	2.241134 
1682.000000	2.240753 
1681.000000	2.240681 
1680.000000	2.240562 
1679.000000	2.240133 
1678.000000	2.239155 
1677.000000	2.237629 
1676.000000	2.235579 
1675.000000	2.233195 
1674.000000	2.230644 
1673.000000	2.228093 
1672.000000	2.225685 
1671.000000	2.223515 
1670.000000	2.221584 
1669.000000	2.219867 
1668.000000	2.218365 
1667.000000	2.216982 
1666.000000	2.215647 
1665.000000	2.214312 
1664.000000	2.212834 
1663.000000	2.211046 
1662.000000	2.208805 
1661.000000	2.205944 
1660.000000	2.202296 
1659.000000	2.197933 
1658.000000	2.192878 
1657.000000	2.187442 
1656.000000	2.181935 
1655.000000	2.176713 
1654.000000	2.172112 
1653.000000	2.168393 
1652.000000	2.165651 
1651.000000	2.163934 
1650.000000	2.163052 
1649.000000	2.162837 
1648.000000	2.162981 
1647.000000	2.163219 
1646.000000	2.163362 
1645.000000	2.163124 
1644.000000	2.162408 
1643.000000	2.161097 
1642.000000	2.159214 
1641.000000	2.156734 
1640.000000	2.153801 
1639.000000	2.150630 
1638.000000	2.147364 
1637.000000	2.144360 
1636.000000	2.141690 
1635.000000	2.139520 
1634.000000	2.137804 
1633.000000	2.136421 
1632.000000	2.135133 
1631.000000	2.133703 
1630.000000	2.131867 
1629.000000	2.129483 
1628.000000	2.126383 
1627.000000	2.122497 
1626.000000	2.117872 
1625.000000	2.112531 
1624.000000	2.106547 
1623.000000	2.099919 
1622.000000	2.092742 
1621.000000	2.085065 
1620.000000	2.076888 
1619.000000	2.068233 
1618.000000	2.059149 
1617.000000	2.049684 
1616.000000	2.039957 
1615.000000	2.029991 
1614.000000	2.019977 
1613.000000	2.010130 
1612.000000	2.000737 
1611.000000	1.992130 
1610.000000	1.984691 
1609.000000	1.978731 
1608.000000	1.974558 
1607.000000	1.972293 
1606.000000	1.971936 
1605.000000	1.973295 
1604.000000	1.976108 
1603.000000	1.980018 
1602.000000	1.984596 
1601.000000	1.989483 
1600.000000	1.994347 
1599.000000	1.998996 
1598.000000	2.003240 
1597.000000	2.007055 
1596.000000	2.010273 
1595.000000	2.012968 
1594.000000	2.015018 
1593.000000	2.016472 
1592.000000	2.017307 
1591.000000	2.017545 
1590.000000	2.017259 
1589.000000	2.016448 
1588.000000	2.015161 
1587.000000	2.013492 
1586.000000	2.011466 
1585.000000	2.009057 
1584.000000	2.006292 
1583.000000	2.003264 
1582.000000	2.000021 
1581.000000	1.996684 
1580.000000	1.993441 
1579.000000	1.990532 
1578.000000	1.988101 
1577.000000	1.986241 
1576.000000	1.985025 
1575.000000	1.984381 
1574.000000	1.984119 
1573.000000	1.984071 
1572.000000	1.984024 
1571.000000	1.983690 
1570.000000	1.982808 
1569.000000	1.981210 
1568.000000	1.978731 
1567.000000	1.975202 
1566.000000	1.970696 
1565.000000	1.965188 
1564.000000	1.959013 
1563.000000	1.952576 
1562.000000	1.946306 
1561.000000	1.940751 
1560.000000	1.936459 
1559.000000	1.933836 
1558.000000	1.933026 
1557.000000	1.934003 
1556.000000	1.936483 
1555.000000	1.940083 
1554.000000	1.944184 
1553.000000	1.948237 
1552.000000	1.951837 
1551.000000	1.954579 
1550.000000	1.956343 
1549.000000	1.957106 
1548.000000	1.957058 
1547.000000	1.956534 
1546.000000	1.956009 
1545.000000	1.955938 
1544.000000	1.956963 
1543.000000	1.959586 
1542.000000	1.964282 
1541.000000	1.971292 
1540.000000	1.980590 
1539.000000	1.991939 
1538.000000	2.004957 
1537.000000	2.019000 
1536.000000	2.033352 
1535.000000	2.047443 
1534.000000	2.060675 
1533.000000	2.072572 
1532.000000	2.082872 
1531.000000	2.091526 
1530.000000	2.098584 
1529.000000	2.104020 
1528.000000	2.107977 
1527.000000	2.110719 
1526.000000	2.112388 
1525.000000	2.113175 
1524.000000	2.113246 
1523.000000	2.112817 
1522.000000	2.112007 
1521.000000	2.110981 
1520.000000	2.109813 
1519.000000	2.108502 
1518.000000	2.107119 
1517.000000	2.105641 
1516.000000	2.103924 
1515.000000	2.101778 
1514.000000	2.099204 
1513.000000	2.095985 
1512.000000	2.092051 
1511.000000	2.087140 
1510.000000	2.081179 
1509.000000	2.073812 
1508.000000	2.064633 
1507.000000	2.052903 
1506.000000	2.037930 
1505.000000	2.018809 
1504.000000	1.994824 
1503.000000	1.965522 
1502.000000	1.930975 
1501.000000	1.891946 
1500.000000	1.849889 
1499.000000	1.807045 
1498.000000	1.765990 
1497.000000	1.729607 
1496.000000	1.700568 
1495.000000	1.680779 
1494.000000	1.671433 
1493.000000	1.672744 
1492.000000	1.684093 
1491.000000	1.703739 
1490.000000	1.729702 
1489.000000	1.759624 
1488.000000	1.791357 
1487.000000	1.822924 
1486.000000	1.852726 
1485.000000	1.879644 
1484.000000	1.903152 
1483.000000	1.922941 
1482.000000	1.938986 
1481.000000	1.951503 
1480.000000	1.960825 
1479.000000	1.967430 
1478.000000	1.971817 
1477.000000	1.974463 
1476.000000	1.975727 
1475.000000	1.976060 
1474.000000	1.975798 
1473.000000	1.975035 
1472.000000	1.973795 
1471.000000	1.972174 
1470.000000	1.970028 
1469.000000	1.967120 
1468.000000	1.963210 
1467.000000	1.958227 
1466.000000	1.951932 
1465.000000	1.944065 
1464.000000	1.934504 
1463.000000	1.923179 
1462.000000	1.909995 
1461.000000	1.895070 
1460.000000	1.878452 
1459.000000	1.860523 
1458.000000	1.841878 
1457.000000	1.823306 
1456.000000	1.805567 
1455.000000	1.789641 
1454.000000	1.776528 
1453.000000	1.767134 
1452.000000	1.761913 
1451.000000	1.761126 
1450.000000	1.764631 
1449.000000	1.771903 
1448.000000	1.781988 
1447.000000	1.793861 
1446.000000	1.806378 
1445.000000	1.818561 
1444.000000	1.829600 
1443.000000	1.838994 
1442.000000	1.846551 
1441.000000	1.852393 
1440.000000	1.856732 
1439.000000	1.860070 
1438.000000	1.862668 
1437.000000	1.864886 
1436.000000	1.866841 
1435.000000	1.868677 
1434.000000	1.870274 
1433.000000	1.871633 
1432.000000	1.872634 
1431.000000	1.873230 
1430.000000	1.873302 
1429.000000	1.872897 
1428.000000	1.872038 
1427.000000	1.870799 
1426.000000	1.869130 
1425.000000	1.867198 
1424.000000	1.865053 
1423.000000	1.862764 
1422.000000	1.860356 
1421.000000	1.857876 
1420.000000	1.855325 
1419.000000	1.852655 
1418.000000	1.849722 
1417.000000	1.846289 
1416.000000	1.842093 
1415.000000	1.836895 
1414.000000	1.830363 
1413.000000	1.822304 
1412.000000	1.812577 
1411.000000	1.801371 
1410.000000	1.788949 
1409.000000	1.775813 
1408.000000	1.762652 
1407.000000	1.750254 
1406.000000	1.739335 
1405.000000	1.730608 
1404.000000	1.724553 
1403.000000	1.721429 
1402.000000	1.721262 
1401.000000	1.723837 
1400.000000	1.728773 
1399.000000	1.735568 
1398.000000	1.743602 
1397.000000	1.752305 
1396.000000	1.761031 
1395.000000	1.769280 
1394.000000	1.776528 
1393.000000	1.782393 
1392.000000	1.786637 
1391.000000	1.789069 
1390.000000	1.789855 
1389.000000	1.789259 
1388.000000	1.787757 
1387.000000	1.785850 
1386.000000	1.784205 
1385.000000	1.783299 
1384.000000	1.783514 
1383.000000	1.784920 
1382.000000	1.787543 
1381.000000	1.791048 
1380.000000	1.795053 
1379.000000	1.799154 
1378.000000	1.803040 
1377.000000	1.806473 
1376.000000	1.809287 
1375.000000	1.811480 
1374.000000	1.813125 
1373.000000	1.814341 
1372.000000	1.815247 
1371.000000	1.815867 
1370.000000	1.816344 
1369.000000	1.816701 
1368.000000	1.816916 
1367.000000	1.817059 
1366.000000	1.817083 
1365.000000	1.817107 
1364.000000	1.817107 
1363.000000	1.817035 
1362.000000	1.816964 
1361.000000	1.816844 
1360.000000	1.816654 
1359.000000	1.816391 
1358.000000	1.816010 
1357.000000	1.815557 
1356.000000	1.815032 
1355.000000	1.814413 
1354.000000	1.813745 
1353.000000	1.813054 
1352.000000	1.812314 
1351.000000	1.811599 
1350.000000	1.810932 
1349.000000	1.810431 
1348.000000	1.810050 
1347.000000	1.809883 
1346.000000	1.809930 
1345.000000	1.810312 
1344.000000	1.810979 
1343.000000	1.812052 
1342.000000	1.813459 
1341.000000	1.815271 
1340.000000	1.817464 
1339.000000	1.819992 
1338.000000	1.822781 
1337.000000	1.825785 
1336.000000	1.828837 
1335.000000	1.831865 
1334.000000	1.834750 
1333.000000	1.837348 
1332.000000	1.839637 
1331.000000	1.841592 
1330.000000	1.843214 
1329.000000	1.844549 
1328.000000	1.845622 
1327.000000	1.846551 
1326.000000	1.847386 
1325.000000	1.848173 
1324.000000	1.848983 
1323.000000	1.849818 
1322.000000	1.850724 
1321.000000	1.851749 
1320.000000	1.852917 
1319.000000	1.854181 
1318.000000	1.855516 
1317.000000	1.856875 
1316.000000	1.858186 
1315.000000	1.859354 
1314.000000	1.860284 
1313.000000	1.860952 
1312.000000	1.861238 
1311.000000	1.861214 
1310.000000	1.860880 
1309.000000	1.860308 
1308.000000	1.859521 
1307.000000	1.858615 
1306.000000	1.857662 
1305.000000	1.856732 
1304.000000	1.855874 
1303.000000	1.855182 
1302.000000	1.854562 
1301.000000	1.854109 
1300.000000	1.853775 
1299.000000	1.853585 
1298.000000	1.853466 
1297.000000	1.853418 
1296.000000	1.853418 
1295.000000	1.853442 
1294.000000	1.853442 
1293.000000	1.853466 
1292.000000	1.853442 
1291.000000	1.853394 
1290.000000	1.853346 
1289.000000	1.853251 
1288.000000	1.853156 
1287.000000	1.852917 
1286.000000	1.852583 
1285.000000	1.852083 
1284.000000	1.851344 
1283.000000	1.850318 
1282.000000	1.848983 
1281.000000	1.847267 
1280.000000	1.845097 
1279.000000	1.842474 
1278.000000	1.839375 
1277.000000	1.835632 
1276.000000	1.831173 
1275.000000	1.826024 
1274.000000	1.820039 
1273.000000	1.813149 
1272.000000	1.805257 
1271.000000	1.796293 
1270.000000	1.786375 
1269.000000	1.775598 
1268.000000	1.764345 
1267.000000	1.752972 
1266.000000	1.742124 
1265.000000	1.732468 
1264.000000	1.724624 
1263.000000	1.719164 
1262.000000	1.716566 
1261.000000	1.716947 
1260.000000	1.720356 
1259.000000	1.726412 
1258.000000	1.734685 
1257.000000	1.744532 
1256.000000	1.755285 
1255.000000	1.766252 
1254.000000	1.776957 
1253.000000	1.786971 
1252.000000	1.795983 
1251.000000	1.803874 
1250.000000	1.810574 
1249.000000	1.816153 
1248.000000	1.820707 
1247.000000	1.824331 
1246.000000	1.827192 
1245.000000	1.829361 
1244.000000	1.831030 
1243.000000	1.832294 
1242.000000	1.833224 
1241.000000	1.833820 
1240.000000	1.834201 
1239.000000	1.834344 
1238.000000	1.834273 
1237.000000	1.833987 
1236.000000	1.833486 
1235.000000	1.832842 
1234.000000	1.832008 
1233.000000	1.831007 
1232.000000	1.829838 
1231.000000	1.828575 
1230.000000	1.827144 
1229.000000	1.825547 
1228.000000	1.823806 
1227.000000	1.821804 
1226.000000	1.819586 
1225.000000	1.817059 
1224.000000	1.814174 
1223.000000	1.810956 
1222.000000	1.807379 
1221.000000	1.803374 
1220.000000	1.798939 
1219.000000	1.794195 
1218.000000	1.789140 
1217.000000	1.783895 
1216.000000	1.778602 
1215.000000	1.773285 
1214.000000	1.768159 
1213.000000	1.763391 
1212.000000	1.759052 
1211.000000	1.755189 
1210.000000	1.751899 
1209.000000	1.749229 
1208.000000	1.747083 
1207.000000	1.745581 
1206.000000	1.744508 
1205.000000	1.743841 
1204.000000	1.743507 
1203.000000	1.743388 
1202.000000	1.743412 
1201.000000	1.743435 
1200.000000	1.743435 
1199.000000	1.743340 
1198.000000	1.743125 
1197.000000	1.742792 
1196.000000	1.742243 
1195.000000	1.741504 
1194.000000	1.740598 
1193.000000	1.739501 
1192.000000	1.738286 
1191.000000	1.736831 
1190.000000	1.735258 
1189.000000	1.733422 
1188.000000	1.731395 
1187.000000	1.729178 
1186.000000	1.726675 
1185.000000	1.724052 
1184.000000	1.721215 
1183.000000	1.718258 
1182.000000	1.715230 
1181.000000	1.712155 
1180.000000	1.709127 
1179.000000	1.706099 
1178.000000	1.703143 
1177.000000	1.700234 
1176.000000	1.697278 
1175.000000	1.694202 
1174.000000	1.690959 
1173.000000	1.687455 
1172.000000	1.683640 
1171.000000	1.679563 
1170.000000	1.675152 
1169.000000	1.670575 
1168.000000	1.665806 
1167.000000	1.660966 
1166.000000	1.656055 
1165.000000	1.651120 
1164.000000	1.646208 
1163.000000	1.641368 
1162.000000	1.636624 
1161.000000	1.632118 
1160.000000	1.627922 
1159.000000	1.624083 
1158.000000	1.620793 
1157.000000	1.618003 
1156.000000	1.615810 
1155.000000	1.614141 
1154.000000	1.612901 
1153.000000	1.611948 
1152.000000	1.611113 
1151.000000	1.610279 
1150.000000	1.609301 
1149.000000	1.608085 
1148.000000	1.606559 
1147.000000	1.604771 
1146.000000	1.602745 
1145.000000	1.600480 
1144.000000	1.598000 
1143.000000	1.595401 
1142.000000	1.592683 
1141.000000	1.589870 
1140.000000	1.587033 
1139.000000	1.584076 
1138.000000	1.581072 
1137.000000	1.577973 
1136.000000	1.574778 
1135.000000	1.571440 
1134.000000	1.567983 
1133.000000	1.564311 
1132.000000	1.560401 
1131.000000	1.556181 
1130.000000	1.551723 
1129.000000	1.546931 
1128.000000	1.541876 
1127.000000	1.536560 
1126.000000	1.531028 
1125.000000	1.525378 
1124.000000	1.519656 
1123.000000	1.513886 
1122.000000	1.508140 
1121.000000	1.502418 
1120.000000	1.496815 
1119.000000	1.491260 
1118.000000	1.485824 
1117.000000	1.480507 
1116.000000	1.475262 
1115.000000	1.470136 
1114.000000	1.465153 
1113.000000	1.460266 
1112.000000	1.455569 
1111.000000	1.451086 
1110.000000	1.446938 
1109.000000	1.443195 
1108.000000	1.439976 
1107.000000	1.437258 
1106.000000	1.435160 
1105.000000	1.433563 
1104.000000	1.432442 
1103.000000	1.431679 
1102.000000	1.431155 
1101.000000	1.430726 
1100.000000	1.430368 
1099.000000	1.429986 
1098.000000	1.429581 
1097.000000	1.429247 
1096.000000	1.429009 
1095.000000	1.428914 
1094.000000	1.429033 
1093.000000	1.429390 
1092.000000	1.429939 
1091.000000	1.430654 
1090.000000	1.431417 
1089.000000	1.432132 
1088.000000	1.432800 
1087.000000	1.433229 
1086.000000	1.433444 
1085.000000	1.433348 
1084.000000	1.432943 
1083.000000	1.432299 
1082.000000	1.431584 
1081.000000	1.430773 
1080.000000	1.429963 
1079.000000	1.429367 
1078.000000	1.428985 
1077.000000	1.428985 
1076.000000	1.429319 
1075.000000	1.430034 
1074.000000	1.431059 
1073.000000	1.432323 
1072.000000	1.433658 
1071.000000	1.435017 
1070.000000	1.436281 
1069.000000	1.437330 
1068.000000	1.438188 
1067.000000	1.438713 
1066.000000	1.438879 
1065.000000	1.438617 
1064.000000	1.437759 
1063.000000	1.436066 
1062.000000	1.433134 
1061.000000	1.428604 
1060.000000	1.421999 
1059.000000	1.412987 
1058.000000	1.401448 
1057.000000	1.387476 
1056.000000	1.371622 
1055.000000	1.354813 
1054.000000	1.338219 
1053.000000	1.323175 
1052.000000	1.310968 
1051.000000	1.302647 
1050.000000	1.298856 
1049.000000	1.299762 
1048.000000	1.304936 
1047.000000	1.313543 
1046.000000	1.324462 
1045.000000	1.336479 
1044.000000	1.348423 
1043.000000	1.359391 
1042.000000	1.368737 
1041.000000	1.376152 
1040.000000	1.381587 
1039.000000	1.385235 
1038.000000	1.387310 
1037.000000	1.388072 
1036.000000	1.387858 
1035.000000	1.386857 
1034.000000	1.385235 
1033.000000	1.383113 
1032.000000	1.380586 
1031.000000	1.377773 
1030.000000	1.374769 
1029.000000	1.371645 
1028.000000	1.368498 
1027.000000	1.365518 
1026.000000	1.362848 
1025.000000	1.360607 
1024.000000	1.358938 
1023.000000	1.357984 
1022.000000	1.357769 
1021.000000	1.358318 
1020.000000	1.359605 
1019.000000	1.361560 
1018.000000	1.364064 
1017.000000	1.366949 
1016.000000	1.370096 
1015.000000	1.373338 
1014.000000	1.376581 
1013.000000	1.379776 
1012.000000	1.382827 
1011.000000	1.385641 
1010.000000	1.388216 
1009.000000	1.390576 
1008.000000	1.392745 
1007.000000	1.394701 
1006.000000	1.396465 
1005.000000	1.398110 
1004.000000	1.399564 
1003.000000	1.400804 
1002.000000	1.401805 
1001.000000	1.402616 
1000.000000	1.403141 
999.000000	 1.403355 
998.000000	 1.403188 
997.000000	 1.402735 
996.000000	 1.401901 
995.000000	 1.400852 
994.000000	 1.399517 
993.000000	 1.398038 
992.000000	 1.396417 
991.000000	 1.394677 
990.000000	 1.392936 
989.000000	 1.391220 
988.000000	 1.389527 
987.000000	 1.387906 
986.000000	 1.386332 
985.000000	 1.384782 
984.000000	 1.383209 
983.000000	 1.381611 
982.000000	 1.379942 
981.000000	 1.378178 
980.000000	 1.376271 
979.000000	 1.374220 
978.000000	 1.372075 
977.000000	 1.369833 
976.000000	 1.367402 
975.000000	 1.364850 
974.000000	 1.362109 
973.000000	 1.359152 
972.000000	 1.356005 
971.000000	 1.352643 
970.000000	 1.349115 
969.000000	 1.345491 
968.000000	 1.341867 
967.000000	 1.338315 
966.000000	 1.334834 
965.000000	 1.331472 
964.000000	 1.328229 
963.000000	 1.325035 
962.000000	 1.321887 
961.000000	 1.318621 
960.000000	 1.315236 
959.000000	 1.311731 
958.000000	 1.308059 
957.000000	 1.304268 
956.000000	 1.300454 
955.000000	 1.296663 
954.000000	 1.293015 
953.000000	 1.289582 
952.000000	 1.286363 
951.000000	 1.283431 
950.000000	 1.280784 
949.000000	 1.278400 
948.000000	 1.276206 
947.000000	 1.274132 
946.000000	 1.272130 
945.000000	 1.270174 
944.000000	 1.268243 
943.000000	 1.266312 
942.000000	 1.264429 
941.000000	 1.262569 
940.000000	 1.260805 
939.000000	 1.259040 
938.000000	 1.257276 
937.000000	 1.255512 
936.000000	 1.253557 
935.000000	 1.251339 
934.000000	 1.248884 
933.000000	 1.246070 
932.000000	 1.242995 
931.000000	 1.239705 
930.000000	 1.236295 
929.000000	 1.232886 
928.000000	 1.229572 
927.000000	 1.226401 
926.000000	 1.223349 
925.000000	 1.220440 
924.000000	 1.217722 
923.000000	 1.215004 
922.000000	 1.212501 
921.000000	 1.210021 
920.000000	 1.207661 
919.000000	 1.205348 
918.000000	 1.203083 
917.000000	 1.200747 
916.000000	 1.198267 
915.000000	 1.195526 
914.000000	 1.192450 
913.000000	 1.189017 
912.000000	 1.185274 
911.000000	 1.181340 
910.000000	 1.177358 
909.000000	 1.173591 
908.000000	 1.170206 
907.000000	 1.167273 
906.000000	 1.164913 
905.000000	 1.163053 
904.000000	 1.161670 
903.000000	 1.160550 
902.000000	 1.159501 
901.000000	 1.158452 
900.000000	 1.157236 
899.000000	 1.155734 
898.000000	 1.153969 
897.000000	 1.151990 
896.000000	 1.149797 
895.000000	 1.147413 
894.000000	 1.144766 
893.000000	 1.141786 
892.000000	 1.138448 
891.000000	 1.134586 
890.000000	 1.130104 
889.000000	 1.124858 
888.000000	 1.118826 
887.000000	 1.111984 
886.000000	 1.104378 
885.000000	 1.096129 
884.000000	 1.087331 
883.000000	 1.078224 
882.000000	 1.069045 
881.000000	 1.060152 
880.000000	 1.051807 
879.000000	 1.044392 
878.000000	 1.038265 
877.000000	 1.033663 
876.000000	 1.030778 
875.000000	 1.029706 
874.000000	 1.030445 
873.000000	 1.032853 
872.000000	 1.036691 
871.000000	 1.041650 
870.000000	 1.047444 
869.000000	 1.053667 
868.000000	 1.060032 
867.000000	 1.066231 
866.000000	 1.072001 
865.000000	 1.077127 
864.000000	 1.081514 
863.000000	 1.085114 
862.000000	 1.087808 
861.000000	 1.089692 
860.000000	 1.090812 
859.000000	 1.091289 
858.000000	 1.091265 
857.000000	 1.090788 
856.000000	 1.090049 
855.000000	 1.089096 
854.000000	 1.088047 
853.000000	 1.086997 
852.000000	 1.085996 
851.000000	 1.085019 
850.000000	 1.084136 
849.000000	 1.083278 
848.000000	 1.082396 
847.000000	 1.081395 
846.000000	 1.080226 
845.000000	 1.078748 
844.000000	 1.076865 
843.000000	 1.074504 
842.000000	 1.071453 
841.000000	 1.067590 
840.000000	 1.062703 
839.000000	 1.056694 
838.000000	 1.049160 
837.000000	 1.039934 
836.000000	 1.028752 
835.000000	 1.015448 
834.000000	 0.999999 
833.000000	 0.982594 
832.000000	 0.963521 
831.000000	 0.943398 
830.000000	 0.922942 
829.000000	 0.903081 
828.000000	 0.884890 
827.000000	 0.869417 
826.000000	 0.857472 
825.000000	 0.849771 
824.000000	 0.846600 
823.000000	 0.847935 
822.000000	 0.853252 
821.000000	 0.861835 
820.000000	 0.872707 
819.000000	 0.884795 
818.000000	 0.897026 
817.000000	 0.908613 
816.000000	 0.918912 
815.000000	 0.927615 
814.000000	 0.934505 
813.000000	 0.939774 
812.000000	 0.943589 
811.000000	 0.946211 
810.000000	 0.947928 
809.000000	 0.948858 
808.000000	 0.949311 
807.000000	 0.949430 
806.000000	 0.949287 
805.000000	 0.948977 
804.000000	 0.948667 
803.000000	 0.948381 
802.000000	 0.948143 
801.000000	 0.948023 
800.000000	 0.948143 
799.000000	 0.948500 
798.000000	 0.949120 
797.000000	 0.950098 
796.000000	 0.951552 
795.000000	 0.953412 
794.000000	 0.955724 
793.000000	 0.958490 
792.000000	 0.961565 
791.000000	 0.964856 
790.000000	 0.968241 
789.000000	 0.971508 
788.000000	 0.974488 
787.000000	 0.977158 
786.000000	 0.979351 
785.000000	 0.981163 
784.000000	 0.982403 
783.000000	 0.983238 
782.000000	 0.983691 
781.000000	 0.983738 
780.000000	 0.983500 
779.000000	 0.983023 
778.000000	 0.982379 
777.000000	 0.981593 
776.000000	 0.980663 
775.000000	 0.979661 
774.000000	 0.978565 
773.000000	 0.977420 
772.000000	 0.976181 
771.000000	 0.974917 
770.000000	 0.973629 
769.000000	 0.972366 
768.000000	 0.971126 
767.000000	 0.970005 
766.000000	 0.969028 
765.000000	 0.968194 
764.000000	 0.967502 
763.000000	 0.966954 
762.000000	 0.966453 
761.000000	 0.965905 
760.000000	 0.965261 
759.000000	 0.964403 
758.000000	 0.963377 
757.000000	 0.962066 
756.000000	 0.960588 
755.000000	 0.958991 
754.000000	 0.957274 
753.000000	 0.955533 
752.000000	 0.953793 
751.000000	 0.952124 
750.000000	 0.950455 
749.000000	 0.948858 
748.000000	 0.947308 
747.000000	 0.945878 
746.000000	 0.944566 
745.000000	 0.943422 
744.000000	 0.942420 
743.000000	 0.941586 
742.000000	 0.940799 
741.000000	 0.939989 
740.000000	 0.939011 
739.000000	 0.937771 
738.000000	 0.936150 
737.000000	 0.934100 
736.000000	 0.931668 
735.000000	 0.928807 
734.000000	 0.925612 
733.000000	 0.922226 
732.000000	 0.918698 
731.000000	 0.915169 
730.000000	 0.911641 
729.000000	 0.908184 
728.000000	 0.904870 
727.000000	 0.901651 
726.000000	 0.898456 
725.000000	 0.895380 
724.000000	 0.892329 
723.000000	 0.889325 
722.000000	 0.886368 
721.000000	 0.883531 
720.000000	 0.880837 
719.000000	 0.878262 
718.000000	 0.875782 
717.000000	 0.873398 
716.000000	 0.871062 
715.000000	 0.868582 
714.000000	 0.866007 
713.000000	 0.863218 
712.000000	 0.860166 
711.000000	 0.856900 
710.000000	 0.853395 
709.000000	 0.849723 
708.000000	 0.845837 
707.000000	 0.841879 
706.000000	 0.837826 
705.000000	 0.833749 
704.000000	 0.829672 
703.000000	 0.825619 
702.000000	 0.821542 
701.000000	 0.817441 
700.000000	 0.813245 
699.000000	 0.808811 
698.000000	 0.804042 
697.000000	 0.798702 
696.000000	 0.792717 
695.000000	 0.785970 
694.000000	 0.778532 
693.000000	 0.770568 
692.000000	 0.762391 
691.000000	 0.754356 
690.000000	 0.746941 
689.000000	 0.740551 
688.000000	 0.735473 
687.000000	 0.731897 
686.000000	 0.729846 
685.000000	 0.729107 
684.000000	 0.729417 
683.000000	 0.730371 
682.000000	 0.731611 
681.000000	 0.732803 
680.000000	 0.733661 
679.000000	 0.734090 
678.000000	 0.733995 
677.000000	 0.733375 
676.000000	 0.732302 
675.000000	 0.730919 
674.000000	 0.729298 
673.000000	 0.727558 
672.000000	 0.725698 
671.000000	 0.723838 
670.000000	 0.721883 
669.000000	 0.719928 
668.000000	 0.717949 
667.000000	 0.715875 
666.000000	 0.713801 
665.000000	 0.711655 
664.000000	 0.709486 
663.000000	 0.707268 
662.000000	 0.705027 
661.000000	 0.702762 
660.000000	 0.700426 
659.000000	 0.697946 
658.000000	 0.695419 
657.000000	 0.692772 
656.000000	 0.690031 
655.000000	 0.687193 
654.000000	 0.684189 
653.000000	 0.681138 
652.000000	 0.678014 
651.000000	 0.674939 
650.000000	 0.671839 
649.000000	 0.668764 
648.000000	 0.665807 
647.000000	 0.662899 
646.000000	 0.660085 
645.000000	 0.657320 
644.000000	 0.654649 
643.000000	 0.652027 
642.000000	 0.649476 
641.000000	 0.646948 
640.000000	 0.644469 
639.000000	 0.642037 
638.000000	 0.639653 
637.000000	 0.637269 
636.000000	 0.634884 
635.000000	 0.632452 
634.000000	 0.629901 
633.000000	 0.627279 
632.000000	 0.624561 
631.000000	 0.621724 
630.000000	 0.618791 
629.000000	 0.615811 
628.000000	 0.612783 
627.000000	 0.609755 
626.000000	 0.606703 
625.000000	 0.603723 
624.000000	 0.600743 
623.000000	 0.597810 
622.000000	 0.594949 
621.000000	 0.592136 
620.000000	 0.589299 
619.000000	 0.586438 
618.000000	 0.583505 
617.000000	 0.580310 
616.000000	 0.576829 
615.000000	 0.572967 
614.000000	 0.568675 
613.000000	 0.563979 
612.000000	 0.558853 
611.000000	 0.553512 
610.000000	 0.548171 
609.000000	 0.543022 
608.000000	 0.538325 
607.000000	 0.534272 
606.000000	 0.531029 
605.000000	 0.528645 
604.000000	 0.527024 
603.000000	 0.526094 
602.000000	 0.525641 
601.000000	 0.525546 
600.000000	 0.525498 
599.000000	 0.525450 
598.000000	 0.525164 
597.000000	 0.524640 
596.000000	 0.523829 
595.000000	 0.522828 
594.000000	 0.521659 
593.000000	 0.520396 
592.000000	 0.519084 
591.000000	 0.517797 
590.000000	 0.516510 
589.000000	 0.515270 
588.000000	 0.514078 
587.000000	 0.512933 
586.000000	 0.511813 
585.000000	 0.510668 
584.000000	 0.509524 
583.000000	 0.508356 
582.000000	 0.507211 
581.000000	 0.506019 
580.000000	 0.504827 
579.000000	 0.503611 
578.000000	 0.502419 
577.000000	 0.501227 
576.000000	 0.500059 
575.000000	 0.498914 
574.000000	 0.497817 
573.000000	 0.496792 
572.000000	 0.495815 
571.000000	 0.494861 
570.000000	 0.493955 
569.000000	 0.493025 
568.000000	 0.492072 
567.000000	 0.491046 
566.000000	 0.489878 
565.000000	 0.488638 
564.000000	 0.487232 
563.000000	 0.485706 
562.000000	 0.484037 
561.000000	 0.482249 
560.000000	 0.480341 
559.000000	 0.478339 
558.000000	 0.476241 
557.000000	 0.474095 
556.000000	 0.471925 
555.000000	 0.469803 
554.000000	 0.467777 
553.000000	 0.465822 
552.000000	 0.464010 
551.000000	 0.462317 
550.000000	 0.460743 
549.000000	 0.459241 
548.000000	 0.457859 
547.000000	 0.456500 
546.000000	 0.455141 
545.000000	 0.453805 
544.000000	 0.452399 
543.000000	 0.450944 
542.000000	 0.449395 
541.000000	 0.447750 
540.000000	 0.445914 
539.000000	 0.444006 
538.000000	 0.441980 
537.000000	 0.439906 
536.000000	 0.437831 
535.000000	 0.435709 
534.000000	 0.433635 
533.000000	 0.431537 
532.000000	 0.429463 
531.000000	 0.427365 
530.000000	 0.425195 
529.000000	 0.422978 
528.000000	 0.420737 
527.000000	 0.418496 
526.000000	 0.416254 
525.000000	 0.414013 
524.000000	 0.411772 
523.000000	 0.409483 
522.000000	 0.407147 
521.000000	 0.404691 
520.000000	 0.402140 
519.000000	 0.399470 
518.000000	 0.396776 
517.000000	 0.394034 
516.000000	 0.391268 
515.000000	 0.388550 
514.000000	 0.385880 
513.000000	 0.383257 
512.000000	 0.380682 
511.000000	 0.378131 
510.000000	 0.375628 
509.000000	 0.373125 
508.000000	 0.370597 
507.000000	 0.368142 
506.000000	 0.365638 
505.000000	 0.363111 
504.000000	 0.360512 
503.000000	 0.357818 
502.000000	 0.354957 
501.000000	 0.351905 
500.000000	 0.348639 
499.000000	 0.345110 
498.000000	 0.341343 
497.000000	 0.337409 
496.000000	 0.333356 
495.000000	 0.329279 
494.000000	 0.325202 
493.000000	 0.321245 
492.000000	 0.317454 
491.000000	 0.313735 
490.000000	 0.310206 
489.000000	 0.306773 
488.000000	 0.303411 
487.000000	 0.300073 
486.000000	 0.296759 
485.000000	 0.293445 
484.000000	 0.290131 
483.000000	 0.286817 
482.000000	 0.283479 
481.000000	 0.280189 
480.000000	 0.276947 
479.000000	 0.273704 
478.000000	 0.270509 
477.000000	 0.267338 
476.000000	 0.264239 
475.000000	 0.261211 
474.000000	 0.258278 
473.000000	 0.255417 
472.000000	 0.252699 
471.000000	 0.250053 
470.000000	 0.247478 
469.000000	 0.244975 
468.000000	 0.242471 
467.000000	 0.239944 
466.000000	 0.237250 
465.000000	 0.234436 
464.000000	 0.231385 
463.000000	 0.228023 
462.000000	 0.224351 
461.000000	 0.220370 
460.000000	 0.216078 
459.000000	 0.211548 
458.000000	 0.206804 
457.000000	 0.202059 
456.000000	 0.197386 
455.000000	 0.192880 
454.000000	 0.188684 
453.000000	 0.184869 
452.000000	 0.181436 
451.000000	 0.178384 
450.000000	 0.175690 
449.000000	 0.173234 
448.000000	 0.170946 
447.000000	 0.168728 
446.000000	 0.166559 
445.000000	 0.164341 
444.000000	 0.162076 
443.000000	 0.159692 
442.000000	 0.157189 
441.000000	 0.154590 
440.000000	 0.151896 
439.000000	 0.149154 
438.000000	 0.146341 
437.000000	 0.143504 
436.000000	 0.140595 
435.000000	 0.137662 
434.000000	 0.134634 
433.000000	 0.131535 
432.000000	 0.128316 
431.000000	 0.125002 
430.000000	 0.121617 
429.000000	 0.118160 
428.000000	 0.114679 
427.000000	 0.111198 
426.000000	 0.107717 
425.000000	 0.104260 
424.000000	 0.100898 
423.000000	 0.097584 
422.000000	 0.094366 
421.000000	 0.091242 
420.000000	 0.088238 
419.000000	 0.085377 
418.000000	 0.082707 
417.000000	 0.080204 
416.000000	 0.077819 
415.000000	 0.075578 
414.000000	 0.073456 
413.000000	 0.071358 
412.000000	 0.069284 
411.000000	 0.067234 
410.000000	 0.065135 
409.000000	 0.062966 
408.000000	 0.060582 
407.000000	 0.058007 
406.000000	 0.055146 
405.000000	 0.051951 
404.000000	 0.048494 
403.000000	 0.044870 
402.000000	 0.041270 
401.000000	 0.037932 
400.000000	 0.035023 
399.000000	 0.032687 
398.000000	 0.030994 
397.000000	 0.029897 
396.000000	 0.029206 
395.000000	 0.028729 
394.000000	 0.028252 
393.000000	 0.027561 
392.000000	 0.026535 
391.000000	 0.025224 
390.000000	 0.023746 
389.000000	 0.022196 
388.000000	 0.020742 
387.000000	 0.019478 
386.000000	 0.018429 
385.000000	 0.017499 
384.000000	 0.016689 
383.000000	 0.015807 
382.000000	 0.014734 
381.000000	 0.013422 
380.000000	 0.011873 
379.000000	 0.010228 
378.000000	 0.008583 
377.000000	 0.007009 
376.000000	 0.005674 
375.000000	 0.004601 
374.000000	 0.003862 
373.000000	 0.003385 
372.000000	 0.003194 
371.000000	 0.003147 
370.000000	 0.003218 

