PE IR       SPECTRUM    SPECTRUM    ASCII       PEDS        1.60        
  -1
C-3ACF~1.ASC
17/03/27
19:57:10.00
17/03/27
19:57:10.00
tln
$C-4040-8_e0125$<ebV0>[-23.3,12.1,10.0,0.0,27,1,0]
370.000000
64









2002,4.07    
MIRTGS : RIGHTBACK : INTERNAL 2
MIR : ON : INTERNAL 2
OPTKBR

0.200000
8
8.000000
FILLER
SINGLE
SPECTRUM
UNLOCKED 256

DOUBLE

COMBINED
1
0
0


1.000000
BACKG


1
0
TRUE
51149
0
LEFT NOT FITTED RIGHT NOT FITTED 0
NONE
NONE
15600
12.000000
4.427000
51148
TRUE
1 0 8 72 0 0 0 0 

15798.010000






#HDR
-1
-1
#GR
CM-1
EGY
0.00002384185791015625
0.0
5000.000000
-1.000000
4631
8
2.460193
0.008773
#DATA
5000.000000	0.764894 
4999.000000	0.765442 
4998.000000	0.765967 
4997.000000	0.766539 
4996.000000	0.767159 
4995.000000	0.767850 
4994.000000	0.768613 
4993.000000	0.769424 
4992.000000	0.770282 
4991.000000	0.771117 
4990.000000	0.771880 
4989.000000	0.772595 
4988.000000	0.773143 
4987.000000	0.773525 
4986.000000	0.773739 
4985.000000	0.773882 
4984.000000	0.773930 
4983.000000	0.773978 
4982.000000	0.774073 
4981.000000	0.774264 
4980.000000	0.774574 
4979.000000	0.774979 
4978.000000	0.775456 
4977.000000	0.776052 
4976.000000	0.776672 
4975.000000	0.777363 
4974.000000	0.778150 
4973.000000	0.779104 
4972.000000	0.780224 
4971.000000	0.781559 
4970.000000	0.783038 
4969.000000	0.784659 
4968.000000	0.786256 
4967.000000	0.787782 
4966.000000	0.789046 
4965.000000	0.789928 
4964.000000	0.790405 
4963.000000	0.790381 
4962.000000	0.789880 
4961.000000	0.788998 
4960.000000	0.787830 
4959.000000	0.786519 
4958.000000	0.785160 
4957.000000	0.783848 
4956.000000	0.782752 
4955.000000	0.781869 
4954.000000	0.781297 
4953.000000	0.781011 
4952.000000	0.781011 
4951.000000	0.781321 
4950.000000	0.781941 
4949.000000	0.782847 
4948.000000	0.783991 
4947.000000	0.785303 
4946.000000	0.786685 
4945.000000	0.788068 
4944.000000	0.789403 
4943.000000	0.790596 
4942.000000	0.791645 
4941.000000	0.792503 
4940.000000	0.793218 
4939.000000	0.793862 
4938.000000	0.794458 
4937.000000	0.795006 
4936.000000	0.795555 
4935.000000	0.796055 
4934.000000	0.796508 
4933.000000	0.796866 
4932.000000	0.797128 
4931.000000	0.797319 
4930.000000	0.797438 
4929.000000	0.797510 
4928.000000	0.797581 
4927.000000	0.797724 
4926.000000	0.797891 
4925.000000	0.798130 
4924.000000	0.798392 
4923.000000	0.798654 
4922.000000	0.798869 
4921.000000	0.799083 
4920.000000	0.799202 
4919.000000	0.799322 
4918.000000	0.799393 
4917.000000	0.799489 
4916.000000	0.799584 
4915.000000	0.799679 
4914.000000	0.799798 
4913.000000	0.799918 
4912.000000	0.800061 
4911.000000	0.800204 
4910.000000	0.800395 
4909.000000	0.800609 
4908.000000	0.800871 
4907.000000	0.801157 
4906.000000	0.801539 
4905.000000	0.801920 
4904.000000	0.802326 
4903.000000	0.802803 
4902.000000	0.803351 
4901.000000	0.803995 
4900.000000	0.804734 
4899.000000	0.805592 
4898.000000	0.806546 
4897.000000	0.807547 
4896.000000	0.808525 
4895.000000	0.809431 
4894.000000	0.810265 
4893.000000	0.811004 
4892.000000	0.811648 
4891.000000	0.812196 
4890.000000	0.812625 
4889.000000	0.812983 
4888.000000	0.813245 
4887.000000	0.813364 
4886.000000	0.813364 
4885.000000	0.813198 
4884.000000	0.812935 
4883.000000	0.812578 
4882.000000	0.812149 
4881.000000	0.811767 
4880.000000	0.811481 
4879.000000	0.811266 
4878.000000	0.811171 
4877.000000	0.811195 
4876.000000	0.811362 
4875.000000	0.811719 
4874.000000	0.812244 
4873.000000	0.812983 
4872.000000	0.813961 
4871.000000	0.815105 
4870.000000	0.816440 
4869.000000	0.817942 
4868.000000	0.819468 
4867.000000	0.820946 
4866.000000	0.822353 
4865.000000	0.823521 
4864.000000	0.824499 
4863.000000	0.825190 
4862.000000	0.825667 
4861.000000	0.825929 
4860.000000	0.826096 
4859.000000	0.826168 
4858.000000	0.826287 
4857.000000	0.826478 
4856.000000	0.826811 
4855.000000	0.827288 
4854.000000	0.827932 
4853.000000	0.828719 
4852.000000	0.829577 
4851.000000	0.830435 
4850.000000	0.831270 
4849.000000	0.832009 
4848.000000	0.832653 
4847.000000	0.833225 
4846.000000	0.833773 
4845.000000	0.834274 
4844.000000	0.834751 
4843.000000	0.835299 
4842.000000	0.835847 
4841.000000	0.836348 
4840.000000	0.836753 
4839.000000	0.837063 
4838.000000	0.837302 
4837.000000	0.837421 
4836.000000	0.837540 
4835.000000	0.837731 
4834.000000	0.838065 
4833.000000	0.838541 
4832.000000	0.839233 
4831.000000	0.840139 
4830.000000	0.841212 
4829.000000	0.842380 
4828.000000	0.843596 
4827.000000	0.844693 
4826.000000	0.845718 
4825.000000	0.846552 
4824.000000	0.847268 
4823.000000	0.847792 
4822.000000	0.848221 
4821.000000	0.848650 
4820.000000	0.849080 
4819.000000	0.849604 
4818.000000	0.850248 
4817.000000	0.850987 
4816.000000	0.851869 
4815.000000	0.852870 
4814.000000	0.853848 
4813.000000	0.854754 
4812.000000	0.855588 
4811.000000	0.856280 
4810.000000	0.856828 
4809.000000	0.857234 
4808.000000	0.857591 
4807.000000	0.857925 
4806.000000	0.858259 
4805.000000	0.858688 
4804.000000	0.859284 
4803.000000	0.859975 
4802.000000	0.860786 
4801.000000	0.861644 
4800.000000	0.862574 
4799.000000	0.863528 
4798.000000	0.864505 
4797.000000	0.865459 
4796.000000	0.866413 
4795.000000	0.867319 
4794.000000	0.868177 
4793.000000	0.869035 
4792.000000	0.869822 
4791.000000	0.870561 
4790.000000	0.871253 
4789.000000	0.871825 
4788.000000	0.872254 
4787.000000	0.872564 
4786.000000	0.872802 
4785.000000	0.872945 
4784.000000	0.873064 
4783.000000	0.873208 
4782.000000	0.873398 
4781.000000	0.873708 
4780.000000	0.874114 
4779.000000	0.874662 
4778.000000	0.875282 
4777.000000	0.875949 
4776.000000	0.876641 
4775.000000	0.877308 
4774.000000	0.877881 
4773.000000	0.878381 
4772.000000	0.878810 
4771.000000	0.879168 
4770.000000	0.879526 
4769.000000	0.879907 
4768.000000	0.880265 
4767.000000	0.880694 
4766.000000	0.881123 
4765.000000	0.881505 
4764.000000	0.881838 
4763.000000	0.882124 
4762.000000	0.882411 
4761.000000	0.882673 
4760.000000	0.882983 
4759.000000	0.883340 
4758.000000	0.883865 
4757.000000	0.884461 
4756.000000	0.885200 
4755.000000	0.885987 
4754.000000	0.886750 
4753.000000	0.887417 
4752.000000	0.887894 
4751.000000	0.888180 
4750.000000	0.888299 
4749.000000	0.888252 
4748.000000	0.888085 
4747.000000	0.887966 
4746.000000	0.887989 
4745.000000	0.888133 
4744.000000	0.888466 
4743.000000	0.888967 
4742.000000	0.889611 
4741.000000	0.890326 
4740.000000	0.891041 
4739.000000	0.891709 
4738.000000	0.892257 
4737.000000	0.892710 
4736.000000	0.893115 
4735.000000	0.893449 
4734.000000	0.893712 
4733.000000	0.893998 
4732.000000	0.894260 
4731.000000	0.894522 
4730.000000	0.894784 
4729.000000	0.895023 
4728.000000	0.895237 
4727.000000	0.895404 
4726.000000	0.895524 
4725.000000	0.895619 
4724.000000	0.895643 
4723.000000	0.895690 
4722.000000	0.895690 
4721.000000	0.895667 
4720.000000	0.895643 
4719.000000	0.895643 
4718.000000	0.895643 
4717.000000	0.895667 
4716.000000	0.895690 
4715.000000	0.895690 
4714.000000	0.895643 
4713.000000	0.895571 
4712.000000	0.895524 
4711.000000	0.895500 
4710.000000	0.895595 
4709.000000	0.895810 
4708.000000	0.896239 
4707.000000	0.896859 
4706.000000	0.897669 
4705.000000	0.898647 
4704.000000	0.899672 
4703.000000	0.900673 
4702.000000	0.901484 
4701.000000	0.902104 
4700.000000	0.902438 
4699.000000	0.902509 
4698.000000	0.902366 
4697.000000	0.902032 
4696.000000	0.901675 
4695.000000	0.901269 
4694.000000	0.900888 
4693.000000	0.900602 
4692.000000	0.900387 
4691.000000	0.900268 
4690.000000	0.900244 
4689.000000	0.900292 
4688.000000	0.900411 
4687.000000	0.900578 
4686.000000	0.900769 
4685.000000	0.900936 
4684.000000	0.901126 
4683.000000	0.901246 
4682.000000	0.901293 
4681.000000	0.901341 
4680.000000	0.901341 
4679.000000	0.901365 
4678.000000	0.901412 
4677.000000	0.901532 
4676.000000	0.901722 
4675.000000	0.901937 
4674.000000	0.902223 
4673.000000	0.902509 
4672.000000	0.902771 
4671.000000	0.903058 
4670.000000	0.903320 
4669.000000	0.903606 
4668.000000	0.903868 
4667.000000	0.904226 
4666.000000	0.904583 
4665.000000	0.905013 
4664.000000	0.905418 
4663.000000	0.905776 
4662.000000	0.906062 
4661.000000	0.906252 
4660.000000	0.906372 
4659.000000	0.906419 
4658.000000	0.906372 
4657.000000	0.906300 
4656.000000	0.906181 
4655.000000	0.906085 
4654.000000	0.906038 
4653.000000	0.906062 
4652.000000	0.906229 
4651.000000	0.906538 
4650.000000	0.906991 
4649.000000	0.907659 
4648.000000	0.908422 
4647.000000	0.909209 
4646.000000	0.909996 
4645.000000	0.910687 
4644.000000	0.911164 
4643.000000	0.911450 
4642.000000	0.911569 
4641.000000	0.911545 
4640.000000	0.911426 
4639.000000	0.911259 
4638.000000	0.911140 
4637.000000	0.911092 
4636.000000	0.911140 
4635.000000	0.911331 
4634.000000	0.911641 
4633.000000	0.912070 
4632.000000	0.912642 
4631.000000	0.913310 
4630.000000	0.914096 
4629.000000	0.914955 
4628.000000	0.915837 
4627.000000	0.916719 
4626.000000	0.917601 
4625.000000	0.918340 
4624.000000	0.919008 
4623.000000	0.919604 
4622.000000	0.920176 
4621.000000	0.920724 
4620.000000	0.921368 
4619.000000	0.922060 
4618.000000	0.922799 
4617.000000	0.923585 
4616.000000	0.924348 
4615.000000	0.925040 
4614.000000	0.925636 
4613.000000	0.926113 
4612.000000	0.926494 
4611.000000	0.926804 
4610.000000	0.927090 
4609.000000	0.927448 
4608.000000	0.927877 
4607.000000	0.928497 
4606.000000	0.929260 
4605.000000	0.930213 
4604.000000	0.931286 
4603.000000	0.932455 
4602.000000	0.933694 
4601.000000	0.934910 
4600.000000	0.936079 
4599.000000	0.937128 
4598.000000	0.938057 
4597.000000	0.938796 
4596.000000	0.939345 
4595.000000	0.939679 
4594.000000	0.939893 
4593.000000	0.940036 
4592.000000	0.940203 
4591.000000	0.940418 
4590.000000	0.940752 
4589.000000	0.941324 
4588.000000	0.942111 
4587.000000	0.943112 
4586.000000	0.944304 
4585.000000	0.945615 
4584.000000	0.946879 
4583.000000	0.948095 
4582.000000	0.949120 
4581.000000	0.949907 
4580.000000	0.950455 
4579.000000	0.950789 
4578.000000	0.951004 
4577.000000	0.951147 
4576.000000	0.951337 
4575.000000	0.951647 
4574.000000	0.952148 
4573.000000	0.952911 
4572.000000	0.953841 
4571.000000	0.954937 
4570.000000	0.956106 
4569.000000	0.957345 
4568.000000	0.958538 
4567.000000	0.959658 
4566.000000	0.960659 
4565.000000	0.961542 
4564.000000	0.962305 
4563.000000	0.962972 
4562.000000	0.963568 
4561.000000	0.964069 
4560.000000	0.964570 
4559.000000	0.965070 
4558.000000	0.965619 
4557.000000	0.966167 
4556.000000	0.966763 
4555.000000	0.967383 
4554.000000	0.967979 
4553.000000	0.968480 
4552.000000	0.968980 
4551.000000	0.969505 
4550.000000	0.970029 
4549.000000	0.970697 
4548.000000	0.971555 
4547.000000	0.972580 
4546.000000	0.973773 
4545.000000	0.975108 
4544.000000	0.976419 
4543.000000	0.977659 
4542.000000	0.978708 
4541.000000	0.979447 
4540.000000	0.979971 
4539.000000	0.980281 
4538.000000	0.980401 
4537.000000	0.980472 
4536.000000	0.980567 
4535.000000	0.980663 
4534.000000	0.980734 
4533.000000	0.980758 
4532.000000	0.980710 
4531.000000	0.980567 
4530.000000	0.980329 
4529.000000	0.980186 
4528.000000	0.980234 
4527.000000	0.980567 
4526.000000	0.981330 
4525.000000	0.982475 
4524.000000	0.983977 
4523.000000	0.985741 
4522.000000	0.987625 
4521.000000	0.989484 
4520.000000	0.991225 
4519.000000	0.992727 
4518.000000	0.993967 
4517.000000	0.994968 
4516.000000	0.995755 
4515.000000	0.996398 
4514.000000	0.996947 
4513.000000	0.997424 
4512.000000	0.997829 
4511.000000	0.998258 
4510.000000	0.998663 
4509.000000	0.999045 
4508.000000	0.999474 
4507.000000	0.999903 
4506.000000	1.000308 
4505.000000	1.000738 
4504.000000	1.001095 
4503.000000	1.001429 
4502.000000	1.001715 
4501.000000	1.001977 
4500.000000	1.002240 
4499.000000	1.002478 
4498.000000	1.002740 
4497.000000	1.003074 
4496.000000	1.003384 
4495.000000	1.003718 
4494.000000	1.004052 
4493.000000	1.004385 
4492.000000	1.004743 
4491.000000	1.005101 
4490.000000	1.005506 
4489.000000	1.005983 
4488.000000	1.006507 
4487.000000	1.007151 
4486.000000	1.007890 
4485.000000	1.008725 
4484.000000	1.009607 
4483.000000	1.010537 
4482.000000	1.011466 
4481.000000	1.012301 
4480.000000	1.013064 
4479.000000	1.013708 
4478.000000	1.014184 
4477.000000	1.014471 
4476.000000	1.014614 
4475.000000	1.014590 
4474.000000	1.014399 
4473.000000	1.014065 
4472.000000	1.013636 
4471.000000	1.013159 
4470.000000	1.012730 
4469.000000	1.012301 
4468.000000	1.011896 
4467.000000	1.011586 
4466.000000	1.011395 
4465.000000	1.011347 
4464.000000	1.011419 
4463.000000	1.011610 
4462.000000	1.011896 
4461.000000	1.012277 
4460.000000	1.012706 
4459.000000	1.013207 
4458.000000	1.013660 
4457.000000	1.014065 
4456.000000	1.014447 
4455.000000	1.014733 
4454.000000	1.014947 
4453.000000	1.015114 
4452.000000	1.015257 
4451.000000	1.015353 
4450.000000	1.015424 
4449.000000	1.015424 
4448.000000	1.015353 
4447.000000	1.015186 
4446.000000	1.014900 
4445.000000	1.014542 
4444.000000	1.014113 
4443.000000	1.013612 
4442.000000	1.013112 
4441.000000	1.012682 
4440.000000	1.012444 
4439.000000	1.012372 
4438.000000	1.012587 
4437.000000	1.013088 
4436.000000	1.013851 
4435.000000	1.014828 
4434.000000	1.015901 
4433.000000	1.016902 
4432.000000	1.017737 
4431.000000	1.018309 
4430.000000	1.018643 
4429.000000	1.018762 
4428.000000	1.018738 
4427.000000	1.018595 
4426.000000	1.018357 
4425.000000	1.018023 
4424.000000	1.017618 
4423.000000	1.017045 
4422.000000	1.016473 
4421.000000	1.015830 
4420.000000	1.015257 
4419.000000	1.014828 
4418.000000	1.014494 
4417.000000	1.014280 
4416.000000	1.014351 
4415.000000	1.014733 
4414.000000	1.015377 
4413.000000	1.016306 
4412.000000	1.017546 
4411.000000	1.019072 
4410.000000	1.020812 
4409.000000	1.022648 
4408.000000	1.024293 
4407.000000	1.025605 
4406.000000	1.026463 
4405.000000	1.026844 
4404.000000	1.026773 
4403.000000	1.026487 
4402.000000	1.026177 
4401.000000	1.025843 
4400.000000	1.025390 
4399.000000	1.024794 
4398.000000	1.023983 
4397.000000	1.023125 
4396.000000	1.022386 
4395.000000	1.022052 
4394.000000	1.021766 
4393.000000	1.020479 
4392.000000	1.016163 
4391.000000	1.006317 
4390.000000	0.988197 
4389.000000	0.959801 
4388.000000	0.920486 
4387.000000	0.871968 
4386.000000	0.818276 
4385.000000	0.765323 
4384.000000	0.720000 
4383.000000	0.688719 
4382.000000	0.676035 
4381.000000	0.683593 
4380.000000	0.709581 
4379.000000	0.749516 
4378.000000	0.797080 
4377.000000	0.845837 
4376.000000	0.890302 
4375.000000	0.927114 
4374.000000	0.955009 
4373.000000	0.974988 
4372.000000	0.988960 
4371.000000	0.999402 
4370.000000	1.008343 
4369.000000	1.017069 
4368.000000	1.026105 
4367.000000	1.035165 
4366.000000	1.043677 
4365.000000	1.051044 
4364.000000	1.057100 
4363.000000	1.061868 
4362.000000	1.065611 
4361.000000	1.068520 
4360.000000	1.070880 
4359.000000	1.072764 
4358.000000	1.074051 
4357.000000	1.074814 
4356.000000	1.075172 
4355.000000	1.075172 
4354.000000	1.075029 
4353.000000	1.074934 
4352.000000	1.075005 
4351.000000	1.075172 
4350.000000	1.075315 
4349.000000	1.075291 
4348.000000	1.074934 
4347.000000	1.074385 
4346.000000	1.073718 
4345.000000	1.073026 
4344.000000	1.072335 
4343.000000	1.071858 
4342.000000	1.071834 
4341.000000	1.072263 
4340.000000	1.073098 
4339.000000	1.074290 
4338.000000	1.075768 
4337.000000	1.077389 
4336.000000	1.079082 
4335.000000	1.080775 
4334.000000	1.082396 
4333.000000	1.083850 
4332.000000	1.085066 
4331.000000	1.085996 
4330.000000	1.086711 
4329.000000	1.087212 
4328.000000	1.087594 
4327.000000	1.087999 
4326.000000	1.088547 
4325.000000	1.089262 
4324.000000	1.090264 
4323.000000	1.091504 
4322.000000	1.092958 
4321.000000	1.094555 
4320.000000	1.096248 
4319.000000	1.097869 
4318.000000	1.099371 
4317.000000	1.100707 
4316.000000	1.101875 
4315.000000	1.102900 
4314.000000	1.103854 
4313.000000	1.104807 
4312.000000	1.105809 
4311.000000	1.106834 
4310.000000	1.107954 
4309.000000	1.109147 
4308.000000	1.110386 
4307.000000	1.111602 
4306.000000	1.112771 
4305.000000	1.113891 
4304.000000	1.114964 
4303.000000	1.115965 
4302.000000	1.116895 
4301.000000	1.117730 
4300.000000	1.118516 
4299.000000	1.119303 
4298.000000	1.120114 
4297.000000	1.121044 
4296.000000	1.122093 
4295.000000	1.123332 
4294.000000	1.124715 
4293.000000	1.126241 
4292.000000	1.127862 
4291.000000	1.129531 
4290.000000	1.131176 
4289.000000	1.132774 
4288.000000	1.134228 
4287.000000	1.135540 
4286.000000	1.136684 
4285.000000	1.137661 
4284.000000	1.138496 
4283.000000	1.139235 
4282.000000	1.139879 
4281.000000	1.140522 
4280.000000	1.141214 
4279.000000	1.141953 
4278.000000	1.142740 
4277.000000	1.143550 
4276.000000	1.144456 
4275.000000	1.145386 
4274.000000	1.146316 
4273.000000	1.147294 
4272.000000	1.148343 
4271.000000	1.149439 
4270.000000	1.150560 
4269.000000	1.151704 
4268.000000	1.152873 
4267.000000	1.153945 
4266.000000	1.154971 
4265.000000	1.155829 
4264.000000	1.156544 
4263.000000	1.157236 
4262.000000	1.157879 
4261.000000	1.158595 
4260.000000	1.159381 
4259.000000	1.160311 
4258.000000	1.161360 
4257.000000	1.162481 
4256.000000	1.163625 
4255.000000	1.164770 
4254.000000	1.165795 
4253.000000	1.166677 
4252.000000	1.167416 
4251.000000	1.167988 
4250.000000	1.168417 
4249.000000	1.168727 
4248.000000	1.168990 
4247.000000	1.169180 
4246.000000	1.169395 
4245.000000	1.169657 
4244.000000	1.170015 
4243.000000	1.170516 
4242.000000	1.171135 
4241.000000	1.171827 
4240.000000	1.172542 
4239.000000	1.173257 
4238.000000	1.173949 
4237.000000	1.174497 
4236.000000	1.175022 
4235.000000	1.175498 
4234.000000	1.176023 
4233.000000	1.176595 
4232.000000	1.177263 
4231.000000	1.178002 
4230.000000	1.178812 
4229.000000	1.179647 
4228.000000	1.180458 
4227.000000	1.181197 
4226.000000	1.181864 
4225.000000	1.182484 
4224.000000	1.183032 
4223.000000	1.183605 
4222.000000	1.184201 
4221.000000	1.184892 
4220.000000	1.185607 
4219.000000	1.186370 
4218.000000	1.187181 
4217.000000	1.187968 
4216.000000	1.188707 
4215.000000	1.189327 
4214.000000	1.189851 
4213.000000	1.190185 
4212.000000	1.190400 
4211.000000	1.190471 
4210.000000	1.190423 
4209.000000	1.190233 
4208.000000	1.189994 
4207.000000	1.189732 
4206.000000	1.189470 
4205.000000	1.189327 
4204.000000	1.189398 
4203.000000	1.189732 
4202.000000	1.190376 
4201.000000	1.191377 
4200.000000	1.192665 
4199.000000	1.194167 
4198.000000	1.195764 
4197.000000	1.197314 
4196.000000	1.198720 
4195.000000	1.199769 
4194.000000	1.200437 
4193.000000	1.200699 
4192.000000	1.200532 
4191.000000	1.199913 
4190.000000	1.198959 
4189.000000	1.197862 
4188.000000	1.196646 
4187.000000	1.195526 
4186.000000	1.194643 
4185.000000	1.194119 
4184.000000	1.194095 
4183.000000	1.194572 
4182.000000	1.195526 
4181.000000	1.196837 
4180.000000	1.198363 
4179.000000	1.199817 
4178.000000	1.201009 
4177.000000	1.201820 
4176.000000	1.202130 
4175.000000	1.201987 
4174.000000	1.201534 
4173.000000	1.200985 
4172.000000	1.200509 
4171.000000	1.200270 
4170.000000	1.200366 
4169.000000	1.200866 
4168.000000	1.201701 
4167.000000	1.202750 
4166.000000	1.203942 
4165.000000	1.205110 
4164.000000	1.206207 
4163.000000	1.207208 
4162.000000	1.208043 
4161.000000	1.208782 
4160.000000	1.209425 
4159.000000	1.209998 
4158.000000	1.210498 
4157.000000	1.210975 
4156.000000	1.211452 
4155.000000	1.211881 
4154.000000	1.212334 
4153.000000	1.212811 
4152.000000	1.213335 
4151.000000	1.213908 
4150.000000	1.214504 
4149.000000	1.215124 
4148.000000	1.215744 
4147.000000	1.216340 
4146.000000	1.216936 
4145.000000	1.217508 
4144.000000	1.218104 
4143.000000	1.218724 
4142.000000	1.219367 
4141.000000	1.220130 
4140.000000	1.221013 
4139.000000	1.222038 
4138.000000	1.223134 
4137.000000	1.224327 
4136.000000	1.225495 
4135.000000	1.226615 
4134.000000	1.227664 
4133.000000	1.228594 
4132.000000	1.229405 
4131.000000	1.230120 
4130.000000	1.230764 
4129.000000	1.231360 
4128.000000	1.231932 
4127.000000	1.232528 
4126.000000	1.233100 
4125.000000	1.233696 
4124.000000	1.234316 
4123.000000	1.234984 
4122.000000	1.235747 
4121.000000	1.236557 
4120.000000	1.237535 
4119.000000	1.238632 
4118.000000	1.239848 
4117.000000	1.241135 
4116.000000	1.242542 
4115.000000	1.243948 
4114.000000	1.245331 
4113.000000	1.246690 
4112.000000	1.247906 
4111.000000	1.249027 
4110.000000	1.250004 
4109.000000	1.250886 
4108.000000	1.251673 
4107.000000	1.252388 
4106.000000	1.253151 
4105.000000	1.253962 
4104.000000	1.254892 
4103.000000	1.255941 
4102.000000	1.257085 
4101.000000	1.258325 
4100.000000	1.259613 
4099.000000	1.260876 
4098.000000	1.262092 
4097.000000	1.263236 
4096.000000	1.264357 
4095.000000	1.265454 
4094.000000	1.266527 
4093.000000	1.267647 
4092.000000	1.268839 
4091.000000	1.270008 
4090.000000	1.271224 
4089.000000	1.272392 
4088.000000	1.273512 
4087.000000	1.274657 
4086.000000	1.275825 
4085.000000	1.277041 
4084.000000	1.278400 
4083.000000	1.279878 
4082.000000	1.281452 
4081.000000	1.283192 
4080.000000	1.285028 
4079.000000	1.286840 
4078.000000	1.288604 
4077.000000	1.290345 
4076.000000	1.291966 
4075.000000	1.293492 
4074.000000	1.294898 
4073.000000	1.296281 
4072.000000	1.297521 
4071.000000	1.298737 
4070.000000	1.299905 
4069.000000	1.301074 
4068.000000	1.302218 
4067.000000	1.303386 
4066.000000	1.304626 
4065.000000	1.305985 
4064.000000	1.307368 
4063.000000	1.308798 
4062.000000	1.310276 
4061.000000	1.311779 
4060.000000	1.313233 
4059.000000	1.314592 
4058.000000	1.315951 
4057.000000	1.317238 
4056.000000	1.318550 
4055.000000	1.319909 
4054.000000	1.321291 
4053.000000	1.322817 
4052.000000	1.324415 
4051.000000	1.326036 
4050.000000	1.327729 
4049.000000	1.329350 
4048.000000	1.330947 
4047.000000	1.332378 
4046.000000	1.333689 
4045.000000	1.334834 
4044.000000	1.335763 
4043.000000	1.336598 
4042.000000	1.337313 
4041.000000	1.338005 
4040.000000	1.338696 
4039.000000	1.339459 
4038.000000	1.340389 
4037.000000	1.341438 
4036.000000	1.342701 
4035.000000	1.344084 
4034.000000	1.345562 
4033.000000	1.347160 
4032.000000	1.348710 
4031.000000	1.350212 
4030.000000	1.351571 
4029.000000	1.352810 
4028.000000	1.353955 
4027.000000	1.355028 
4026.000000	1.356005 
4025.000000	1.357054 
4024.000000	1.358056 
4023.000000	1.359152 
4022.000000	1.360249 
4021.000000	1.361274 
4020.000000	1.362228 
4019.000000	1.363110 
4018.000000	1.363897 
4017.000000	1.364612 
4016.000000	1.365280 
4015.000000	1.365947 
4014.000000	1.366710 
4013.000000	1.367616 
4012.000000	1.368665 
4011.000000	1.369905 
4010.000000	1.371312 
4009.000000	1.372814 
4008.000000	1.374435 
4007.000000	1.376056 
4006.000000	1.377654 
4005.000000	1.379132 
4004.000000	1.380491 
4003.000000	1.381683 
4002.000000	1.382637 
4001.000000	1.383423 
4000.000000	1.384067 
3999.000000	1.384544 
3998.000000	1.384902 
3997.000000	1.385211 
3996.000000	1.385521 
3995.000000	1.385879 
3994.000000	1.386356 
3993.000000	1.386976 
3992.000000	1.387786 
3991.000000	1.388740 
3990.000000	1.389813 
3989.000000	1.390957 
3988.000000	1.392054 
3987.000000	1.393103 
3986.000000	1.393985 
3985.000000	1.394677 
3984.000000	1.395177 
3983.000000	1.395535 
3982.000000	1.395773 
3981.000000	1.395988 
3980.000000	1.396203 
3979.000000	1.396536 
3978.000000	1.397061 
3977.000000	1.397752 
3976.000000	1.398563 
3975.000000	1.399564 
3974.000000	1.400542 
3973.000000	1.401591 
3972.000000	1.402521 
3971.000000	1.403403 
3970.000000	1.404118 
3969.000000	1.404762 
3968.000000	1.405286 
3967.000000	1.405763 
3966.000000	1.406168 
3965.000000	1.406526 
3964.000000	1.406836 
3963.000000	1.407098 
3962.000000	1.407265 
3961.000000	1.407432 
3960.000000	1.407599 
3959.000000	1.407814 
3958.000000	1.408100 
3957.000000	1.408505 
3956.000000	1.409053 
3955.000000	1.409721 
3954.000000	1.410531 
3953.000000	1.411318 
3952.000000	1.412081 
3951.000000	1.412773 
3950.000000	1.413273 
3949.000000	1.413631 
3948.000000	1.413822 
3947.000000	1.413941 
3946.000000	1.414012 
3945.000000	1.414060 
3944.000000	1.414203 
3943.000000	1.414394 
3942.000000	1.414680 
3941.000000	1.414990 
3940.000000	1.415348 
3939.000000	1.415657 
3938.000000	1.415944 
3937.000000	1.416158 
3936.000000	1.416349 
3935.000000	1.416444 
3934.000000	1.416492 
3933.000000	1.416516 
3932.000000	1.416540 
3931.000000	1.416587 
3930.000000	1.416683 
3929.000000	1.416826 
3928.000000	1.417040 
3927.000000	1.417350 
3926.000000	1.417684 
3925.000000	1.418042 
3924.000000	1.418352 
3923.000000	1.418590 
3922.000000	1.418781 
3921.000000	1.418876 
3920.000000	1.418900 
3919.000000	1.418924 
3918.000000	1.419019 
3917.000000	1.419186 
3916.000000	1.419448 
3915.000000	1.419854 
3914.000000	1.420307 
3913.000000	1.420736 
3912.000000	1.421117 
3911.000000	1.421356 
3910.000000	1.421427 
3909.000000	1.421308 
3908.000000	1.421046 
3907.000000	1.420712 
3906.000000	1.420402 
3905.000000	1.420187 
3904.000000	1.420116 
3903.000000	1.420259 
3902.000000	1.420712 
3901.000000	1.421403 
3900.000000	1.422333 
3899.000000	1.423454 
3898.000000	1.424694 
3897.000000	1.425909 
3896.000000	1.427006 
3895.000000	1.427888 
3894.000000	1.428532 
3893.000000	1.428866 
3892.000000	1.428914 
3891.000000	1.428794 
3890.000000	1.428604 
3889.000000	1.428461 
3888.000000	1.428484 
3887.000000	1.428842 
3886.000000	1.429557 
3885.000000	1.430606 
3884.000000	1.431989 
3883.000000	1.433587 
3882.000000	1.435279 
3881.000000	1.436901 
3880.000000	1.438355 
3879.000000	1.439547 
3878.000000	1.440382 
3877.000000	1.440834 
3876.000000	1.440954 
3875.000000	1.440811 
3874.000000	1.440453 
3873.000000	1.439976 
3872.000000	1.439499 
3871.000000	1.439070 
3870.000000	1.438832 
3869.000000	1.438856 
3868.000000	1.439166 
3867.000000	1.439809 
3866.000000	1.440834 
3865.000000	1.442193 
3864.000000	1.443743 
3863.000000	1.445388 
3862.000000	1.446914 
3861.000000	1.448130 
3860.000000	1.448893 
3859.000000	1.449203 
3858.000000	1.449060 
3857.000000	1.448702 
3856.000000	1.448321 
3855.000000	1.448225 
3854.000000	1.448678 
3853.000000	1.449799 
3852.000000	1.451659 
3851.000000	1.454091 
3850.000000	1.456856 
3849.000000	1.459693 
3848.000000	1.462244 
3847.000000	1.464271 
3846.000000	1.465630 
3845.000000	1.466345 
3844.000000	1.466512 
3843.000000	1.466321 
3842.000000	1.466083 
3841.000000	1.466012 
3840.000000	1.466202 
3839.000000	1.466822 
3838.000000	1.467847 
3837.000000	1.469278 
3836.000000	1.470923 
3835.000000	1.472711 
3834.000000	1.474523 
3833.000000	1.476263 
3832.000000	1.477956 
3831.000000	1.479625 
3830.000000	1.481223 
3829.000000	1.482772 
3828.000000	1.484298 
3827.000000	1.485729 
3826.000000	1.486968 
3825.000000	1.487922 
3824.000000	1.488494 
3823.000000	1.488757 
3822.000000	1.488757 
3821.000000	1.488637 
3820.000000	1.488590 
3819.000000	1.488852 
3818.000000	1.489543 
3817.000000	1.490807 
3816.000000	1.492547 
3815.000000	1.494669 
3814.000000	1.496911 
3813.000000	1.499128 
3812.000000	1.501035 
3811.000000	1.502561 
3810.000000	1.503610 
3809.000000	1.504302 
3808.000000	1.504707 
3807.000000	1.505041 
3806.000000	1.505398 
3805.000000	1.505947 
3804.000000	1.506757 
3803.000000	1.507806 
3802.000000	1.509189 
3801.000000	1.510858 
3800.000000	1.512789 
3799.000000	1.514935 
3798.000000	1.517271 
3797.000000	1.519703 
3796.000000	1.522183 
3795.000000	1.524591 
3794.000000	1.526927 
3793.000000	1.529026 
3792.000000	1.530885 
3791.000000	1.532459 
3790.000000	1.533722 
3789.000000	1.534700 
3788.000000	1.535439 
3787.000000	1.535916 
3786.000000	1.536321 
3785.000000	1.536655 
3784.000000	1.537060 
3783.000000	1.537537 
3782.000000	1.538205 
3781.000000	1.539039 
3780.000000	1.540112 
3779.000000	1.541304 
3778.000000	1.542544 
3777.000000	1.543760 
3776.000000	1.544785 
3775.000000	1.545619 
3774.000000	1.546216 
3773.000000	1.546645 
3772.000000	1.546955 
3771.000000	1.547217 
3770.000000	1.547527 
3769.000000	1.547932 
3768.000000	1.548433 
3767.000000	1.549053 
3766.000000	1.549720 
3765.000000	1.550388 
3764.000000	1.551032 
3763.000000	1.551556 
3762.000000	1.551914 
3761.000000	1.552033 
3760.000000	1.551890 
3759.000000	1.551461 
3758.000000	1.550745 
3757.000000	1.549720 
3756.000000	1.548433 
3755.000000	1.547074 
3754.000000	1.545643 
3753.000000	1.544308 
3752.000000	1.543116 
3751.000000	1.542234 
3750.000000	1.541662 
3749.000000	1.541423 
3748.000000	1.541566 
3747.000000	1.542091 
3746.000000	1.542973 
3745.000000	1.544094 
3744.000000	1.545476 
3743.000000	1.547050 
3742.000000	1.548695 
3741.000000	1.550316 
3740.000000	1.551890 
3739.000000	1.553320 
3738.000000	1.554632 
3737.000000	1.555824 
3736.000000	1.557016 
3735.000000	1.558184 
3734.000000	1.559376 
3733.000000	1.560592 
3732.000000	1.561808 
3731.000000	1.563000 
3730.000000	1.564025 
3729.000000	1.564836 
3728.000000	1.565480 
3727.000000	1.565885 
3726.000000	1.566195 
3725.000000	1.566433 
3724.000000	1.566696 
3723.000000	1.567006 
3722.000000	1.567387 
3721.000000	1.567792 
3720.000000	1.568102 
3719.000000	1.568269 
3718.000000	1.568222 
3717.000000	1.567912 
3716.000000	1.567387 
3715.000000	1.566696 
3714.000000	1.566028 
3713.000000	1.565527 
3712.000000	1.565313 
3711.000000	1.565456 
3710.000000	1.566028 
3709.000000	1.566910 
3708.000000	1.568055 
3707.000000	1.569318 
3706.000000	1.570558 
3705.000000	1.571750 
3704.000000	1.572775 
3703.000000	1.573610 
3702.000000	1.574325 
3701.000000	1.574921 
3700.000000	1.575350 
3699.000000	1.575613 
3698.000000	1.575589 
3697.000000	1.575279 
3696.000000	1.574587 
3695.000000	1.573514 
3694.000000	1.572132 
3693.000000	1.570606 
3692.000000	1.569128 
3691.000000	1.567912 
3690.000000	1.567125 
3689.000000	1.566910 
3688.000000	1.567196 
3687.000000	1.567935 
3686.000000	1.568889 
3685.000000	1.569819 
3684.000000	1.570510 
3683.000000	1.570773 
3682.000000	1.570487 
3681.000000	1.569676 
3680.000000	1.568412 
3679.000000	1.566886 
3678.000000	1.565265 
3677.000000	1.563739 
3676.000000	1.562523 
3675.000000	1.561737 
3674.000000	1.561355 
3673.000000	1.561522 
3672.000000	1.562142 
3671.000000	1.563191 
3670.000000	1.564550 
3669.000000	1.566100 
3668.000000	1.567697 
3667.000000	1.569199 
3666.000000	1.570415 
3665.000000	1.571297 
3664.000000	1.571774 
3663.000000	1.571869 
3662.000000	1.571607 
3661.000000	1.571130 
3660.000000	1.570439 
3659.000000	1.569724 
3658.000000	1.569008 
3657.000000	1.568317 
3656.000000	1.567673 
3655.000000	1.567053 
3654.000000	1.566457 
3653.000000	1.565933 
3652.000000	1.565551 
3651.000000	1.565408 
3650.000000	1.565527 
3649.000000	1.565980 
3648.000000	1.566767 
3647.000000	1.567792 
3646.000000	1.568961 
3645.000000	1.570224 
3644.000000	1.571369 
3643.000000	1.572394 
3642.000000	1.573228 
3641.000000	1.573824 
3640.000000	1.574254 
3639.000000	1.574492 
3638.000000	1.574563 
3637.000000	1.574492 
3636.000000	1.574277 
3635.000000	1.573920 
3634.000000	1.573467 
3633.000000	1.572966 
3632.000000	1.572513 
3631.000000	1.572155 
3630.000000	1.571989 
3629.000000	1.572036 
3628.000000	1.572322 
3627.000000	1.572728 
3626.000000	1.573276 
3625.000000	1.573801 
3624.000000	1.574230 
3623.000000	1.574563 
3622.000000	1.574778 
3621.000000	1.574921 
3620.000000	1.575016 
3619.000000	1.575136 
3618.000000	1.575279 
3617.000000	1.575565 
3616.000000	1.575946 
3615.000000	1.576471 
3614.000000	1.577115 
3613.000000	1.577877 
3612.000000	1.578855 
3611.000000	1.579952 
3610.000000	1.581144 
3609.000000	1.582431 
3608.000000	1.583766 
3607.000000	1.585030 
3606.000000	1.586151 
3605.000000	1.587128 
3604.000000	1.587867 
3603.000000	1.588439 
3602.000000	1.588821 
3601.000000	1.589083 
3600.000000	1.589274 
3599.000000	1.589417 
3598.000000	1.589536 
3597.000000	1.589632 
3596.000000	1.589751 
3595.000000	1.589870 
3594.000000	1.589989 
3593.000000	1.590132 
3592.000000	1.590323 
3591.000000	1.590633 
3590.000000	1.591062 
3589.000000	1.591658 
3588.000000	1.592397 
3587.000000	1.593255 
3586.000000	1.594233 
3585.000000	1.595258 
3584.000000	1.596260 
3583.000000	1.597189 
3582.000000	1.598048 
3581.000000	1.598811 
3580.000000	1.599431 
3579.000000	1.599979 
3578.000000	1.600432 
3577.000000	1.600790 
3576.000000	1.601099 
3575.000000	1.601386 
3574.000000	1.601576 
3573.000000	1.601719 
3572.000000	1.601862 
3571.000000	1.602029 
3570.000000	1.602244 
3569.000000	1.602578 
3568.000000	1.603198 
3567.000000	1.604008 
3566.000000	1.605057 
3565.000000	1.606345 
3564.000000	1.607847 
3563.000000	1.609373 
3562.000000	1.610946 
3561.000000	1.612401 
3560.000000	1.613688 
3559.000000	1.614761 
3558.000000	1.615571 
3557.000000	1.616168 
3556.000000	1.616573 
3555.000000	1.616811 
3554.000000	1.616978 
3553.000000	1.617050 
3552.000000	1.617121 
3551.000000	1.617217 
3550.000000	1.617407 
3549.000000	1.617670 
3548.000000	1.618051 
3547.000000	1.618552 
3546.000000	1.619124 
3545.000000	1.619696 
3544.000000	1.620197 
3543.000000	1.620602 
3542.000000	1.620793 
3541.000000	1.620817 
3540.000000	1.620626 
3539.000000	1.620268 
3538.000000	1.619839 
3537.000000	1.619338 
3536.000000	1.618933 
3535.000000	1.618647 
3534.000000	1.618528 
3533.000000	1.618552 
3532.000000	1.618719 
3531.000000	1.618933 
3530.000000	1.619219 
3529.000000	1.619553 
3528.000000	1.619911 
3527.000000	1.620340 
3526.000000	1.620817 
3525.000000	1.621389 
3524.000000	1.621937 
3523.000000	1.622509 
3522.000000	1.622986 
3521.000000	1.623344 
3520.000000	1.623582 
3519.000000	1.623654 
3518.000000	1.623702 
3517.000000	1.623749 
3516.000000	1.623892 
3515.000000	1.624155 
3514.000000	1.624560 
3513.000000	1.625061 
3512.000000	1.625561 
3511.000000	1.625967 
3510.000000	1.626157 
3509.000000	1.626062 
3508.000000	1.625609 
3507.000000	1.624846 
3506.000000	1.623916 
3505.000000	1.622843 
3504.000000	1.621842 
3503.000000	1.620960 
3502.000000	1.620316 
3501.000000	1.619911 
3500.000000	1.619744 
3499.000000	1.619768 
3498.000000	1.619887 
3497.000000	1.619982 
3496.000000	1.620030 
3495.000000	1.620006 
3494.000000	1.619839 
3493.000000	1.619529 
3492.000000	1.619100 
3491.000000	1.618599 
3490.000000	1.618051 
3489.000000	1.617455 
3488.000000	1.616787 
3487.000000	1.616096 
3486.000000	1.615333 
3485.000000	1.614522 
3484.000000	1.613688 
3483.000000	1.612877 
3482.000000	1.612043 
3481.000000	1.611185 
3480.000000	1.610374 
3479.000000	1.609611 
3478.000000	1.608872 
3477.000000	1.608228 
3476.000000	1.607632 
3475.000000	1.607203 
3474.000000	1.606917 
3473.000000	1.606774 
3472.000000	1.606750 
3471.000000	1.606845 
3470.000000	1.606917 
3469.000000	1.606893 
3468.000000	1.606774 
3467.000000	1.606440 
3466.000000	1.605892 
3465.000000	1.605129 
3464.000000	1.604199 
3463.000000	1.603174 
3462.000000	1.602125 
3461.000000	1.601076 
3460.000000	1.600098 
3459.000000	1.599144 
3458.000000	1.598262 
3457.000000	1.597380 
3456.000000	1.596570 
3455.000000	1.595735 
3454.000000	1.594948 
3453.000000	1.594161 
3452.000000	1.593399 
3451.000000	1.592683 
3450.000000	1.591968 
3449.000000	1.591300 
3448.000000	1.590633 
3447.000000	1.589965 
3446.000000	1.589250 
3445.000000	1.588463 
3444.000000	1.587605 
3443.000000	1.586747 
3442.000000	1.585841 
3441.000000	1.584982 
3440.000000	1.584219 
3439.000000	1.583552 
3438.000000	1.583075 
3437.000000	1.582837 
3436.000000	1.582813 
3435.000000	1.583099 
3434.000000	1.583623 
3433.000000	1.584386 
3432.000000	1.585245 
3431.000000	1.586151 
3430.000000	1.587057 
3429.000000	1.587748 
3428.000000	1.588273 
3427.000000	1.588511 
3426.000000	1.588463 
3425.000000	1.588153 
3424.000000	1.587629 
3423.000000	1.586914 
3422.000000	1.586127 
3421.000000	1.585268 
3420.000000	1.584410 
3419.000000	1.583671 
3418.000000	1.583003 
3417.000000	1.582527 
3416.000000	1.582288 
3415.000000	1.582288 
3414.000000	1.582622 
3413.000000	1.583266 
3412.000000	1.584148 
3411.000000	1.585316 
3410.000000	1.586651 
3409.000000	1.588153 
3408.000000	1.589679 
3407.000000	1.591253 
3406.000000	1.592755 
3405.000000	1.594281 
3404.000000	1.595664 
3403.000000	1.596999 
3402.000000	1.598215 
3401.000000	1.599287 
3400.000000	1.600241 
3399.000000	1.601028 
3398.000000	1.601672 
3397.000000	1.602101 
3396.000000	1.602339 
3395.000000	1.602411 
3394.000000	1.602315 
3393.000000	1.602101 
3392.000000	1.601767 
3391.000000	1.601433 
3390.000000	1.601171 
3389.000000	1.601004 
3388.000000	1.601028 
3387.000000	1.601266 
3386.000000	1.601743 
3385.000000	1.602482 
3384.000000	1.603412 
3383.000000	1.604461 
3382.000000	1.605606 
3381.000000	1.606726 
3380.000000	1.607799 
3379.000000	1.608800 
3378.000000	1.609778 
3377.000000	1.610708 
3376.000000	1.611661 
3375.000000	1.612687 
3374.000000	1.613807 
3373.000000	1.614975 
3372.000000	1.616287 
3371.000000	1.617622 
3370.000000	1.619005 
3369.000000	1.620340 
3368.000000	1.621651 
3367.000000	1.622867 
3366.000000	1.624083 
3365.000000	1.625323 
3364.000000	1.626586 
3363.000000	1.627945 
3362.000000	1.629352 
3361.000000	1.630902 
3360.000000	1.632547 
3359.000000	1.634311 
3358.000000	1.636099 
3357.000000	1.637911 
3356.000000	1.639699 
3355.000000	1.641440 
3354.000000	1.643109 
3353.000000	1.644706 
3352.000000	1.646208 
3351.000000	1.647710 
3350.000000	1.649165 
3349.000000	1.650643 
3348.000000	1.652216 
3347.000000	1.653790 
3346.000000	1.655364 
3345.000000	1.656937 
3344.000000	1.658463 
3343.000000	1.659941 
3342.000000	1.661276 
3341.000000	1.662516 
3340.000000	1.663661 
3339.000000	1.664757 
3338.000000	1.665806 
3337.000000	1.666903 
3336.000000	1.668071 
3335.000000	1.669359 
3334.000000	1.670789 
3333.000000	1.672363 
3332.000000	1.674056 
3331.000000	1.675891 
3330.000000	1.677727 
3329.000000	1.679563 
3328.000000	1.681327 
3327.000000	1.683020 
3326.000000	1.684546 
3325.000000	1.685953 
3324.000000	1.687192 
3323.000000	1.688361 
3322.000000	1.689481 
3321.000000	1.690602 
3320.000000	1.691770 
3319.000000	1.693058 
3318.000000	1.694488 
3317.000000	1.696014 
3316.000000	1.697659 
3315.000000	1.699352 
3314.000000	1.701021 
3313.000000	1.702618 
3312.000000	1.704120 
3311.000000	1.705503 
3310.000000	1.706790 
3309.000000	1.707959 
3308.000000	1.709032 
3307.000000	1.710081 
3306.000000	1.711106 
3305.000000	1.712131 
3304.000000	1.713132 
3303.000000	1.714158 
3302.000000	1.715230 
3301.000000	1.716327 
3300.000000	1.717519 
3299.000000	1.718807 
3298.000000	1.720190 
3297.000000	1.721668 
3296.000000	1.723265 
3295.000000	1.724910 
3294.000000	1.726651 
3293.000000	1.728343 
3292.000000	1.729965 
3291.000000	1.731514 
3290.000000	1.733016 
3289.000000	1.734375 
3288.000000	1.735687 
3287.000000	1.736950 
3286.000000	1.738238 
3285.000000	1.739478 
3284.000000	1.740717 
3283.000000	1.741909 
3282.000000	1.743054 
3281.000000	1.744127 
3280.000000	1.745176 
3279.000000	1.746153 
3278.000000	1.747131 
3277.000000	1.748132 
3276.000000	1.749181 
3275.000000	1.750254 
3274.000000	1.751327 
3273.000000	1.752448 
3272.000000	1.753544 
3271.000000	1.754546 
3270.000000	1.755475 
3269.000000	1.756310 
3268.000000	1.757121 
3267.000000	1.757812 
3266.000000	1.758527 
3265.000000	1.759290 
3264.000000	1.760125 
3263.000000	1.761031 
3262.000000	1.761984 
3261.000000	1.762890 
3260.000000	1.763796 
3259.000000	1.764583 
3258.000000	1.765322 
3257.000000	1.765990 
3256.000000	1.766633 
3255.000000	1.767325 
3254.000000	1.768064 
3253.000000	1.768898 
3252.000000	1.769828 
3251.000000	1.770877 
3250.000000	1.771974 
3249.000000	1.773047 
3248.000000	1.774096 
3247.000000	1.775121 
3246.000000	1.776075 
3245.000000	1.776981 
3244.000000	1.777887 
3243.000000	1.778721 
3242.000000	1.779532 
3241.000000	1.780223 
3240.000000	1.780796 
3239.000000	1.781153 
3238.000000	1.781368 
3237.000000	1.781392 
3236.000000	1.781320 
3235.000000	1.781201 
3234.000000	1.781082 
3233.000000	1.781105 
3232.000000	1.781249 
3231.000000	1.781558 
3230.000000	1.782035 
3229.000000	1.782655 
3228.000000	1.783323 
3227.000000	1.784062 
3226.000000	1.784777 
3225.000000	1.785469 
3224.000000	1.786136 
3223.000000	1.786804 
3222.000000	1.787471 
3221.000000	1.788043 
3220.000000	1.788520 
3219.000000	1.788949 
3218.000000	1.789259 
3217.000000	1.789450 
3216.000000	1.789546 
3215.000000	1.789498 
3214.000000	1.789355 
3213.000000	1.789164 
3212.000000	1.788902 
3211.000000	1.788592 
3210.000000	1.788330 
3209.000000	1.788067 
3208.000000	1.787853 
3207.000000	1.787734 
3206.000000	1.787710 
3205.000000	1.787805 
3204.000000	1.787972 
3203.000000	1.788187 
3202.000000	1.788473 
3201.000000	1.788711 
3200.000000	1.788949 
3199.000000	1.789116 
3198.000000	1.789212 
3197.000000	1.789283 
3196.000000	1.789331 
3195.000000	1.789402 
3194.000000	1.789498 
3193.000000	1.789665 
3192.000000	1.789951 
3191.000000	1.790332 
3190.000000	1.790761 
3189.000000	1.791286 
3188.000000	1.791763 
3187.000000	1.792240 
3186.000000	1.792645 
3185.000000	1.793003 
3184.000000	1.793360 
3183.000000	1.793694 
3182.000000	1.794075 
3181.000000	1.794552 
3180.000000	1.795053 
3179.000000	1.795673 
3178.000000	1.796317 
3177.000000	1.796984 
3176.000000	1.797580 
3175.000000	1.798105 
3174.000000	1.798534 
3173.000000	1.798796 
3172.000000	1.798939 
3171.000000	1.799011 
3170.000000	1.799011 
3169.000000	1.799035 
3168.000000	1.799082 
3167.000000	1.799225 
3166.000000	1.799440 
3165.000000	1.799798 
3164.000000	1.800274 
3163.000000	1.800847 
3162.000000	1.801490 
3161.000000	1.802134 
3160.000000	1.802873 
3159.000000	1.803612 
3158.000000	1.804351 
3157.000000	1.805090 
3156.000000	1.805830 
3155.000000	1.806545 
3154.000000	1.807284 
3153.000000	1.808071 
3152.000000	1.808810 
3151.000000	1.809501 
3150.000000	1.810121 
3149.000000	1.810622 
3148.000000	1.810956 
3147.000000	1.811122 
3146.000000	1.811194 
3145.000000	1.811242 
3144.000000	1.811408 
3143.000000	1.811838 
3142.000000	1.812505 
3141.000000	1.813483 
3140.000000	1.814794 
3139.000000	1.816272 
3138.000000	1.817822 
3137.000000	1.819324 
3136.000000	1.820635 
3135.000000	1.821780 
3134.000000	1.822805 
3133.000000	1.823806 
3132.000000	1.824831 
3131.000000	1.826095 
3130.000000	1.827573 
3129.000000	1.829409 
3128.000000	1.831483 
3127.000000	1.833701 
3126.000000	1.835966 
3125.000000	1.838159 
3124.000000	1.840186 
3123.000000	1.841974 
3122.000000	1.843619 
3121.000000	1.845073 
3120.000000	1.846432 
3119.000000	1.847743 
3118.000000	1.849031 
3117.000000	1.850366 
3116.000000	1.851725 
3115.000000	1.853108 
3114.000000	1.854586 
3113.000000	1.856160 
3112.000000	1.857757 
3111.000000	1.859378 
3110.000000	1.861023 
3109.000000	1.862716 
3108.000000	1.864361 
3107.000000	1.866006 
3106.000000	1.867556 
3105.000000	1.869058 
3104.000000	1.870512 
3103.000000	1.871943 
3102.000000	1.873350 
3101.000000	1.874756 
3100.000000	1.876211 
3099.000000	1.877737 
3098.000000	1.879286 
3097.000000	1.880884 
3096.000000	1.882576 
3095.000000	1.884388 
3094.000000	1.886272 
3093.000000	1.888251 
3092.000000	1.890325 
3091.000000	1.892471 
3090.000000	1.894664 
3089.000000	1.896905 
3088.000000	1.899170 
3087.000000	1.901483 
3086.000000	1.903772 
3085.000000	1.906108 
3084.000000	1.908373 
3083.000000	1.910591 
3082.000000	1.912736 
3081.000000	1.914739 
3080.000000	1.916575 
3079.000000	1.918244 
3078.000000	1.919674 
3077.000000	1.920914 
3076.000000	1.921987 
3075.000000	1.922941 
3074.000000	1.923823 
3073.000000	1.924657 
3072.000000	1.925516 
3071.000000	1.926398 
3070.000000	1.927351 
3069.000000	1.928400 
3068.000000	1.929569 
3067.000000	1.930904 
3066.000000	1.932430 
3065.000000	1.934146 
3064.000000	1.935982 
3063.000000	1.937890 
3062.000000	1.939845 
3061.000000	1.941680 
3060.000000	1.943373 
3059.000000	1.944875 
3058.000000	1.946139 
3057.000000	1.947355 
3056.000000	1.948499 
3055.000000	1.949691 
3054.000000	1.951074 
3053.000000	1.952695 
3052.000000	1.954579 
3051.000000	1.956796 
3050.000000	1.959180 
3049.000000	1.961731 
3048.000000	1.964235 
3047.000000	1.966691 
3046.000000	1.968884 
3045.000000	1.970791 
3044.000000	1.972413 
3043.000000	1.973676 
3042.000000	1.974678 
3041.000000	1.975464 
3040.000000	1.976037 
3039.000000	1.976394 
3038.000000	1.976609 
3037.000000	1.976656 
3036.000000	1.976537 
3035.000000	1.976299 
3034.000000	1.975893 
3033.000000	1.975345 
3032.000000	1.974797 
3031.000000	1.974034 
3030.000000	1.973247 
3029.000000	1.972270 
3028.000000	1.971149 
3027.000000	1.969766 
3026.000000	1.968193 
3025.000000	1.966452 
3024.000000	1.964616 
3023.000000	1.962828 
3022.000000	1.961302 
3021.000000	1.960158 
3020.000000	1.959633 
3019.000000	1.959848 
3018.000000	1.960921 
3017.000000	1.962852 
3016.000000	1.965665 
3015.000000	1.969265 
3014.000000	1.973533 
3013.000000	1.978325 
3012.000000	1.983404 
3011.000000	1.988625 
3010.000000	1.993823 
3009.000000	1.998805 
3008.000000	2.003479 
3007.000000	2.007770 
3006.000000	2.011609 
3005.000000	2.015018 
3004.000000	2.017974 
3003.000000	2.020478 
3002.000000	2.022600 
3001.000000	2.024364 
3000.000000	2.025794 
2999.000000	2.026963 
2998.000000	2.027869 
2997.000000	2.028584 
2996.000000	2.029180 
2995.000000	2.029657 
2994.000000	2.030038 
2993.000000	2.030372 
2992.000000	2.030634 
2991.000000	2.030825 
2990.000000	2.030849 
2989.000000	2.030706 
2988.000000	2.030324 
2987.000000	2.029633 
2986.000000	2.028632 
2985.000000	2.027320 
2984.000000	2.025675 
2983.000000	2.023768 
2982.000000	2.021622 
2981.000000	2.019238 
2980.000000	2.016687 
2979.000000	2.013969 
2978.000000	2.011108 
2977.000000	2.008032 
2976.000000	2.004694 
2975.000000	2.000951 
2974.000000	1.996827 
2973.000000	1.992177 
2972.000000	1.986980 
2971.000000	1.981234 
2970.000000	1.975059 
2969.000000	1.968622 
2968.000000	1.962089 
2967.000000	1.955747 
2966.000000	1.949715 
2965.000000	1.944303 
2964.000000	1.939606 
2963.000000	1.935672 
2962.000000	1.932525 
2961.000000	1.930093 
2960.000000	1.928281 
2959.000000	1.926922 
2958.000000	1.925897 
2957.000000	1.925134 
2956.000000	1.924490 
2955.000000	1.923847 
2954.000000	1.923108 
2953.000000	1.922178 
2952.000000	1.920914 
2951.000000	1.919150 
2950.000000	1.916742 
2949.000000	1.913571 
2948.000000	1.909470 
2947.000000	1.904439 
2946.000000	1.898384 
2945.000000	1.891422 
2944.000000	1.883673 
2943.000000	1.875281 
2942.000000	1.866364 
2941.000000	1.857233 
2940.000000	1.848030 
2939.000000	1.838946 
2938.000000	1.830053 
2937.000000	1.821470 
2936.000000	1.813316 
2935.000000	1.805543 
2934.000000	1.798200 
2933.000000	1.791286 
2932.000000	1.784825 
2931.000000	1.778888 
2930.000000	1.773643 
2929.000000	1.769232 
2928.000000	1.765942 
2927.000000	1.764035 
2926.000000	1.763844 
2925.000000	1.765584 
2924.000000	1.769471 
2923.000000	1.775455 
2922.000000	1.783418 
2921.000000	1.793169 
2920.000000	1.804304 
2919.000000	1.816391 
2918.000000	1.828956 
2917.000000	1.841616 
2916.000000	1.853990 
2915.000000	1.865816 
2914.000000	1.876926 
2913.000000	1.887249 
2912.000000	1.896691 
2911.000000	1.905250 
2910.000000	1.912927 
2909.000000	1.919865 
2908.000000	1.926064 
2907.000000	1.931595 
2906.000000	1.936578 
2905.000000	1.941108 
2904.000000	1.945304 
2903.000000	1.949238 
2902.000000	1.952981 
2901.000000	1.956582 
2900.000000	1.960039 
2899.000000	1.963400 
2898.000000	1.966714 
2897.000000	1.969885 
2896.000000	1.973032 
2895.000000	1.976108 
2894.000000	1.979136 
2893.000000	1.982116 
2892.000000	1.985049 
2891.000000	1.987886 
2890.000000	1.990580 
2889.000000	1.993155 
2888.000000	1.995587 
2887.000000	1.997852 
2886.000000	1.999926 
2885.000000	2.001810 
2884.000000	2.003526 
2883.000000	2.005028 
2882.000000	2.006244 
2881.000000	2.007102 
2880.000000	2.007484 
2879.000000	2.007365 
2878.000000	2.006602 
2877.000000	2.005100 
2876.000000	2.002763 
2875.000000	1.999545 
2874.000000	1.995348 
2873.000000	1.990103 
2872.000000	1.983785 
2871.000000	1.976418 
2870.000000	1.968050 
2869.000000	1.958847 
2868.000000	1.949119 
2867.000000	1.939153 
2866.000000	1.929497 
2865.000000	1.920628 
2864.000000	1.913094 
2863.000000	1.907324 
2862.000000	1.903676 
2861.000000	1.902365 
2860.000000	1.903390 
2859.000000	1.906633 
2858.000000	1.911830 
2857.000000	1.918601 
2856.000000	1.926565 
2855.000000	1.935362 
2854.000000	1.944732 
2853.000000	1.954388 
2852.000000	1.964235 
2851.000000	1.974153 
2850.000000	1.984167 
2849.000000	1.994228 
2848.000000	2.004218 
2847.000000	2.014088 
2846.000000	2.023673 
2845.000000	2.032828 
2844.000000	2.041411 
2843.000000	2.049326 
2842.000000	2.056527 
2841.000000	2.063035 
2840.000000	2.068901 
2839.000000	2.074265 
2838.000000	2.079200 
2837.000000	2.083802 
2836.000000	2.088260 
2835.000000	2.092576 
2834.000000	2.096772 
2833.000000	2.100825 
2832.000000	2.104735 
2831.000000	2.108407 
2830.000000	2.111840 
2829.000000	2.115058 
2828.000000	2.117991 
2827.000000	2.120780 
2826.000000	2.123403 
2825.000000	2.125906 
2824.000000	2.128338 
2823.000000	2.130746 
2822.000000	2.133154 
2821.000000	2.135515 
2820.000000	2.137851 
2819.000000	2.140188 
2818.000000	2.142453 
2817.000000	2.144670 
2816.000000	2.146911 
2815.000000	2.149176 
2814.000000	2.151489 
2813.000000	2.153801 
2812.000000	2.156138 
2811.000000	2.158451 
2810.000000	2.160739 
2809.000000	2.162909 
2808.000000	2.164959 
2807.000000	2.166891 
2806.000000	2.168726 
2805.000000	2.170443 
2804.000000	2.172160 
2803.000000	2.173852 
2802.000000	2.175641 
2801.000000	2.177476 
2800.000000	2.179384 
2799.000000	2.181339 
2798.000000	2.183365 
2797.000000	2.185344 
2796.000000	2.187252 
2795.000000	2.189064 
2794.000000	2.190756 
2793.000000	2.192330 
2792.000000	2.193832 
2791.000000	2.195286 
2790.000000	2.196764 
2789.000000	2.198290 
2788.000000	2.199864 
2787.000000	2.201628 
2786.000000	2.203464 
2785.000000	2.205371 
2784.000000	2.207326 
2783.000000	2.209258 
2782.000000	2.211141 
2781.000000	2.212929 
2780.000000	2.214622 
2779.000000	2.216172 
2778.000000	2.217626 
2777.000000	2.218985 
2776.000000	2.220273 
2775.000000	2.221560 
2774.000000	2.222847 
2773.000000	2.224206 
2772.000000	2.225613 
2771.000000	2.227139 
2770.000000	2.228713 
2769.000000	2.230334 
2768.000000	2.231931 
2767.000000	2.233481 
2766.000000	2.234911 
2765.000000	2.236175 
2764.000000	2.237296 
2763.000000	2.238225 
2762.000000	2.239012 
2761.000000	2.239704 
2760.000000	2.240324 
2759.000000	2.240943 
2758.000000	2.241539 
2757.000000	2.242207 
2756.000000	2.242922 
2755.000000	2.243709 
2754.000000	2.244544 
2753.000000	2.245354 
2752.000000	2.246069 
2751.000000	2.246737 
2750.000000	2.247262 
2749.000000	2.247667 
2748.000000	2.247953 
2747.000000	2.248167 
2746.000000	2.248406 
2745.000000	2.248716 
2744.000000	2.249121 
2743.000000	2.249670 
2742.000000	2.250361 
2741.000000	2.251100 
2740.000000	2.251815 
2739.000000	2.252483 
2738.000000	2.253007 
2737.000000	2.253413 
2736.000000	2.253675 
2735.000000	2.253842 
2734.000000	2.253961 
2733.000000	2.254080 
2732.000000	2.254223 
2731.000000	2.254366 
2730.000000	2.254533 
2729.000000	2.254605 
2728.000000	2.254605 
2727.000000	2.254486 
2726.000000	2.254223 
2725.000000	2.253818 
2724.000000	2.253341 
2723.000000	2.252721 
2722.000000	2.252054 
2721.000000	2.251315 
2720.000000	2.250576 
2719.000000	2.249789 
2718.000000	2.249073 
2717.000000	2.248358 
2716.000000	2.247738 
2715.000000	2.247214 
2714.000000	2.246761 
2713.000000	2.246379 
2712.000000	2.245998 
2711.000000	2.245616 
2710.000000	2.245187 
2709.000000	2.244687 
2708.000000	2.244114 
2707.000000	2.243494 
2706.000000	2.242875 
2705.000000	2.242231 
2704.000000	2.241659 
2703.000000	2.241206 
2702.000000	2.240777 
2701.000000	2.240419 
2700.000000	2.240133 
2699.000000	2.239871 
2698.000000	2.239608 
2697.000000	2.239322 
2696.000000	2.239060 
2695.000000	2.238798 
2694.000000	2.238512 
2693.000000	2.238249 
2692.000000	2.237963 
2691.000000	2.237653 
2690.000000	2.237319 
2689.000000	2.236986 
2688.000000	2.236628 
2687.000000	2.236270 
2686.000000	2.235889 
2685.000000	2.235484 
2684.000000	2.235054 
2683.000000	2.234578 
2682.000000	2.234077 
2681.000000	2.233457 
2680.000000	2.232742 
2679.000000	2.231979 
2678.000000	2.231144 
2677.000000	2.230286 
2676.000000	2.229404 
2675.000000	2.228569 
2674.000000	2.227783 
2673.000000	2.226996 
2672.000000	2.226233 
2671.000000	2.225470 
2670.000000	2.224755 
2669.000000	2.224016 
2668.000000	2.223348 
2667.000000	2.222704 
2666.000000	2.222156 
2665.000000	2.221679 
2664.000000	2.221226 
2663.000000	2.220821 
2662.000000	2.220416 
2661.000000	2.219915 
2660.000000	2.219343 
2659.000000	2.218747 
2658.000000	2.218151 
2657.000000	2.217531 
2656.000000	2.217030 
2655.000000	2.216672 
2654.000000	2.216482 
2653.000000	2.216410 
2652.000000	2.216529 
2651.000000	2.216696 
2650.000000	2.216911 
2649.000000	2.217102 
2648.000000	2.217221 
2647.000000	2.217268 
2646.000000	2.217245 
2645.000000	2.217102 
2644.000000	2.216911 
2643.000000	2.216601 
2642.000000	2.216196 
2641.000000	2.215695 
2640.000000	2.215170 
2639.000000	2.214622 
2638.000000	2.214145 
2637.000000	2.213716 
2636.000000	2.213382 
2635.000000	2.213263 
2634.000000	2.213287 
2633.000000	2.213525 
2632.000000	2.213883 
2631.000000	2.214360 
2630.000000	2.214884 
2629.000000	2.215385 
2628.000000	2.215862 
2627.000000	2.216219 
2626.000000	2.216529 
2625.000000	2.216768 
2624.000000	2.216935 
2623.000000	2.217102 
2622.000000	2.217292 
2621.000000	2.217507 
2620.000000	2.217793 
2619.000000	2.218127 
2618.000000	2.218484 
2617.000000	2.218866 
2616.000000	2.219223 
2615.000000	2.219605 
2614.000000	2.219939 
2613.000000	2.220296 
2612.000000	2.220678 
2611.000000	2.221107 
2610.000000	2.221560 
2609.000000	2.222037 
2608.000000	2.222537 
2607.000000	2.223038 
2606.000000	2.223491 
2605.000000	2.223920 
2604.000000	2.224302 
2603.000000	2.224659 
2602.000000	2.225041 
2601.000000	2.225494 
2600.000000	2.225947 
2599.000000	2.226471 
2598.000000	2.227020 
2597.000000	2.227592 
2596.000000	2.228140 
2595.000000	2.228689 
2594.000000	2.229142 
2593.000000	2.229642 
2592.000000	2.230143 
2591.000000	2.230739 
2590.000000	2.231478 
2589.000000	2.232360 
2588.000000	2.233338 
2587.000000	2.234458 
2586.000000	2.235651 
2585.000000	2.236890 
2584.000000	2.238154 
2583.000000	2.239418 
2582.000000	2.240657 
2581.000000	2.241921 
2580.000000	2.243280 
2579.000000	2.244782 
2578.000000	2.246403 
2577.000000	2.248191 
2576.000000	2.250170 
2575.000000	2.252244 
2574.000000	2.254438 
2573.000000	2.256655 
2572.000000	2.258849 
2571.000000	2.260947 
2570.000000	2.262854 
2569.000000	2.264571 
2568.000000	2.266001 
2567.000000	2.267241 
2566.000000	2.268218 
2565.000000	2.269029 
2564.000000	2.269721 
2563.000000	2.270364 
2562.000000	2.271056 
2561.000000	2.271795 
2560.000000	2.272701 
2559.000000	2.273726 
2558.000000	2.274894 
2557.000000	2.276134 
2556.000000	2.277469 
2555.000000	2.278852 
2554.000000	2.280282 
2553.000000	2.281713 
2552.000000	2.283143 
2551.000000	2.284598 
2550.000000	2.286052 
2549.000000	2.287483 
2548.000000	2.288913 
2547.000000	2.290368 
2546.000000	2.291798 
2545.000000	2.293229 
2544.000000	2.294707 
2543.000000	2.296185 
2542.000000	2.297616 
2541.000000	2.299022 
2540.000000	2.300333 
2539.000000	2.301526 
2538.000000	2.302575 
2537.000000	2.303504 
2536.000000	2.304291 
2535.000000	2.305006 
2534.000000	2.305722 
2533.000000	2.306461 
2532.000000	2.307271 
2531.000000	2.308177 
2530.000000	2.309179 
2529.000000	2.310252 
2528.000000	2.311325 
2527.000000	2.312326 
2526.000000	2.313256 
2525.000000	2.314066 
2524.000000	2.314805 
2523.000000	2.315497 
2522.000000	2.316093 
2521.000000	2.316713 
2520.000000	2.317285 
2519.000000	2.317810 
2518.000000	2.318263 
2517.000000	2.318692 
2516.000000	2.319049 
2515.000000	2.319359 
2514.000000	2.319645 
2513.000000	2.319979 
2512.000000	2.320361 
2511.000000	2.320861 
2510.000000	2.321457 
2509.000000	2.322244 
2508.000000	2.323079 
2507.000000	2.323985 
2506.000000	2.324891 
2505.000000	2.325677 
2504.000000	2.326393 
2503.000000	2.326941 
2502.000000	2.327322 
2501.000000	2.327561 
2500.000000	2.327728 
2499.000000	2.327799 
2498.000000	2.327895 
2497.000000	2.327990 
2496.000000	2.328062 
2495.000000	2.328109 
2494.000000	2.328085 
2493.000000	2.327919 
2492.000000	2.327632 
2491.000000	2.327156 
2490.000000	2.326583 
2489.000000	2.325940 
2488.000000	2.325224 
2487.000000	2.324557 
2486.000000	2.323937 
2485.000000	2.323436 
2484.000000	2.322959 
2483.000000	2.322554 
2482.000000	2.322173 
2481.000000	2.321743 
2480.000000	2.321314 
2479.000000	2.320814 
2478.000000	2.320218 
2477.000000	2.319598 
2476.000000	2.319002 
2475.000000	2.318382 
2474.000000	2.317762 
2473.000000	2.317166 
2472.000000	2.316546 
2471.000000	2.315998 
2470.000000	2.315425 
2469.000000	2.314829 
2468.000000	2.314209 
2467.000000	2.313518 
2466.000000	2.312684 
2465.000000	2.311801 
2464.000000	2.310848 
2463.000000	2.309775 
2462.000000	2.308654 
2461.000000	2.307558 
2460.000000	2.306461 
2459.000000	2.305364 
2458.000000	2.304315 
2457.000000	2.303290 
2456.000000	2.302265 
2455.000000	2.301216 
2454.000000	2.300119 
2453.000000	2.299022 
2452.000000	2.297925 
2451.000000	2.296829 
2450.000000	2.295756 
2449.000000	2.294707 
2448.000000	2.293705 
2447.000000	2.292776 
2446.000000	2.291798 
2445.000000	2.290844 
2444.000000	2.289819 
2443.000000	2.288746 
2442.000000	2.287578 
2441.000000	2.286338 
2440.000000	2.284955 
2439.000000	2.283549 
2438.000000	2.282094 
2437.000000	2.280664 
2436.000000	2.279305 
2435.000000	2.278137 
2434.000000	2.277231 
2433.000000	2.276659 
2432.000000	2.276492 
2431.000000	2.276730 
2430.000000	2.277302 
2429.000000	2.278089 
2428.000000	2.278900 
2427.000000	2.279543 
2426.000000	2.279877 
2425.000000	2.279758 
2424.000000	2.279114 
2423.000000	2.277970 
2422.000000	2.276420 
2421.000000	2.274560 
2420.000000	2.272605 
2419.000000	2.270650 
2418.000000	2.268743 
2417.000000	2.267026 
2416.000000	2.265453 
2415.000000	2.263998 
2414.000000	2.262687 
2413.000000	2.261424 
2412.000000	2.260184 
2411.000000	2.259087 
2410.000000	2.258110 
2409.000000	2.257323 
2408.000000	2.256703 
2407.000000	2.256321 
2406.000000	2.256035 
2405.000000	2.255845 
2404.000000	2.255678 
2403.000000	2.255463 
2402.000000	2.255129 
2401.000000	2.254724 
2400.000000	2.254199 
2399.000000	2.253580 
2398.000000	2.252936 
2397.000000	2.252221 
2396.000000	2.251529 
2395.000000	2.250862 
2394.000000	2.250170 
2393.000000	2.249503 
2392.000000	2.248835 
2391.000000	2.248167 
2390.000000	2.247500 
2389.000000	2.246904 
2388.000000	2.246356 
2387.000000	2.245855 
2386.000000	2.245378 
2385.000000	2.244925 
2384.000000	2.244472 
2383.000000	2.243876 
2382.000000	2.243256 
2381.000000	2.242517 
2380.000000	2.241730 
2379.000000	2.240872 
2378.000000	2.240085 
2377.000000	2.239346 
2376.000000	2.238726 
2375.000000	2.238178 
2374.000000	2.237701 
2373.000000	2.237200 
2372.000000	2.236700 
2371.000000	2.236104 
2370.000000	2.235436 
2369.000000	2.234745 
2368.000000	2.234077 
2367.000000	2.233552 
2366.000000	2.233266 
2365.000000	2.233242 
2364.000000	2.233529 
2363.000000	2.234125 
2362.000000	2.234983 
2361.000000	2.236104 
2360.000000	2.237439 
2359.000000	2.238988 
2358.000000	2.240681 
2357.000000	2.242588 
2356.000000	2.244663 
2355.000000	2.246832 
2354.000000	2.249073 
2353.000000	2.251338 
2352.000000	2.253556 
2351.000000	2.255582 
2350.000000	2.257418 
2349.000000	2.258992 
2348.000000	2.260279 
2347.000000	2.261281 
2346.000000	2.262020 
2345.000000	2.262592 
2344.000000	2.263021 
2343.000000	2.263379 
2342.000000	2.263784 
2341.000000	2.264261 
2340.000000	2.264928 
2339.000000	2.265810 
2338.000000	2.266883 
2337.000000	2.268171 
2336.000000	2.269577 
2335.000000	2.271103 
2334.000000	2.272725 
2333.000000	2.274370 
2332.000000	2.276039 
2331.000000	2.277779 
2330.000000	2.279615 
2329.000000	2.281570 
2328.000000	2.283668 
2327.000000	2.285957 
2326.000000	2.288317 
2325.000000	2.290701 
2324.000000	2.293109 
2323.000000	2.295374 
2322.000000	2.297544 
2321.000000	2.299547 
2320.000000	2.301359 
2319.000000	2.303075 
2318.000000	2.304768 
2317.000000	2.306437 
2316.000000	2.308225 
2315.000000	2.310085 
2314.000000	2.312088 
2313.000000	2.314138 
2312.000000	2.316260 
2311.000000	2.318429 
2310.000000	2.320528 
2309.000000	2.322530 
2308.000000	2.324485 
2307.000000	2.326369 
2306.000000	2.328109 
2305.000000	2.329826 
2304.000000	2.331495 
2303.000000	2.333140 
2302.000000	2.334737 
2301.000000	2.336287 
2300.000000	2.337837 
2299.000000	2.339315 
2298.000000	2.340769 
2297.000000	2.342200 
2296.000000	2.343630 
2295.000000	2.345061 
2294.000000	2.346491 
2293.000000	2.347993 
2292.000000	2.349400 
2291.000000	2.350735 
2290.000000	2.351999 
2289.000000	2.353119 
2288.000000	2.354145 
2287.000000	2.355051 
2286.000000	2.355933 
2285.000000	2.356767 
2284.000000	2.357625 
2283.000000	2.358531 
2282.000000	2.359557 
2281.000000	2.360606 
2280.000000	2.361750 
2279.000000	2.362942 
2278.000000	2.364182 
2277.000000	2.365422 
2276.000000	2.366685 
2275.000000	2.367925 
2274.000000	2.369117 
2273.000000	2.370238 
2272.000000	2.371287 
2271.000000	2.372217 
2270.000000	2.373003 
2269.000000	2.373600 
2268.000000	2.374053 
2267.000000	2.374339 
2266.000000	2.374505 
2265.000000	2.374625 
2264.000000	2.374768 
2263.000000	2.374982 
2262.000000	2.375340 
2261.000000	2.375793 
2260.000000	2.376389 
2259.000000	2.377057 
2258.000000	2.377772 
2257.000000	2.378416 
2256.000000	2.378964 
2255.000000	2.379369 
2254.000000	2.379608 
2253.000000	2.379727 
2252.000000	2.379703 
2251.000000	2.379631 
2250.000000	2.379536 
2249.000000	2.379465 
2248.000000	2.379393 
2247.000000	2.379369 
2246.000000	2.379345 
2245.000000	2.379322 
2244.000000	2.379298 
2243.000000	2.379226 
2242.000000	2.379155 
2241.000000	2.379083 
2240.000000	2.379012 
2239.000000	2.378940 
2238.000000	2.378869 
2237.000000	2.378797 
2236.000000	2.378726 
2235.000000	2.378582 
2234.000000	2.378392 
2233.000000	2.378082 
2232.000000	2.377676 
2231.000000	2.377128 
2230.000000	2.376484 
2229.000000	2.375769 
2228.000000	2.375030 
2227.000000	2.374315 
2226.000000	2.373671 
2225.000000	2.373170 
2224.000000	2.372789 
2223.000000	2.372527 
2222.000000	2.372384 
2221.000000	2.372264 
2220.000000	2.372145 
2219.000000	2.372002 
2218.000000	2.371716 
2217.000000	2.371335 
2216.000000	2.370834 
2215.000000	2.370190 
2214.000000	2.369451 
2213.000000	2.368664 
2212.000000	2.367830 
2211.000000	2.367043 
2210.000000	2.366280 
2209.000000	2.365612 
2208.000000	2.365016 
2207.000000	2.364516 
2206.000000	2.364087 
2205.000000	2.363634 
2204.000000	2.363157 
2203.000000	2.362585 
2202.000000	2.361869 
2201.000000	2.360963 
2200.000000	2.359938 
2199.000000	2.358841 
2198.000000	2.357721 
2197.000000	2.356576 
2196.000000	2.355432 
2195.000000	2.354407 
2194.000000	2.353477 
2193.000000	2.352595 
2192.000000	2.351832 
2191.000000	2.351045 
2190.000000	2.350282 
2189.000000	2.349567 
2188.000000	2.348875 
2187.000000	2.348184 
2186.000000	2.347493 
2185.000000	2.346801 
2184.000000	2.346086 
2183.000000	2.345323 
2182.000000	2.344536 
2181.000000	2.343726 
2180.000000	2.342939 
2179.000000	2.342176 
2178.000000	2.341437 
2177.000000	2.340769 
2176.000000	2.340173 
2175.000000	2.339649 
2174.000000	2.339172 
2173.000000	2.338790 
2172.000000	2.338433 
2171.000000	2.338171 
2170.000000	2.337908 
2169.000000	2.337694 
2168.000000	2.337455 
2167.000000	2.337241 
2166.000000	2.336955 
2165.000000	2.336668 
2164.000000	2.336335 
2163.000000	2.336049 
2162.000000	2.335762 
2161.000000	2.335572 
2160.000000	2.335429 
2159.000000	2.335381 
2158.000000	2.335429 
2157.000000	2.335548 
2156.000000	2.335715 
2155.000000	2.335953 
2154.000000	2.336144 
2153.000000	2.336382 
2152.000000	2.336597 
2151.000000	2.336859 
2150.000000	2.337145 
2149.000000	2.337455 
2148.000000	2.337741 
2147.000000	2.337980 
2146.000000	2.338147 
2145.000000	2.338194 
2144.000000	2.338099 
2143.000000	2.337861 
2142.000000	2.337479 
2141.000000	2.337026 
2140.000000	2.336502 
2139.000000	2.335977 
2138.000000	2.335500 
2137.000000	2.335023 
2136.000000	2.334594 
2135.000000	2.334237 
2134.000000	2.333903 
2133.000000	2.333664 
2132.000000	2.333426 
2131.000000	2.333354 
2130.000000	2.333378 
2129.000000	2.333569 
2128.000000	2.333879 
2127.000000	2.334284 
2126.000000	2.334761 
2125.000000	2.335262 
2124.000000	2.335739 
2123.000000	2.336120 
2122.000000	2.336430 
2121.000000	2.336645 
2120.000000	2.336788 
2119.000000	2.336931 
2118.000000	2.337098 
2117.000000	2.337288 
2116.000000	2.337479 
2115.000000	2.337670 
2114.000000	2.337813 
2113.000000	2.337884 
2112.000000	2.337884 
2111.000000	2.337813 
2110.000000	2.337718 
2109.000000	2.337646 
2108.000000	2.337551 
2107.000000	2.337527 
2106.000000	2.337527 
2105.000000	2.337527 
2104.000000	2.337551 
2103.000000	2.337551 
2102.000000	2.337527 
2101.000000	2.337431 
2100.000000	2.337312 
2099.000000	2.337217 
2098.000000	2.337169 
2097.000000	2.337193 
2096.000000	2.337241 
2095.000000	2.337384 
2094.000000	2.337551 
2093.000000	2.337741 
2092.000000	2.337861 
2091.000000	2.337956 
2090.000000	2.337908 
2089.000000	2.337813 
2088.000000	2.337694 
2087.000000	2.337527 
2086.000000	2.337384 
2085.000000	2.337312 
2084.000000	2.337408 
2083.000000	2.337646 
2082.000000	2.338123 
2081.000000	2.338862 
2080.000000	2.339816 
2079.000000	2.341055 
2078.000000	2.342534 
2077.000000	2.344226 
2076.000000	2.346038 
2075.000000	2.347970 
2074.000000	2.349972 
2073.000000	2.352023 
2072.000000	2.354145 
2071.000000	2.356338 
2070.000000	2.358675 
2069.000000	2.361178 
2068.000000	2.363848 
2067.000000	2.366662 
2066.000000	2.369642 
2065.000000	2.372646 
2064.000000	2.375626 
2063.000000	2.378535 
2062.000000	2.381253 
2061.000000	2.383828 
2060.000000	2.386116 
2059.000000	2.388238 
2058.000000	2.390170 
2057.000000	2.391934 
2056.000000	2.393651 
2055.000000	2.395272 
2054.000000	2.396845 
2053.000000	2.398395 
2052.000000	2.399992 
2051.000000	2.401685 
2050.000000	2.403426 
2049.000000	2.405261 
2048.000000	2.407169 
2047.000000	2.409148 
2046.000000	2.411198 
2045.000000	2.413225 
2044.000000	2.415204 
2043.000000	2.417159 
2042.000000	2.419042 
2041.000000	2.420854 
2040.000000	2.422618 
2039.000000	2.424335 
2038.000000	2.426004 
2037.000000	2.427625 
2036.000000	2.429151 
2035.000000	2.430558 
2034.000000	2.431845 
2033.000000	2.432990 
2032.000000	2.433991 
2031.000000	2.434921 
2030.000000	2.435803 
2029.000000	2.436685 
2028.000000	2.437567 
2027.000000	2.438497 
2026.000000	2.439475 
2025.000000	2.440476 
2024.000000	2.441525 
2023.000000	2.442526 
2022.000000	2.443456 
2021.000000	2.444243 
2020.000000	2.444934 
2019.000000	2.445483 
2018.000000	2.445936 
2017.000000	2.446293 
2016.000000	2.446675 
2015.000000	2.447080 
2014.000000	2.447652 
2013.000000	2.448368 
2012.000000	2.449274 
2011.000000	2.450346 
2010.000000	2.451515 
2009.000000	2.452731 
2008.000000	2.453970 
2007.000000	2.455186 
2006.000000	2.456259 
2005.000000	2.457261 
2004.000000	2.458143 
2003.000000	2.458882 
2002.000000	2.459430 
2001.000000	2.459859 
2000.000000	2.460122 
1999.000000	2.460193 
1998.000000	2.460074 
1997.000000	2.459788 
1996.000000	2.459359 
1995.000000	2.458810 
1994.000000	2.458238 
1993.000000	2.457642 
1992.000000	2.457046 
1991.000000	2.456545 
1990.000000	2.456021 
1989.000000	2.455568 
1988.000000	2.455163 
1987.000000	2.454662 
1986.000000	2.454161 
1985.000000	2.453589 
1984.000000	2.452945 
1983.000000	2.452278 
1982.000000	2.451562 
1981.000000	2.450871 
1980.000000	2.450156 
1979.000000	2.449464 
1978.000000	2.448773 
1977.000000	2.448058 
1976.000000	2.447247 
1975.000000	2.446341 
1974.000000	2.445340 
1973.000000	2.444219 
1972.000000	2.442979 
1971.000000	2.441692 
1970.000000	2.440381 
1969.000000	2.439165 
1968.000000	2.437973 
1967.000000	2.436923 
1966.000000	2.435994 
1965.000000	2.435159 
1964.000000	2.434372 
1963.000000	2.433609 
1962.000000	2.432823 
1961.000000	2.431964 
1960.000000	2.431082 
1959.000000	2.430176 
1958.000000	2.429294 
1957.000000	2.428436 
1956.000000	2.427649 
1955.000000	2.426934 
1954.000000	2.426242 
1953.000000	2.425599 
1952.000000	2.424931 
1951.000000	2.424240 
1950.000000	2.423524 
1949.000000	2.422761 
1948.000000	2.421998 
1947.000000	2.421188 
1946.000000	2.420425 
1945.000000	2.419662 
1944.000000	2.418947 
1943.000000	2.418255 
1942.000000	2.417564 
1941.000000	2.416872 
1940.000000	2.416157 
1939.000000	2.415394 
1938.000000	2.414631 
1937.000000	2.413797 
1936.000000	2.412915 
1935.000000	2.411961 
1934.000000	2.410936 
1933.000000	2.409815 
1932.000000	2.408647 
1931.000000	2.407360 
1930.000000	2.406048 
1929.000000	2.404689 
1928.000000	2.403283 
1927.000000	2.401876 
1926.000000	2.400469 
1925.000000	2.399086 
1924.000000	2.397704 
1923.000000	2.396392 
1922.000000	2.395129 
1921.000000	2.393960 
1920.000000	2.392864 
1919.000000	2.391934 
1918.000000	2.391099 
1917.000000	2.390360 
1916.000000	2.389669 
1915.000000	2.389073 
1914.000000	2.388477 
1913.000000	2.387833 
1912.000000	2.387094 
1911.000000	2.386260 
1910.000000	2.385306 
1909.000000	2.384257 
1908.000000	2.383136 
1907.000000	2.381992 
1906.000000	2.380895 
1905.000000	2.379870 
1904.000000	2.378916 
1903.000000	2.378034 
1902.000000	2.377200 
1901.000000	2.376365 
1900.000000	2.375555 
1899.000000	2.374720 
1898.000000	2.373814 
1897.000000	2.372884 
1896.000000	2.371978 
1895.000000	2.371144 
1894.000000	2.370524 
1893.000000	2.370071 
1892.000000	2.369880 
1891.000000	2.369976 
1890.000000	2.370309 
1889.000000	2.370810 
1888.000000	2.371430 
1887.000000	2.372145 
1886.000000	2.372813 
1885.000000	2.373480 
1884.000000	2.374124 
1883.000000	2.374720 
1882.000000	2.375245 
1881.000000	2.375721 
1880.000000	2.376103 
1879.000000	2.376365 
1878.000000	2.376532 
1877.000000	2.376580 
1876.000000	2.376508 
1875.000000	2.376365 
1874.000000	2.376198 
1873.000000	2.376151 
1872.000000	2.376222 
1871.000000	2.376580 
1870.000000	2.377152 
1869.000000	2.377963 
1868.000000	2.378988 
1867.000000	2.380156 
1866.000000	2.381420 
1865.000000	2.382659 
1864.000000	2.383828 
1863.000000	2.384924 
1862.000000	2.385973 
1861.000000	2.386927 
1860.000000	2.387857 
1859.000000	2.388787 
1858.000000	2.389764 
1857.000000	2.390766 
1856.000000	2.391815 
1855.000000	2.392840 
1854.000000	2.393817 
1853.000000	2.394676 
1852.000000	2.395367 
1851.000000	2.395868 
1850.000000	2.396154 
1849.000000	2.396297 
1848.000000	2.396321 
1847.000000	2.396321 
1846.000000	2.396440 
1845.000000	2.396702 
1844.000000	2.397274 
1843.000000	2.398037 
1842.000000	2.399086 
1841.000000	2.400302 
1840.000000	2.401590 
1839.000000	2.402877 
1838.000000	2.404069 
1837.000000	2.405118 
1836.000000	2.405905 
1835.000000	2.406549 
1834.000000	2.406978 
1833.000000	2.407312 
1832.000000	2.407622 
1831.000000	2.407979 
1830.000000	2.408409 
1829.000000	2.408957 
1828.000000	2.409648 
1827.000000	2.410483 
1826.000000	2.411413 
1825.000000	2.412414 
1824.000000	2.413439 
1823.000000	2.414464 
1822.000000	2.415490 
1821.000000	2.416443 
1820.000000	2.417349 
1819.000000	2.418255 
1818.000000	2.419114 
1817.000000	2.419996 
1816.000000	2.420902 
1815.000000	2.421832 
1814.000000	2.422809 
1813.000000	2.423858 
1812.000000	2.424955 
1811.000000	2.426075 
1810.000000	2.427196 
1809.000000	2.428221 
1808.000000	2.429151 
1807.000000	2.429962 
1806.000000	2.430582 
1805.000000	2.431058 
1804.000000	2.431344 
1803.000000	2.431488 
1802.000000	2.431535 
1801.000000	2.431440 
1800.000000	2.431249 
1799.000000	2.430963 
1798.000000	2.430605 
1797.000000	2.430176 
1796.000000	2.429747 
1795.000000	2.429366 
1794.000000	2.429103 
1793.000000	2.429032 
1792.000000	2.429127 
1791.000000	2.429366 
1790.000000	2.429604 
1789.000000	2.429842 
1788.000000	2.429938 
1787.000000	2.429914 
1786.000000	2.429747 
1785.000000	2.429437 
1784.000000	2.429127 
1783.000000	2.428770 
1782.000000	2.428388 
1781.000000	2.427959 
1780.000000	2.427363 
1779.000000	2.426505 
1778.000000	2.425360 
1777.000000	2.423834 
1776.000000	2.422022 
1775.000000	2.420115 
1774.000000	2.418279 
1773.000000	2.416706 
1772.000000	2.415561 
1771.000000	2.414917 
1770.000000	2.414751 
1769.000000	2.414846 
1768.000000	2.415060 
1767.000000	2.415156 
1766.000000	2.414989 
1765.000000	2.414417 
1764.000000	2.413392 
1763.000000	2.411985 
1762.000000	2.410244 
1761.000000	2.408266 
1760.000000	2.406096 
1759.000000	2.403831 
1758.000000	2.401447 
1757.000000	2.398920 
1756.000000	2.396297 
1755.000000	2.393555 
1754.000000	2.390742 
1753.000000	2.387952 
1752.000000	2.385210 
1751.000000	2.382564 
1750.000000	2.380037 
1749.000000	2.377533 
1748.000000	2.375006 
1747.000000	2.372384 
1746.000000	2.369499 
1745.000000	2.366280 
1744.000000	2.362656 
1743.000000	2.358555 
1742.000000	2.354073 
1741.000000	2.349281 
1740.000000	2.344298 
1739.000000	2.339315 
1738.000000	2.334547 
1737.000000	2.330255 
1736.000000	2.326679 
1735.000000	2.324008 
1734.000000	2.322363 
1733.000000	2.321672 
1732.000000	2.321887 
1731.000000	2.322673 
1730.000000	2.323889 
1729.000000	2.325129 
1728.000000	2.326083 
1727.000000	2.326512 
1726.000000	2.326202 
1725.000000	2.325057 
1724.000000	2.323031 
1723.000000	2.320194 
1722.000000	2.316665 
1721.000000	2.312684 
1720.000000	2.308535 
1719.000000	2.304577 
1718.000000	2.301120 
1717.000000	2.298498 
1716.000000	2.296853 
1715.000000	2.296257 
1714.000000	2.296590 
1713.000000	2.297520 
1712.000000	2.298665 
1711.000000	2.299523 
1710.000000	2.299737 
1709.000000	2.298927 
1708.000000	2.296900 
1707.000000	2.293610 
1706.000000	2.289223 
1705.000000	2.283954 
1704.000000	2.278184 
1703.000000	2.272319 
1702.000000	2.266693 
1701.000000	2.261734 
1700.000000	2.257680 
1699.000000	2.254748 
1698.000000	2.253031 
1697.000000	2.252483 
1696.000000	2.252888 
1695.000000	2.253913 
1694.000000	2.255129 
1693.000000	2.256107 
1692.000000	2.256464 
1691.000000	2.255916 
1690.000000	2.254366 
1689.000000	2.251911 
1688.000000	2.248859 
1687.000000	2.245664 
1686.000000	2.242708 
1685.000000	2.240300 
1684.000000	2.238726 
1683.000000	2.237939 
1682.000000	2.237820 
1681.000000	2.237987 
1680.000000	2.238154 
1679.000000	2.237987 
1678.000000	2.237272 
1677.000000	2.235960 
1676.000000	2.234101 
1675.000000	2.231931 
1674.000000	2.229547 
1673.000000	2.227187 
1672.000000	2.224946 
1671.000000	2.222895 
1670.000000	2.221059 
1669.000000	2.219390 
1668.000000	2.217912 
1667.000000	2.216506 
1666.000000	2.215218 
1665.000000	2.213907 
1664.000000	2.212500 
1663.000000	2.210807 
1662.000000	2.208614 
1661.000000	2.205729 
1660.000000	2.201986 
1659.000000	2.197313 
1658.000000	2.191853 
1657.000000	2.185845 
1656.000000	2.179718 
1655.000000	2.173876 
1654.000000	2.168726 
1653.000000	2.164673 
1652.000000	2.161741 
1651.000000	2.159976 
1650.000000	2.159285 
1649.000000	2.159309 
1648.000000	2.159738 
1647.000000	2.160334 
1646.000000	2.160787 
1645.000000	2.160978 
1644.000000	2.160692 
1643.000000	2.159929 
1642.000000	2.158617 
1641.000000	2.156805 
1640.000000	2.154517 
1639.000000	2.151894 
1638.000000	2.149105 
1637.000000	2.146315 
1636.000000	2.143692 
1635.000000	2.141332 
1634.000000	2.139258 
1633.000000	2.137374 
1632.000000	2.135586 
1631.000000	2.133679 
1630.000000	2.131485 
1629.000000	2.128863 
1628.000000	2.125740 
1627.000000	2.122020 
1626.000000	2.117657 
1625.000000	2.112722 
1624.000000	2.107119 
1623.000000	2.100920 
1622.000000	2.094125 
1621.000000	2.086663 
1620.000000	2.078604 
1619.000000	2.069902 
1618.000000	2.060651 
1617.000000	2.050948 
1616.000000	2.040910 
1615.000000	2.030706 
1614.000000	2.020525 
1613.000000	2.010631 
1612.000000	2.001333 
1611.000000	1.992940 
1610.000000	1.985764 
1609.000000	1.980042 
1608.000000	1.976037 
1607.000000	1.973819 
1606.000000	1.973438 
1605.000000	1.974630 
1604.000000	1.977181 
1603.000000	1.980829 
1602.000000	1.985216 
1601.000000	1.989936 
1600.000000	1.994776 
1599.000000	1.999497 
1598.000000	2.003860 
1597.000000	2.007818 
1596.000000	2.011203 
1595.000000	2.013969 
1594.000000	2.016067 
1593.000000	2.017498 
1592.000000	2.018260 
1591.000000	2.018427 
1590.000000	2.018070 
1589.000000	2.017235 
1588.000000	2.015972 
1587.000000	2.014350 
1586.000000	2.012395 
1585.000000	2.010154 
1584.000000	2.007555 
1583.000000	2.004742 
1582.000000	2.001667 
1581.000000	1.998448 
1580.000000	1.995277 
1579.000000	1.992297 
1578.000000	1.989674 
1577.000000	1.987528 
1576.000000	1.985931 
1575.000000	1.984834 
1574.000000	1.984143 
1573.000000	1.983690 
1572.000000	1.983261 
1571.000000	1.982617 
1570.000000	1.981544 
1569.000000	1.979708 
1568.000000	1.977014 
1567.000000	1.973319 
1566.000000	1.968622 
1565.000000	1.963043 
1564.000000	1.956820 
1563.000000	1.950430 
1562.000000	1.944303 
1561.000000	1.939010 
1560.000000	1.935124 
1559.000000	1.933026 
1558.000000	1.932811 
1557.000000	1.934456 
1556.000000	1.937651 
1555.000000	1.941919 
1554.000000	1.946687 
1553.000000	1.951336 
1552.000000	1.955413 
1551.000000	1.958513 
1550.000000	1.960492 
1549.000000	1.961302 
1548.000000	1.961135 
1547.000000	1.960396 
1546.000000	1.959514 
1545.000000	1.959061 
1544.000000	1.959657 
1543.000000	1.961851 
1542.000000	1.966094 
1541.000000	1.972651 
1540.000000	1.981544 
1539.000000	1.992487 
1538.000000	2.005195 
1537.000000	2.019000 
1536.000000	2.033281 
1535.000000	2.047371 
1534.000000	2.060723 
1533.000000	2.072858 
1532.000000	2.083373 
1531.000000	2.092194 
1530.000000	2.099323 
1529.000000	2.104711 
1528.000000	2.108478 
1527.000000	2.110886 
1526.000000	2.112197 
1525.000000	2.112627 
1524.000000	2.112412 
1523.000000	2.111816 
1522.000000	2.111077 
1521.000000	2.110290 
1520.000000	2.109503 
1519.000000	2.108693 
1518.000000	2.107834 
1517.000000	2.106785 
1516.000000	2.105402 
1515.000000	2.103519 
1514.000000	2.100968 
1513.000000	2.097678 
1512.000000	2.093553 
1511.000000	2.088403 
1510.000000	2.082252 
1509.000000	2.074694 
1508.000000	2.065443 
1507.000000	2.053737 
1506.000000	2.038860 
1505.000000	2.019906 
1504.000000	1.996159 
1503.000000	1.967144 
1502.000000	1.932883 
1501.000000	1.894164 
1500.000000	1.852464 
1499.000000	1.809954 
1498.000000	1.769185 
1497.000000	1.732969 
1496.000000	1.703882 
1495.000000	1.683926 
1494.000000	1.674175 
1493.000000	1.674914 
1492.000000	1.685523 
1491.000000	1.704454 
1490.000000	1.729702 
1489.000000	1.759099 
1488.000000	1.790523 
1487.000000	1.821875 
1486.000000	1.851701 
1485.000000	1.878714 
1484.000000	1.902294 
1483.000000	1.922059 
1482.000000	1.937961 
1481.000000	1.950240 
1480.000000	1.959156 
1479.000000	1.965379 
1478.000000	1.969408 
1477.000000	1.971840 
1476.000000	1.973032 
1475.000000	1.973485 
1474.000000	1.973509 
1473.000000	1.973152 
1472.000000	1.972413 
1471.000000	1.971292 
1470.000000	1.969599 
1469.000000	1.967120 
1468.000000	1.963663 
1467.000000	1.959061 
1466.000000	1.953148 
1465.000000	1.945638 
1464.000000	1.936340 
1463.000000	1.925158 
1462.000000	1.911973 
1461.000000	1.896762 
1460.000000	1.879811 
1459.000000	1.861429 
1458.000000	1.842355 
1457.000000	1.823449 
1456.000000	1.805520 
1455.000000	1.789712 
1454.000000	1.777029 
1453.000000	1.768302 
1452.000000	1.763987 
1451.000000	1.764202 
1450.000000	1.768732 
1449.000000	1.776909 
1448.000000	1.787710 
1447.000000	1.800036 
1446.000000	1.812767 
1445.000000	1.824760 
1444.000000	1.835250 
1443.000000	1.843738 
1442.000000	1.850128 
1441.000000	1.854634 
1440.000000	1.857566 
1439.000000	1.859474 
1438.000000	1.860737 
1437.000000	1.861834 
1436.000000	1.862907 
1435.000000	1.864075 
1434.000000	1.865220 
1433.000000	1.866316 
1432.000000	1.867222 
1431.000000	1.867842 
1430.000000	1.868104 
1429.000000	1.868081 
1428.000000	1.867723 
1427.000000	1.867127 
1426.000000	1.866173 
1425.000000	1.864981 
1424.000000	1.863527 
1423.000000	1.861739 
1422.000000	1.859688 
1421.000000	1.857399 
1420.000000	1.854872 
1419.000000	1.852154 
1418.000000	1.849126 
1417.000000	1.845693 
1416.000000	1.841640 
1415.000000	1.836681 
1414.000000	1.830554 
1413.000000	1.822972 
1412.000000	1.813840 
1411.000000	1.803183 
1410.000000	1.791334 
1409.000000	1.778721 
1408.000000	1.765942 
1407.000000	1.753854 
1406.000000	1.743102 
1405.000000	1.734423 
1404.000000	1.728320 
1403.000000	1.725077 
1402.000000	1.724672 
1401.000000	1.726961 
1400.000000	1.731538 
1399.000000	1.737904 
1398.000000	1.745486 
1397.000000	1.753735 
1396.000000	1.761960 
1395.000000	1.769733 
1394.000000	1.776528 
1393.000000	1.782035 
1392.000000	1.786017 
1391.000000	1.788353 
1390.000000	1.789140 
1389.000000	1.788687 
1388.000000	1.787400 
1387.000000	1.785778 
1386.000000	1.784396 
1385.000000	1.783704 
1384.000000	1.783919 
1383.000000	1.785206 
1382.000000	1.787471 
1381.000000	1.790428 
1380.000000	1.793766 
1379.000000	1.797127 
1378.000000	1.800346 
1377.000000	1.803207 
1376.000000	1.805639 
1375.000000	1.807713 
1374.000000	1.809525 
1373.000000	1.811099 
1372.000000	1.812553 
1371.000000	1.813840 
1370.000000	1.814985 
1369.000000	1.815986 
1368.000000	1.816725 
1367.000000	1.817274 
1366.000000	1.817560 
1365.000000	1.817679 
1364.000000	1.817679 
1363.000000	1.817584 
1362.000000	1.817417 
1361.000000	1.817202 
1360.000000	1.816987 
1359.000000	1.816773 
1358.000000	1.816558 
1357.000000	1.816344 
1356.000000	1.816153 
1355.000000	1.815962 
1354.000000	1.815772 
1353.000000	1.815533 
1352.000000	1.815247 
1351.000000	1.814913 
1350.000000	1.814603 
1349.000000	1.814270 
1348.000000	1.813960 
1347.000000	1.813626 
1346.000000	1.813387 
1345.000000	1.813220 
1344.000000	1.813125 
1343.000000	1.813149 
1342.000000	1.813435 
1341.000000	1.814031 
1340.000000	1.815032 
1339.000000	1.816511 
1338.000000	1.818537 
1337.000000	1.821017 
1336.000000	1.823949 
1335.000000	1.827192 
1334.000000	1.830554 
1333.000000	1.833868 
1332.000000	1.836967 
1331.000000	1.839685 
1330.000000	1.841998 
1329.000000	1.843857 
1328.000000	1.845312 
1327.000000	1.846456 
1326.000000	1.847338 
1325.000000	1.848101 
1324.000000	1.848840 
1323.000000	1.849603 
1322.000000	1.850414 
1321.000000	1.851320 
1320.000000	1.852250 
1319.000000	1.853251 
1318.000000	1.854205 
1317.000000	1.855111 
1316.000000	1.855874 
1315.000000	1.856470 
1314.000000	1.856923 
1313.000000	1.857209 
1312.000000	1.857328 
1311.000000	1.857352 
1310.000000	1.857256 
1309.000000	1.857089 
1308.000000	1.856899 
1307.000000	1.856660 
1306.000000	1.856422 
1305.000000	1.856160 
1304.000000	1.855826 
1303.000000	1.855492 
1302.000000	1.855182 
1301.000000	1.854872 
1300.000000	1.854634 
1299.000000	1.854491 
1298.000000	1.854467 
1297.000000	1.854467 
1296.000000	1.854515 
1295.000000	1.854610 
1294.000000	1.854658 
1293.000000	1.854610 
1292.000000	1.854467 
1291.000000	1.854205 
1290.000000	1.853847 
1289.000000	1.853418 
1288.000000	1.852917 
1287.000000	1.852345 
1286.000000	1.851677 
1285.000000	1.850891 
1284.000000	1.849913 
1283.000000	1.848721 
1282.000000	1.847267 
1281.000000	1.845455 
1280.000000	1.843285 
1279.000000	1.840710 
1278.000000	1.837658 
1277.000000	1.834106 
1276.000000	1.829838 
1275.000000	1.824855 
1274.000000	1.818990 
1273.000000	1.812028 
1272.000000	1.803898 
1271.000000	1.794600 
1270.000000	1.784229 
1269.000000	1.772952 
1268.000000	1.761221 
1267.000000	1.749491 
1266.000000	1.738429 
1265.000000	1.728749 
1264.000000	1.721096 
1263.000000	1.716017 
1262.000000	1.713919 
1261.000000	1.714920 
1260.000000	1.718997 
1259.000000	1.725745 
1258.000000	1.734638 
1257.000000	1.745033 
1256.000000	1.756238 
1255.000000	1.767563 
1254.000000	1.778435 
1253.000000	1.788473 
1252.000000	1.797413 
1251.000000	1.805210 
1250.000000	1.811838 
1249.000000	1.817393 
1248.000000	1.821994 
1247.000000	1.825785 
1246.000000	1.828861 
1245.000000	1.831221 
1244.000000	1.833033 
1243.000000	1.834249 
1242.000000	1.834964 
1241.000000	1.835227 
1240.000000	1.835083 
1239.000000	1.834559 
1238.000000	1.833796 
1237.000000	1.832818 
1236.000000	1.831722 
1235.000000	1.830554 
1234.000000	1.829385 
1233.000000	1.828193 
1232.000000	1.827073 
1231.000000	1.825952 
1230.000000	1.824808 
1229.000000	1.823568 
1228.000000	1.822185 
1227.000000	1.820564 
1226.000000	1.818609 
1225.000000	1.816368 
1224.000000	1.813769 
1223.000000	1.810717 
1222.000000	1.807284 
1221.000000	1.803469 
1220.000000	1.799321 
1219.000000	1.794791 
1218.000000	1.789927 
1217.000000	1.784801 
1216.000000	1.779508 
1215.000000	1.774120 
1214.000000	1.768803 
1213.000000	1.763677 
1212.000000	1.758933 
1211.000000	1.754665 
1210.000000	1.750969 
1209.000000	1.747894 
1208.000000	1.745462 
1207.000000	1.743674 
1206.000000	1.742458 
1205.000000	1.741790 
1204.000000	1.741600 
1203.000000	1.741838 
1202.000000	1.742386 
1201.000000	1.743173 
1200.000000	1.743984 
1199.000000	1.744771 
1198.000000	1.745343 
1197.000000	1.745581 
1196.000000	1.745390 
1195.000000	1.744771 
1194.000000	1.743650 
1193.000000	1.742124 
1192.000000	1.740312 
1191.000000	1.738214 
1190.000000	1.735973 
1189.000000	1.733660 
1188.000000	1.731204 
1187.000000	1.728701 
1186.000000	1.726126 
1185.000000	1.723480 
1184.000000	1.720762 
1183.000000	1.718020 
1182.000000	1.715254 
1181.000000	1.712489 
1180.000000	1.709771 
1179.000000	1.707100 
1178.000000	1.704502 
1177.000000	1.701951 
1176.000000	1.699304 
1175.000000	1.696586 
1174.000000	1.693630 
1173.000000	1.690459 
1172.000000	1.686930 
1171.000000	1.683020 
1170.000000	1.678776 
1169.000000	1.674199 
1168.000000	1.669359 
1167.000000	1.664304 
1166.000000	1.659154 
1165.000000	1.653933 
1164.000000	1.648807 
1163.000000	1.643753 
1162.000000	1.638936 
1161.000000	1.634407 
1160.000000	1.630210 
1159.000000	1.626372 
1158.000000	1.622939 
1157.000000	1.619935 
1156.000000	1.617383 
1155.000000	1.615214 
1154.000000	1.613473 
1153.000000	1.612043 
1152.000000	1.610875 
1151.000000	1.609826 
1150.000000	1.608848 
1149.000000	1.607799 
1148.000000	1.606607 
1147.000000	1.605224 
1146.000000	1.603603 
1145.000000	1.601743 
1144.000000	1.599597 
1143.000000	1.597189 
1142.000000	1.594519 
1141.000000	1.591634 
1140.000000	1.588511 
1139.000000	1.585173 
1138.000000	1.581645 
1137.000000	1.577973 
1136.000000	1.574134 
1135.000000	1.570224 
1134.000000	1.566171 
1133.000000	1.561975 
1132.000000	1.557731 
1131.000000	1.553368 
1130.000000	1.548862 
1129.000000	1.544284 
1128.000000	1.539611 
1127.000000	1.534843 
1126.000000	1.529979 
1125.000000	1.525068 
1124.000000	1.520061 
1123.000000	1.515030 
1122.000000	1.509904 
1121.000000	1.504731 
1120.000000	1.499509 
1119.000000	1.494216 
1118.000000	1.488924 
1117.000000	1.483607 
1116.000000	1.478290 
1115.000000	1.473093 
1114.000000	1.468014 
1113.000000	1.463079 
1112.000000	1.458311 
1111.000000	1.453828 
1110.000000	1.449656 
1109.000000	1.445817 
1108.000000	1.442337 
1107.000000	1.439261 
1106.000000	1.436567 
1105.000000	1.434302 
1104.000000	1.432394 
1103.000000	1.430821 
1102.000000	1.429605 
1101.000000	1.428651 
1100.000000	1.427936 
1099.000000	1.427435 
1098.000000	1.427125 
1097.000000	1.426959 
1096.000000	1.426863 
1095.000000	1.426839 
1094.000000	1.426911 
1093.000000	1.427054 
1092.000000	1.427292 
1091.000000	1.427674 
1090.000000	1.428198 
1089.000000	1.428818 
1088.000000	1.429462 
1087.000000	1.430130 
1086.000000	1.430559 
1085.000000	1.430702 
1084.000000	1.430511 
1083.000000	1.429939 
1082.000000	1.429128 
1081.000000	1.428151 
1080.000000	1.427197 
1079.000000	1.426482 
1078.000000	1.426148 
1077.000000	1.426267 
1076.000000	1.426935 
1075.000000	1.428031 
1074.000000	1.429510 
1073.000000	1.431202 
1072.000000	1.432967 
1071.000000	1.434659 
1070.000000	1.436161 
1069.000000	1.437401 
1068.000000	1.438355 
1067.000000	1.438999 
1066.000000	1.439237 
1065.000000	1.439046 
1064.000000	1.438140 
1063.000000	1.436352 
1062.000000	1.433253 
1061.000000	1.428437 
1060.000000	1.421546 
1059.000000	1.412320 
1058.000000	1.400589 
1057.000000	1.386642 
1056.000000	1.371049 
1055.000000	1.354718 
1054.000000	1.338839 
1053.000000	1.324629 
1052.000000	1.313328 
1051.000000	1.305818 
1050.000000	1.302671 
1049.000000	1.303911 
1048.000000	1.309108 
1047.000000	1.317381 
1046.000000	1.327681 
1045.000000	1.338815 
1044.000000	1.349735 
1043.000000	1.359605 
1042.000000	1.367926 
1041.000000	1.374459 
1040.000000	1.379227 
1039.000000	1.382398 
1038.000000	1.384258 
1037.000000	1.385068 
1036.000000	1.385092 
1035.000000	1.384449 
1034.000000	1.383352 
1033.000000	1.381826 
1032.000000	1.379966 
1031.000000	1.377844 
1030.000000	1.375579 
1029.000000	1.373291 
1028.000000	1.371073 
1027.000000	1.369118 
1026.000000	1.367449 
1025.000000	1.366162 
1024.000000	1.365303 
1023.000000	1.364874 
1022.000000	1.364803 
1021.000000	1.365089 
1020.000000	1.365637 
1019.000000	1.366472 
1018.000000	1.367497 
1017.000000	1.368761 
1016.000000	1.370215 
1015.000000	1.371860 
1014.000000	1.373744 
1013.000000	1.375889 
1012.000000	1.378178 
1011.000000	1.380562 
1010.000000	1.382994 
1009.000000	1.385426 
1008.000000	1.387810 
1007.000000	1.390004 
1006.000000	1.392054 
1005.000000	1.393938 
1004.000000	1.395654 
1003.000000	1.397156 
1002.000000	1.398491 
1001.000000	1.399588 
1000.000000	1.400351 
999.000000	 1.400756 
998.000000	 1.400780 
997.000000	 1.400351 
996.000000	 1.399517 
995.000000	 1.398324 
994.000000	 1.396942 
993.000000	 1.395392 
992.000000	 1.393795 
991.000000	 1.392292 
990.000000	 1.390910 
989.000000	 1.389670 
988.000000	 1.388525 
987.000000	 1.387405 
986.000000	 1.386260 
985.000000	 1.384997 
984.000000	 1.383543 
983.000000	 1.381921 
982.000000	 1.380109 
981.000000	 1.378130 
980.000000	 1.376032 
979.000000	 1.373791 
978.000000	 1.371479 
977.000000	 1.369047 
976.000000	 1.366400 
975.000000	 1.363635 
974.000000	 1.360678 
973.000000	 1.357507 
972.000000	 1.354193 
971.000000	 1.350831 
970.000000	 1.347541 
969.000000	 1.344370 
968.000000	 1.341438 
967.000000	 1.338601 
966.000000	 1.335883 
965.000000	 1.333022 
964.000000	 1.329922 
963.000000	 1.326394 
962.000000	 1.322388 
961.000000	 1.317906 
960.000000	 1.313114 
959.000000	 1.308202 
958.000000	 1.303362 
957.000000	 1.298761 
956.000000	 1.294541 
955.000000	 1.290774 
954.000000	 1.287412 
953.000000	 1.284360 
952.000000	 1.281499 
951.000000	 1.278686 
950.000000	 1.275897 
949.000000	 1.273059 
948.000000	 1.270270 
947.000000	 1.267504 
946.000000	 1.264905 
945.000000	 1.262497 
944.000000	 1.260352 
943.000000	 1.258468 
942.000000	 1.256823 
941.000000	 1.255464 
940.000000	 1.254224 
939.000000	 1.253104 
938.000000	 1.251959 
937.000000	 1.250696 
936.000000	 1.249289 
935.000000	 1.247644 
934.000000	 1.245760 
933.000000	 1.243638 
932.000000	 1.241350 
931.000000	 1.238894 
930.000000	 1.236343 
929.000000	 1.233720 
928.000000	 1.231098 
927.000000	 1.228475 
926.000000	 1.225852 
925.000000	 1.223254 
924.000000	 1.220679 
923.000000	 1.218152 
922.000000	 1.215624 
921.000000	 1.213073 
920.000000	 1.210427 
919.000000	 1.207661 
918.000000	 1.204705 
917.000000	 1.201486 
916.000000	 1.198005 
915.000000	 1.194238 
914.000000	 1.190257 
913.000000	 1.186180 
912.000000	 1.182079 
911.000000	 1.178073 
910.000000	 1.174259 
909.000000	 1.170730 
908.000000	 1.167488 
907.000000	 1.164531 
906.000000	 1.161885 
905.000000	 1.159477 
904.000000	 1.157331 
903.000000	 1.155352 
902.000000	 1.153516 
901.000000	 1.151800 
900.000000	 1.150178 
899.000000	 1.148605 
898.000000	 1.147007 
897.000000	 1.145386 
896.000000	 1.143693 
895.000000	 1.141810 
894.000000	 1.139688 
893.000000	 1.137256 
892.000000	 1.134347 
891.000000	 1.130890 
890.000000	 1.126670 
889.000000	 1.121664 
888.000000	 1.115727 
887.000000	 1.108837 
886.000000	 1.101064 
885.000000	 1.092505 
884.000000	 1.083374 
883.000000	 1.073956 
882.000000	 1.064610 
881.000000	 1.055598 
880.000000	 1.047372 
879.000000	 1.040196 
878.000000	 1.034402 
877.000000	 1.030182 
876.000000	 1.027727 
875.000000	 1.027107 
874.000000	 1.028227 
873.000000	 1.030945 
872.000000	 1.035094 
871.000000	 1.040339 
870.000000	 1.046371 
869.000000	 1.052832 
868.000000	 1.059341 
867.000000	 1.065683 
866.000000	 1.071596 
865.000000	 1.076817 
864.000000	 1.081347 
863.000000	 1.085138 
862.000000	 1.088190 
861.000000	 1.090478 
860.000000	 1.092147 
859.000000	 1.093268 
858.000000	 1.093864 
857.000000	 1.093935 
856.000000	 1.093530 
855.000000	 1.092672 
854.000000	 1.091456 
853.000000	 1.089859 
852.000000	 1.087999 
851.000000	 1.085901 
850.000000	 1.083731 
849.000000	 1.081562 
848.000000	 1.079416 
847.000000	 1.077270 
846.000000	 1.075100 
845.000000	 1.072883 
844.000000	 1.070451 
843.000000	 1.067638 
842.000000	 1.064300 
841.000000	 1.060247 
840.000000	 1.055312 
839.000000	 1.049232 
838.000000	 1.041793 
837.000000	 1.032757 
836.000000	 1.021957 
835.000000	 1.009178 
834.000000	 0.994348 
833.000000	 0.977611 
832.000000	 0.959253 
831.000000	 0.939726 
830.000000	 0.919842 
829.000000	 0.900483 
828.000000	 0.882697 
827.000000	 0.867509 
826.000000	 0.855851 
825.000000	 0.848388 
824.000000	 0.845432 
823.000000	 0.846910 
822.000000	 0.852370 
821.000000	 0.861048 
820.000000	 0.871968 
819.000000	 0.884103 
818.000000	 0.896382 
817.000000	 0.908041 
816.000000	 0.918364 
815.000000	 0.927090 
814.000000	 0.934028 
813.000000	 0.939297 
812.000000	 0.943017 
811.000000	 0.945520 
810.000000	 0.947022 
809.000000	 0.947666 
808.000000	 0.947737 
807.000000	 0.947403 
806.000000	 0.946760 
805.000000	 0.945997 
804.000000	 0.945234 
803.000000	 0.944662 
802.000000	 0.944352 
801.000000	 0.944375 
800.000000	 0.944876 
799.000000	 0.945901 
798.000000	 0.947356 
797.000000	 0.949263 
796.000000	 0.951528 
795.000000	 0.954031 
794.000000	 0.956749 
793.000000	 0.959444 
792.000000	 0.962138 
791.000000	 0.964736 
790.000000	 0.967192 
789.000000	 0.969457 
788.000000	 0.971484 
787.000000	 0.973272 
786.000000	 0.974798 
785.000000	 0.975990 
784.000000	 0.976872 
783.000000	 0.977420 
782.000000	 0.977706 
781.000000	 0.977730 
780.000000	 0.977563 
779.000000	 0.977182 
778.000000	 0.976753 
777.000000	 0.976252 
776.000000	 0.975680 
775.000000	 0.975108 
774.000000	 0.974488 
773.000000	 0.973796 
772.000000	 0.973105 
771.000000	 0.972342 
770.000000	 0.971555 
769.000000	 0.970721 
768.000000	 0.969839 
767.000000	 0.968909 
766.000000	 0.967955 
765.000000	 0.966978 
764.000000	 0.966000 
763.000000	 0.965070 
762.000000	 0.964188 
761.000000	 0.963330 
760.000000	 0.962495 
759.000000	 0.961709 
758.000000	 0.960898 
757.000000	 0.960063 
756.000000	 0.959181 
755.000000	 0.958228 
754.000000	 0.957179 
753.000000	 0.956082 
752.000000	 0.954937 
751.000000	 0.953722 
750.000000	 0.952363 
749.000000	 0.950860 
748.000000	 0.949168 
747.000000	 0.947308 
746.000000	 0.945234 
745.000000	 0.943064 
744.000000	 0.940871 
743.000000	 0.938749 
742.000000	 0.936770 
741.000000	 0.934982 
740.000000	 0.933408 
739.000000	 0.931906 
738.000000	 0.930428 
737.000000	 0.928831 
736.000000	 0.927042 
735.000000	 0.924921 
734.000000	 0.922465 
733.000000	 0.919747 
732.000000	 0.916719 
731.000000	 0.913548 
730.000000	 0.910234 
729.000000	 0.906872 
728.000000	 0.903511 
727.000000	 0.900125 
726.000000	 0.896739 
725.000000	 0.893425 
724.000000	 0.890135 
723.000000	 0.886845 
722.000000	 0.883603 
721.000000	 0.880432 
720.000000	 0.877404 
719.000000	 0.874471 
718.000000	 0.871682 
717.000000	 0.869035 
716.000000	 0.866460 
715.000000	 0.863981 
714.000000	 0.861525 
713.000000	 0.859093 
712.000000	 0.856614 
711.000000	 0.854134 
710.000000	 0.851583 
709.000000	 0.848865 
708.000000	 0.846076 
707.000000	 0.843048 
706.000000	 0.839781 
705.000000	 0.836205 
704.000000	 0.832319 
703.000000	 0.828075 
702.000000	 0.823593 
701.000000	 0.818800 
700.000000	 0.813770 
699.000000	 0.808477 
698.000000	 0.802826 
697.000000	 0.796818 
696.000000	 0.790381 
695.000000	 0.783467 
694.000000	 0.776100 
693.000000	 0.768446 
692.000000	 0.760769 
691.000000	 0.753378 
690.000000	 0.746679 
689.000000	 0.740981 
688.000000	 0.736594 
687.000000	 0.733566 
686.000000	 0.731897 
685.000000	 0.731396 
684.000000	 0.731706 
683.000000	 0.732493 
682.000000	 0.733375 
681.000000	 0.734090 
680.000000	 0.734496 
679.000000	 0.734448 
678.000000	 0.734019 
677.000000	 0.733184 
676.000000	 0.732064 
675.000000	 0.730681 
674.000000	 0.729107 
673.000000	 0.727367 
672.000000	 0.725460 
671.000000	 0.723481 
670.000000	 0.721383 
669.000000	 0.719308 
668.000000	 0.717258 
667.000000	 0.715279 
666.000000	 0.713372 
665.000000	 0.711512 
664.000000	 0.709700 
663.000000	 0.707769 
662.000000	 0.705790 
661.000000	 0.703620 
660.000000	 0.701236 
659.000000	 0.698661 
658.000000	 0.695919 
657.000000	 0.693058 
656.000000	 0.690102 
655.000000	 0.687098 
654.000000	 0.684094 
653.000000	 0.681090 
652.000000	 0.678110 
651.000000	 0.675129 
650.000000	 0.672221 
649.000000	 0.669336 
648.000000	 0.666475 
647.000000	 0.663685 
646.000000	 0.660967 
645.000000	 0.658321 
644.000000	 0.655722 
643.000000	 0.653219 
642.000000	 0.650811 
641.000000	 0.648403 
640.000000	 0.646042 
639.000000	 0.643658 
638.000000	 0.641274 
637.000000	 0.638794 
636.000000	 0.636267 
635.000000	 0.633621 
634.000000	 0.630879 
633.000000	 0.628066 
632.000000	 0.625205 
631.000000	 0.622344 
630.000000	 0.619506 
629.000000	 0.616717 
628.000000	 0.614070 
627.000000	 0.611448 
626.000000	 0.608992 
625.000000	 0.606608 
624.000000	 0.604271 
623.000000	 0.601887 
622.000000	 0.599455 
621.000000	 0.596880 
620.000000	 0.594115 
619.000000	 0.591111 
618.000000	 0.587821 
617.000000	 0.584197 
616.000000	 0.580167 
615.000000	 0.575661 
614.000000	 0.570750 
613.000000	 0.565409 
612.000000	 0.559735 
611.000000	 0.553822 
610.000000	 0.547933 
609.000000	 0.542211 
608.000000	 0.536894 
607.000000	 0.532221 
606.000000	 0.528359 
605.000000	 0.525403 
604.000000	 0.523376 
603.000000	 0.522208 
602.000000	 0.521779 
601.000000	 0.521874 
600.000000	 0.522279 
599.000000	 0.522828 
598.000000	 0.523304 
597.000000	 0.523591 
596.000000	 0.523519 
595.000000	 0.523138 
594.000000	 0.522375 
593.000000	 0.521254 
592.000000	 0.519847 
591.000000	 0.518250 
590.000000	 0.516510 
589.000000	 0.514698 
588.000000	 0.512933 
587.000000	 0.511240 
586.000000	 0.509691 
585.000000	 0.508284 
584.000000	 0.506949 
583.000000	 0.505781 
582.000000	 0.504732 
581.000000	 0.503778 
580.000000	 0.502967 
579.000000	 0.502228 
578.000000	 0.501561 
577.000000	 0.501012 
576.000000	 0.500535 
575.000000	 0.500035 
574.000000	 0.499463 
573.000000	 0.498819 
572.000000	 0.497961 
571.000000	 0.497007 
570.000000	 0.495791 
569.000000	 0.494432 
568.000000	 0.492906 
567.000000	 0.491261 
566.000000	 0.489592 
565.000000	 0.487852 
564.000000	 0.486183 
563.000000	 0.484538 
562.000000	 0.482964 
561.000000	 0.481390 
560.000000	 0.479865 
559.000000	 0.478363 
558.000000	 0.476861 
557.000000	 0.475287 
556.000000	 0.473642 
555.000000	 0.471949 
554.000000	 0.470161 
553.000000	 0.468301 
552.000000	 0.466442 
551.000000	 0.464534 
550.000000	 0.462603 
549.000000	 0.460672 
548.000000	 0.458812 
547.000000	 0.456976 
546.000000	 0.455260 
545.000000	 0.453591 
544.000000	 0.451946 
543.000000	 0.450372 
542.000000	 0.448727 
541.000000	 0.447106 
540.000000	 0.445413 
539.000000	 0.443696 
538.000000	 0.441908 
537.000000	 0.440073 
536.000000	 0.438189 
535.000000	 0.436234 
534.000000	 0.434207 
533.000000	 0.432085 
532.000000	 0.429868 
531.000000	 0.427532 
530.000000	 0.425124 
529.000000	 0.422644 
528.000000	 0.420141 
527.000000	 0.417637 
526.000000	 0.415205 
525.000000	 0.412821 
524.000000	 0.410437 
523.000000	 0.408077 
522.000000	 0.405645 
521.000000	 0.403189 
520.000000	 0.400638 
519.000000	 0.398015 
518.000000	 0.395321 
517.000000	 0.392651 
516.000000	 0.390028 
515.000000	 0.387501 
514.000000	 0.385069 
513.000000	 0.382733 
512.000000	 0.380492 
511.000000	 0.378227 
510.000000	 0.375986 
509.000000	 0.373673 
508.000000	 0.371313 
507.000000	 0.368881 
506.000000	 0.366330 
505.000000	 0.363683 
504.000000	 0.360965 
503.000000	 0.358152 
502.000000	 0.355267 
501.000000	 0.352287 
500.000000	 0.349187 
499.000000	 0.345993 
498.000000	 0.342679 
497.000000	 0.339245 
496.000000	 0.335669 
495.000000	 0.331997 
494.000000	 0.328254 
493.000000	 0.324487 
492.000000	 0.320672 
491.000000	 0.316858 
490.000000	 0.313043 
489.000000	 0.309181 
488.000000	 0.305342 
487.000000	 0.301504 
486.000000	 0.297665 
485.000000	 0.293803 
484.000000	 0.289940 
483.000000	 0.286149 
482.000000	 0.282359 
481.000000	 0.278687 
480.000000	 0.275087 
479.000000	 0.271654 
478.000000	 0.268363 
477.000000	 0.265264 
476.000000	 0.262308 
475.000000	 0.259518 
474.000000	 0.256896 
473.000000	 0.254440 
472.000000	 0.252056 
471.000000	 0.249671 
470.000000	 0.247263 
469.000000	 0.244688 
468.000000	 0.241971 
467.000000	 0.238966 
466.000000	 0.235748 
465.000000	 0.232267 
464.000000	 0.228500 
463.000000	 0.224542 
462.000000	 0.220346 
461.000000	 0.216031 
460.000000	 0.211620 
459.000000	 0.207185 
458.000000	 0.202751 
457.000000	 0.198435 
456.000000	 0.194239 
455.000000	 0.190210 
454.000000	 0.186443 
453.000000	 0.182986 
452.000000	 0.179791 
451.000000	 0.176858 
450.000000	 0.174236 
449.000000	 0.171852 
448.000000	 0.169634 
447.000000	 0.167560 
446.000000	 0.165534 
445.000000	 0.163435 
444.000000	 0.161194 
443.000000	 0.158810 
442.000000	 0.156188 
441.000000	 0.153374 
440.000000	 0.150370 
439.000000	 0.147175 
438.000000	 0.143957 
437.000000	 0.140714 
436.000000	 0.137543 
435.000000	 0.134420 
434.000000	 0.131344 
433.000000	 0.128388 
432.000000	 0.125479 
431.000000	 0.122642 
430.000000	 0.119805 
429.000000	 0.117039 
428.000000	 0.114297 
427.000000	 0.111603 
426.000000	 0.108933 
425.000000	 0.106215 
424.000000	 0.103425 
423.000000	 0.100493 
422.000000	 0.097465 
421.000000	 0.094270 
420.000000	 0.090956 
419.000000	 0.087594 
418.000000	 0.084280 
417.000000	 0.081038 
416.000000	 0.077939 
415.000000	 0.075030 
414.000000	 0.072264 
413.000000	 0.069665 
412.000000	 0.067162 
411.000000	 0.064778 
410.000000	 0.062370 
409.000000	 0.059962 
408.000000	 0.057482 
407.000000	 0.054979 
406.000000	 0.052452 
405.000000	 0.049901 
404.000000	 0.047397 
403.000000	 0.045013 
402.000000	 0.042772 
401.000000	 0.040769 
400.000000	 0.038981 
399.000000	 0.037455 
398.000000	 0.036191 
397.000000	 0.035095 
396.000000	 0.034165 
395.000000	 0.033354 
394.000000	 0.032520 
393.000000	 0.031638 
392.000000	 0.030612 
391.000000	 0.029420 
390.000000	 0.028038 
389.000000	 0.026440 
388.000000	 0.024700 
387.000000	 0.022864 
386.000000	 0.021004 
385.000000	 0.019216 
384.000000	 0.017571 
383.000000	 0.016117 
382.000000	 0.014925 
381.000000	 0.013947 
380.000000	 0.013232 
379.000000	 0.012660 
378.000000	 0.012207 
377.000000	 0.011825 
376.000000	 0.011491 
375.000000	 0.011110 
374.000000	 0.010752 
373.000000	 0.010323 
372.000000	 0.009822 
371.000000	 0.009322 
370.000000	 0.008773 

