PE IR       SPECTRUM    SPECTRUM    ASCII       PEDS        1.60        
  -1
C-498C~1.ASC
17/03/27
23:01:15.00
17/03/27
23:01:15.00
tln
$C-4040-8_t0104$<tbV0>[2.6,10.4,8.0,0.0,27,1,0]
370.000000
64









2002,4.07    
MIRTGS : RIGHTBACK : INTERNAL 2
MIR : ON : INTERNAL 2
OPTKBR

0.200000
8
8.000000
FILLER
RATIO
SPECTRUM
UNLOCKED 256

DOUBLE
64
COMBINED
1
0
0


1.000000
RATIO


1
0
TRUE
51149
0
LEFT NOT FITTED RIGHT NOT FITTED 0
NONE
NONE
15600
12.000000
4.427000
51148
TRUE
1 0 8 72 0 0 0 0 

15798.010000






#HDR
-1
-1
#GR
CM-1
%T
0.00002384185791015625
0.0
5000.000000
-1.000000
4631
8
199.999976
53.378057
#DATA
5000.000000	65.286636  
4999.000000	65.296745  
4998.000000	65.294909  
4997.000000	65.278720  
4996.000000	65.248584  
4995.000000	65.207934  
4994.000000	65.162253  
4993.000000	65.118145  
4992.000000	65.081000  
4991.000000	65.054202  
4990.000000	65.037083  
4989.000000	65.025520  
4988.000000	65.011978  
4987.000000	64.987897  
4986.000000	64.945268  
4985.000000	64.878845  
4984.000000	64.788818  
4983.000000	64.681410  
4982.000000	64.568018  
4981.000000	64.463067  
4980.000000	64.380478  
4979.000000	64.331221  
4978.000000	64.320683  
4977.000000	64.348387  
4976.000000	64.408636  
4975.000000	64.492630  
4974.000000	64.590406  
4973.000000	64.693117  
4972.000000	64.793682  
4971.000000	64.887928  
4970.000000	64.972877  
4969.000000	65.047454  
4968.000000	65.111136  
4967.000000	65.163874  
4966.000000	65.206193  
4965.000000	65.238094  
4964.000000	65.260553  
4963.000000	65.273451  
4962.000000	65.277266  
4961.000000	65.270495  
4960.000000	65.250730  
4959.000000	65.215063  
4958.000000	65.161681  
4957.000000	65.091323  
4956.000000	65.008473  
4955.000000	64.921903  
4954.000000	64.843368  
4953.000000	64.784812  
4952.000000	64.755463  
4951.000000	64.759087  
4950.000000	64.793157  
4949.000000	64.848709  
4948.000000	64.912962  
4947.000000	64.972615  
4946.000000	65.016770  
4945.000000	65.039181  
4944.000000	65.039086  
4943.000000	65.020322  
4942.000000	64.989447  
4941.000000	64.953351  
4940.000000	64.917182  
4939.000000	64.882493  
4938.000000	64.848279  
4937.000000	64.812374  
4936.000000	64.773035  
4935.000000	64.730715  
4934.000000	64.688444  
4933.000000	64.651823  
4932.000000	64.627361  
4931.000000	64.620447  
4930.000000	64.634108  
4929.000000	64.667558  
4928.000000	64.716529  
4927.000000	64.773702  
4926.000000	64.830446  
4925.000000	64.878892  
4924.000000	64.913201  
4923.000000	64.931511  
4922.000000	64.935874  
4921.000000	64.932203  
4920.000000	64.928436  
4919.000000	64.932823  
4918.000000	64.952349  
4917.000000	64.990162  
4916.000000	65.045690  
4915.000000	65.113353  
4914.000000	65.184426  
4913.000000	65.248346  
4912.000000	65.295124  
4911.000000	65.317940  
4910.000000	65.314435  
4909.000000	65.287661  
4908.000000	65.245246  
4907.000000	65.197467  
4906.000000	65.154719  
4905.000000	65.125179  
4904.000000	65.113425  
4903.000000	65.118980  
4902.000000	65.136981  
4901.000000	65.160346  
4900.000000	65.181779  
4899.000000	65.194702  
4898.000000	65.194702  
4897.000000	65.179586  
4896.000000	65.149593  
4895.000000	65.106749  
4894.000000	65.054821  
4893.000000	64.997076  
4892.000000	64.937949  
4891.000000	64.882779  
4890.000000	64.837837  
4889.000000	64.809727  
4888.000000	64.803719  
4887.000000	64.823222  
4886.000000	64.867496  
4885.000000	64.930891  
4884.000000	65.003442  
4883.000000	65.071630  
4882.000000	65.122747  
4881.000000	65.146780  
4880.000000	65.141487  
4879.000000	65.112614  
4878.000000	65.074825  
4877.000000	65.047883  
4876.000000	65.052461  
4875.000000	65.104126  
4874.000000	65.209174  
4873.000000	65.361285  
4872.000000	65.542244  
4871.000000	65.724802  
4870.000000	65.878319  
4869.000000	65.975403  
4868.000000	65.998744  
4867.000000	65.944123  
4866.000000	65.821146  
4865.000000	65.650248  
4864.000000	65.457630  
4863.000000	65.269708  
4862.000000	65.107703  
4861.000000	64.985108  
4860.000000	64.906930  
4859.000000	64.871239  
4858.000000	64.872479  
4857.000000	64.903688  
4856.000000	64.958548  
4855.000000	65.032720  
4854.000000	65.122461  
4853.000000	65.224862  
4852.000000	65.335607  
4851.000000	65.448975  
4850.000000	65.556550  
4849.000000	65.648770  
4848.000000	65.715670  
4847.000000	65.748310  
4846.000000	65.740251  
4845.000000	65.687966  
4844.000000	65.591692  
4843.000000	65.455794  
4842.000000	65.288567  
4841.000000	65.102171  
4840.000000	64.911365  
4839.000000	64.732241  
4838.000000	64.579868  
4837.000000	64.466190  
4836.000000	64.398479  
4835.000000	64.377188  
4834.000000	64.397954  
4833.000000	64.450979  
4832.000000	64.525580  
4831.000000	64.610719  
4830.000000	64.698767  
4829.000000	64.784526  
4828.000000	64.866662  
4827.000000	64.945340  
4826.000000	65.021443  
4825.000000	65.094780  
4824.000000	65.162992  
4823.000000	65.221381  
4822.000000	65.264534  
4821.000000	65.287804  
4820.000000	65.288853  
4819.000000	65.268659  
4818.000000	65.231251  
4817.000000	65.183377  
4816.000000	65.133142  
4815.000000	65.088891  
4814.000000	65.057516  
4813.000000	65.043735  
4812.000000	65.050387  
4811.000000	65.077495  
4810.000000	65.122795  
4809.000000	65.181398  
4808.000000	65.247130  
4807.000000	65.312576  
4806.000000	65.369629  
4805.000000	65.411090  
4804.000000	65.431356  
4803.000000	65.427780  
4802.000000	65.400886  
4801.000000	65.354108  
4800.000000	65.293240  
4799.000000	65.224719  
4798.000000	65.154671  
4797.000000	65.087604  
4796.000000	65.026283  
4795.000000	64.972853  
4794.000000	64.929866  
4793.000000	64.900946  
4792.000000	64.890766  
4791.000000	64.904642  
4790.000000	64.946842  
4789.000000	65.018343  
4788.000000	65.115118  
4787.000000	65.227651  
4786.000000	65.341567  
4785.000000	65.440154  
4784.000000	65.507507  
4783.000000	65.532064  
4782.000000	65.508985  
4781.000000	65.441989  
4780.000000	65.341997  
4779.000000	65.224719  
4778.000000	65.107512  
4777.000000	65.005731  
4776.000000	64.930582  
4775.000000	64.888262  
4774.000000	64.879345  
4773.000000	64.900422  
4772.000000	64.944720  
4771.000000	65.004253  
4770.000000	65.070462  
4769.000000	65.135359  
4768.000000	65.192222  
4767.000000	65.235924  
4766.000000	65.263748  
4765.000000	65.275287  
4764.000000	65.272116  
4763.000000	65.256977  
4762.000000	65.234136  
4761.000000	65.208101  
4760.000000	65.183305  
4759.000000	65.162873  
4758.000000	65.148949  
4757.000000	65.142035  
4756.000000	65.141463  
4755.000000	65.145516  
4754.000000	65.152263  
4753.000000	65.159726  
4752.000000	65.166711  
4751.000000	65.172362  
4750.000000	65.175986  
4749.000000	65.177035  
4748.000000	65.174603  
4747.000000	65.168023  
4746.000000	65.156602  
4745.000000	65.140461  
4744.000000	65.120244  
4743.000000	65.098285  
4742.000000	65.078163  
4741.000000	65.064764  
4740.000000	65.063428  
4739.000000	65.078282  
4738.000000	65.111112  
4737.000000	65.160655  
4736.000000	65.222644  
4735.000000	65.289807  
4734.000000	65.353727  
4733.000000	65.407085  
4732.000000	65.445327  
4731.000000	65.468096  
4730.000000	65.478706  
4729.000000	65.483045  
4728.000000	65.487217  
4727.000000	65.496301  
4726.000000	65.511727  
4725.000000	65.531229  
4724.000000	65.548896  
4723.000000	65.557670  
4722.000000	65.550923  
4721.000000	65.525269  
4720.000000	65.481424  
4719.000000	65.424656  
4718.000000	65.363287  
4717.000000	65.306901  
4716.000000	65.263390  
4715.000000	65.237069  
4714.000000	65.227460  
4713.000000	65.229487  
4712.000000	65.234947  
4711.000000	65.234851  
4710.000000	65.221619  
4709.000000	65.191435  
4708.000000	65.144634  
4707.000000	65.086412  
4706.000000	65.025496  
4705.000000	64.972639  
4704.000000	64.937400  
4703.000000	64.926457  
4702.000000	64.942288  
4701.000000	64.982104  
4700.000000	65.038967  
4699.000000	65.103054  
4698.000000	65.163993  
4697.000000	65.212726  
4696.000000	65.243315  
4695.000000	65.253424  
4694.000000	65.243649  
4693.000000	65.217471  
4692.000000	65.179610  
4691.000000	65.135574  
4690.000000	65.090632  
4689.000000	65.049529  
4688.000000	65.016126  
4687.000000	64.993262  
4686.000000	64.982485  
4685.000000	64.984202  
4684.000000	64.997553  
4683.000000	65.019702  
4682.000000	65.046572  
4681.000000	65.073132  
4680.000000	65.094685  
4679.000000	65.106964  
4678.000000	65.107893  
4677.000000	65.097332  
4676.000000	65.078043  
4675.000000	65.054273  
4674.000000	65.031504  
4673.000000	65.015244  
4672.000000	65.010213  
4671.000000	65.019893  
4670.000000	65.045475  
4669.000000	65.086126  
4668.000000	65.138339  
4667.000000	65.197181  
4666.000000	65.255928  
4665.000000	65.307211  
4664.000000	65.344524  
4663.000000	65.363407  
4662.000000	65.362238  
4661.000000	65.342640  
4660.000000	65.308976  
4659.000000	65.267682  
4658.000000	65.226340  
4657.000000	65.192461  
4656.000000	65.172481  
4655.000000	65.170550  
4654.000000	65.188765  
4653.000000	65.226531  
4652.000000	65.281057  
4651.000000	65.347051  
4650.000000	65.417981  
4649.000000	65.486097  
4648.000000	65.543341  
4647.000000	65.582180  
4646.000000	65.596938  
4645.000000	65.584468  
4644.000000	65.544700  
4643.000000	65.480685  
4642.000000	65.398693  
4641.000000	65.306186  
4640.000000	65.211057  
4639.000000	65.120100  
4638.000000	65.038275  
4637.000000	64.969038  
4636.000000	64.914774  
4635.000000	64.877128  
4634.000000	64.857196  
4633.000000	64.856338  
4632.000000	64.875602  
4631.000000	64.914584  
4630.000000	64.970707  
4629.000000	65.039014  
4628.000000	65.112900  
4627.000000	65.184450  
4626.000000	65.246558  
4625.000000	65.294098  
4624.000000	65.325593  
4623.000000	65.343332  
4622.000000	65.352988  
4621.000000	65.361666  
4620.000000	65.376067  
4619.000000	65.400719  
4618.000000	65.436673  
4617.000000	65.481972  
4616.000000	65.531396  
4615.000000	65.579080  
4614.000000	65.618228  
4613.000000	65.643811  
4612.000000	65.652084  
4611.000000	65.641880  
4610.000000	65.613603  
4609.000000	65.569210  
4608.000000	65.511512  
4607.000000	65.443992  
4606.000000	65.369868  
4605.000000	65.292239  
4604.000000	65.214204  
4603.000000	65.139389  
4602.000000	65.071773  
4601.000000	65.016031  
4600.000000	64.976429  
4599.000000	64.956927  
4598.000000	64.959883  
4597.000000	64.986157  
4596.000000	65.033268  
4595.000000	65.096497  
4594.000000	65.169191  
4593.000000	65.243911  
4592.000000	65.313267  
4591.000000	65.371251  
4590.000000	65.414094  
4589.000000	65.440416  
4588.000000	65.451288  
4587.000000	65.448760  
4586.000000	65.435171  
4585.000000	65.412116  
4584.000000	65.380573  
4583.000000	65.340948  
4582.000000	65.294003  
4581.000000	65.241670  
4580.000000	65.187764  
4579.000000	65.137362  
4578.000000	65.096068  
4577.000000	65.068840  
4576.000000	65.059018  
4575.000000	65.066719  
4574.000000	65.088844  
4573.000000	65.119647  
4572.000000	65.152001  
4571.000000	65.178561  
4570.000000	65.193891  
4569.000000	65.195202  
4568.000000	65.183615  
4567.000000	65.163540  
4566.000000	65.141844  
4565.000000	65.125417  
4564.000000	65.120005  
4563.000000	65.128445  
4562.000000	65.149903  
4561.000000	65.180325  
4560.000000	65.213537  
4559.000000	65.243029  
4558.000000	65.263986  
4557.000000	65.274214  
4556.000000	65.275454  
4555.000000	65.272641  
4554.000000	65.272808  
4553.000000	65.282917  
4552.000000	65.307497  
4551.000000	65.347242  
4550.000000	65.398883  
4549.000000	65.455770  
4548.000000	65.510416  
4547.000000	65.555715  
4546.000000	65.587115  
4545.000000	65.602469  
4544.000000	65.601491  
4543.000000	65.585112  
4542.000000	65.553855  
4541.000000	65.508437  
4540.000000	65.450048  
4539.000000	65.381240  
4538.000000	65.306735  
4537.000000	65.233254  
4536.000000	65.169548  
4535.000000	65.123796  
4534.000000	65.102100  
4533.000000	65.106558  
4532.000000	65.134024  
4531.000000	65.177273  
4530.000000	65.226030  
4529.000000	65.270471  
4528.000000	65.303659  
4527.000000	65.323042  
4526.000000	65.330576  
4525.000000	65.330266  
4524.000000	65.326261  
4523.000000	65.320158  
4522.000000	65.310263  
4521.000000	65.292310  
4520.000000	65.261054  
4519.000000	65.213346  
4518.000000	65.149474  
4517.000000	65.074348  
4516.000000	64.996194  
4515.000000	64.924287  
4514.000000	64.866876  
4513.000000	64.828801  
4512.000000	64.810657  
4511.000000	64.808440  
4510.000000	64.815115  
4509.000000	64.822816  
4508.000000	64.824962  
4507.000000	64.817714  
4506.000000	64.800930  
4505.000000	64.777064  
4504.000000	64.750742  
4503.000000	64.726614  
4502.000000	64.709043  
4501.000000	64.700651  
4500.000000	64.702916  
4499.000000	64.716100  
4498.000000	64.739537  
4497.000000	64.771962  
4496.000000	64.811372  
4495.000000	64.855146  
4494.000000	64.899659  
4493.000000	64.940476  
4492.000000	64.972949  
4491.000000	64.992427  
4490.000000	64.995455  
4489.000000	64.979672  
4488.000000	64.945149  
4487.000000	64.893603  
4486.000000	64.828443  
4485.000000	64.754271  
4484.000000	64.676570  
4483.000000	64.600825  
4482.000000	64.532136  
4481.000000	64.474749  
4480.000000	64.432144  
4479.000000	64.406514  
4478.000000	64.398384  
4477.000000	64.406657  
4476.000000	64.428162  
4475.000000	64.458942  
4474.000000	64.494419  
4473.000000	64.530944  
4472.000000	64.565706  
4471.000000	64.597940  
4470.000000	64.628195  
4469.000000	64.658117  
4468.000000	64.689111  
4467.000000	64.721298  
4466.000000	64.752578  
4465.000000	64.778566  
4464.000000	64.793539  
4463.000000	64.792227  
4462.000000	64.771580  
4461.000000	64.732456  
4460.000000	64.679503  
4459.000000	64.620685  
4458.000000	64.565038  
4457.000000	64.521431  
4456.000000	64.495730  
4455.000000	64.489936  
4454.000000	64.501285  
4453.000000	64.524054  
4452.000000	64.549708  
4451.000000	64.568614  
4450.000000	64.572882  
4449.000000	64.557576  
4448.000000	64.523291  
4447.000000	64.475989  
4446.000000	64.425706  
4445.000000	64.384126  
4444.000000	64.360952  
4443.000000	64.361238  
4442.000000	64.383172  
4441.000000	64.418745  
4440.000000	64.457249  
4439.000000	64.488363  
4438.000000	64.505004  
4437.000000	64.505434  
4436.000000	64.492988  
4435.000000	64.475607  
4434.000000	64.462089  
4433.000000	64.461088  
4432.000000	64.479041  
4431.000000	64.519214  
4430.000000	64.579772  
4429.000000	64.655470  
4428.000000	64.743256  
4427.000000	64.837884  
4426.000000	64.929080  
4425.000000	65.006756  
4424.000000	65.065073  
4423.000000	65.099549  
4422.000000	65.108346  
4421.000000	65.090465  
4420.000000	65.041470  
4419.000000	64.967393  
4418.000000	64.890074  
4417.000000	64.818739  
4416.000000	64.745616  
4415.000000	64.665269  
4414.000000	64.575123  
4413.000000	64.475202  
4412.000000	64.370894  
4411.000000	64.257788  
4410.000000	64.131045  
4409.000000	64.003491  
4408.000000	63.893532  
4407.000000	63.838648  
4406.000000	63.857460  
4405.000000	63.940596  
4404.000000	64.034867  
4403.000000	64.035367  
4402.000000	63.823413  
4401.000000	63.321924  
4400.000000	62.492823  
4399.000000	61.375355  
4398.000000	60.049748  
4397.000000	58.569860  
4396.000000	57.051539  
4395.000000	55.578851  
4394.000000	54.414916  
4393.000000	53.967881  
4392.000000	54.755544  
4391.000000	57.294702  
4390.000000	61.790561  
4389.000000	68.018174  
4388.000000	75.210571  
4387.000000	82.200407  
4386.000000	87.762379  
4385.000000	90.900683  
4384.000000	91.205883  
4383.000000	88.890004  
4382.000000	84.664201  
4381.000000	79.528164  
4380.000000	74.414229  
4379.000000	70.029759  
4378.000000	66.765713  
4377.000000	64.657068  
4376.000000	63.602256  
4375.000000	63.327145  
4374.000000	63.557934  
4373.000000	64.037895  
4372.000000	64.536356  
4371.000000	64.927411  
4370.000000	65.137648  
4369.000000	65.185475  
4368.000000	65.115213  
4367.000000	64.997458  
4366.000000	64.879751  
4365.000000	64.790582  
4364.000000	64.727234  
4363.000000	64.676713  
4362.000000	64.627695  
4361.000000	64.573502  
4360.000000	64.518213  
4359.000000	64.471077  
4358.000000	64.445424  
4357.000000	64.443445  
4356.000000	64.458847  
4355.000000	64.494371  
4354.000000	64.553642  
4353.000000	64.626336  
4352.000000	64.698600  
4351.000000	64.756679  
4350.000000	64.790654  
4349.000000	64.809036  
4348.000000	64.823603  
4347.000000	64.831709  
4346.000000	64.828896  
4345.000000	64.817190  
4344.000000	64.796400  
4343.000000	64.763212  
4342.000000	64.715266  
4341.000000	64.652609  
4340.000000	64.578866  
4339.000000	64.502382  
4338.000000	64.432430  
4337.000000	64.376950  
4336.000000	64.341092  
4335.000000	64.326214  
4334.000000	64.330601  
4333.000000	64.350891  
4332.000000	64.384150  
4331.000000	64.429545  
4330.000000	64.488387  
4329.000000	64.563298  
4328.000000	64.656162  
4327.000000	64.766192  
4326.000000	64.887928  
4325.000000	65.011453  
4324.000000	65.123796  
4323.000000	65.211534  
4322.000000	65.264439  
4321.000000	65.277552  
4320.000000	65.253424  
4319.000000	65.200829  
4318.000000	65.133261  
4317.000000	65.065336  
4316.000000	65.009951  
4315.000000	64.975428  
4314.000000	64.965033  
4313.000000	64.976143  
4312.000000	65.002465  
4311.000000	65.035057  
4310.000000	65.065479  
4309.000000	65.085959  
4308.000000	65.090990  
4307.000000	65.077161  
4306.000000	65.043592  
4305.000000	64.991497  
4304.000000	64.924216  
4303.000000	64.847326  
4302.000000	64.767694  
4301.000000	64.693021  
4300.000000	64.630007  
4299.000000	64.583420  
4298.000000	64.554834  
4297.000000	64.542293  
4296.000000	64.541578  
4295.000000	64.546203  
4294.000000	64.550876  
4293.000000	64.552760  
4292.000000	64.552998  
4291.000000	64.555788  
4290.000000	64.567160  
4289.000000	64.592885  
4288.000000	64.635682  
4287.000000	64.693331  
4286.000000	64.759063  
4285.000000	64.822673  
4284.000000	64.873242  
4283.000000	64.901995  
4282.000000	64.904689  
4281.000000	64.882826  
4280.000000	64.843249  
4279.000000	64.796471  
4278.000000	64.753699  
4277.000000	64.724230  
4276.000000	64.713382  
4275.000000	64.721679  
4274.000000	64.745712  
4273.000000	64.779591  
4272.000000	64.817094  
4271.000000	64.853215  
4270.000000	64.884805  
4269.000000	64.911103  
4268.000000	64.932942  
4267.000000	64.952111  
4266.000000	64.970541  
4265.000000	64.988923  
4264.000000	65.007328  
4263.000000	65.023159  
4262.000000	65.032482  
4261.000000	65.029501  
4260.000000	65.008831  
4259.000000	64.966392  
4258.000000	64.901018  
4257.000000	64.815735  
4256.000000	64.717745  
4255.000000	64.618086  
4254.000000	64.529466  
4253.000000	64.463925  
4252.000000	64.429736  
4251.000000	64.429593  
4250.000000	64.459896  
4249.000000	64.511156  
4248.000000	64.570474  
4247.000000	64.624118  
4246.000000	64.661240  
4245.000000	64.675831  
4244.000000	64.668178  
4243.000000	64.643049  
4242.000000	64.608860  
4241.000000	64.573740  
4240.000000	64.544773  
4239.000000	64.526057  
4238.000000	64.518761  
4237.000000	64.521956  
4236.000000	64.533257  
4235.000000	64.550471  
4234.000000	64.571809  
4233.000000	64.596319  
4232.000000	64.622855  
4231.000000	64.649415  
4230.000000	64.672923  
4229.000000	64.688992  
4228.000000	64.693427  
4227.000000	64.683270  
4226.000000	64.658594  
4225.000000	64.623045  
4224.000000	64.583444  
4223.000000	64.548230  
4222.000000	64.526176  
4221.000000	64.523935  
4220.000000	64.544177  
4219.000000	64.584612  
4218.000000	64.638423  
4217.000000	64.695835  
4216.000000	64.746665  
4215.000000	64.782691  
4214.000000	64.798903  
4213.000000	64.795160  
4212.000000	64.775514  
4211.000000	64.747405  
4210.000000	64.719438  
4209.000000	64.699149  
4208.000000	64.691352  
4207.000000	64.696717  
4206.000000	64.712810  
4205.000000	64.733767  
4204.000000	64.752411  
4203.000000	64.762115  
4202.000000	64.758682  
4201.000000	64.742231  
4200.000000	64.717268  
4199.000000	64.691901  
4198.000000	64.675378  
4197.000000	64.675617  
4196.000000	64.696264  
4195.000000	64.735746  
4194.000000	64.786481  
4193.000000	64.836597  
4192.000000	64.872312  
4191.000000	64.881730  
4190.000000	64.857769  
4189.000000	64.799618  
4188.000000	64.713788  
4187.000000	64.612102  
4186.000000	64.510011  
4185.000000	64.422130  
4184.000000	64.360451  
4183.000000	64.331603  
4182.000000	64.336895  
4181.000000	64.373254  
4180.000000	64.434099  
4179.000000	64.511322  
4178.000000	64.595937  
4177.000000	64.678907  
4176.000000	64.752101  
4175.000000	64.808440  
4174.000000	64.843750  
4173.000000	64.857101  
4172.000000	64.851689  
4171.000000	64.834141  
4170.000000	64.813613  
4169.000000	64.799714  
4168.000000	64.800453  
4167.000000	64.820313  
4166.000000	64.859271  
4165.000000	64.913177  
4164.000000	64.975023  
4163.000000	65.036892  
4162.000000	65.092897  
4161.000000	65.139818  
4160.000000	65.177917  
4159.000000	65.209674  
4158.000000	65.238308  
4157.000000	65.266013  
4156.000000	65.292572  
4155.000000	65.315413  
4154.000000	65.330386  
4153.000000	65.333557  
4152.000000	65.323710  
4151.000000	65.302062  
4150.000000	65.272736  
4149.000000	65.241384  
4148.000000	65.213847  
4147.000000	65.194725  
4146.000000	65.186405  
4145.000000	65.188264  
4144.000000	65.197229  
4143.000000	65.209150  
4142.000000	65.219831  
4141.000000	65.226149  
4140.000000	65.226340  
4139.000000	65.220046  
4138.000000	65.207791  
4137.000000	65.190124  
4136.000000	65.167689  
4135.000000	65.140271  
4134.000000	65.107703  
4133.000000	65.070128  
4132.000000	65.028929  
4131.000000	64.987134  
4130.000000	64.949250  
4129.000000	64.920067  
4128.000000	64.904260  
4127.000000	64.905428  
4126.000000	64.925193  
4125.000000	64.962244  
4124.000000	65.012907  
4123.000000	65.071821  
4122.000000	65.132689  
4121.000000	65.189170  
4120.000000	65.235996  
4119.000000	65.269851  
4118.000000	65.289497  
4117.000000	65.295958  
4116.000000	65.292024  
4115.000000	65.281772  
4114.000000	65.270328  
4113.000000	65.262770  
4112.000000	65.263772  
4111.000000	65.276098  
4110.000000	65.300869  
4109.000000	65.336251  
4108.000000	65.378379  
4107.000000	65.421032  
4106.000000	65.457201  
4105.000000	65.480065  
4104.000000	65.484547  
4103.000000	65.468025  
4102.000000	65.431451  
4101.000000	65.378260  
4100.000000	65.313839  
4099.000000	65.244102  
4098.000000	65.174674  
4097.000000	65.109562  
4096.000000	65.050745  
4095.000000	64.998793  
4094.000000	64.953541  
4093.000000	64.914870  
4092.000000	64.883494  
4091.000000	64.860892  
4090.000000	64.848923  
4089.000000	64.849185  
4088.000000	64.862346  
4087.000000	64.886665  
4086.000000	64.918255  
4085.000000	64.951276  
4084.000000	64.979219  
4083.000000	64.995956  
4082.000000	64.997076  
4081.000000	64.980959  
4080.000000	64.949131  
4079.000000	64.905595  
4078.000000	64.856505  
4077.000000	64.808654  
4076.000000	64.768719  
4075.000000	64.741706  
4074.000000	64.731001  
4073.000000	64.737844  
4072.000000	64.761757  
4071.000000	64.800930  
4070.000000	64.852643  
4069.000000	64.913272  
4068.000000	64.978861  
4067.000000	65.045428  
4066.000000	65.108633  
4065.000000	65.164017  
4064.000000	65.207791  
4063.000000	65.237092  
4062.000000	65.250372  
4061.000000	65.247464  
4060.000000	65.230107  
4059.000000	65.201568  
4058.000000	65.165829  
4057.000000	65.127158  
4056.000000	65.089583  
4055.000000	65.056061  
4054.000000	65.028190  
4053.000000	65.006327  
4052.000000	64.989829  
4051.000000	64.978241  
4050.000000	64.970898  
4049.000000	64.968156  
4048.000000	64.970636  
4047.000000	64.979505  
4046.000000	64.995574  
4045.000000	65.019202  
4044.000000	65.049481  
4043.000000	65.084552  
4042.000000	65.121746  
4041.000000	65.157985  
4040.000000	65.190458  
4039.000000	65.217041  
4038.000000	65.236687  
4037.000000	65.249133  
4036.000000	65.254759  
4035.000000	65.254616  
4034.000000	65.249991  
4033.000000	65.242099  
4032.000000	65.232300  
4031.000000	65.222668  
4030.000000	65.215778  
4029.000000	65.214538  
4028.000000	65.221428  
4027.000000	65.238356  
4026.000000	65.265488  
4025.000000	65.301275  
4024.000000	65.342307  
4023.000000	65.383672  
4022.000000	65.419983  
4021.000000	65.446472  
4020.000000	65.459847  
4019.000000	65.458750  
4018.000000	65.444016  
4017.000000	65.418410  
4016.000000	65.385913  
4015.000000	65.350770  
4014.000000	65.317082  
4013.000000	65.288114  
4012.000000	65.266275  
4011.000000	65.252852  
4010.000000	65.247941  
4009.000000	65.250325  
4008.000000	65.257549  
4007.000000	65.266060  
4006.000000	65.271043  
4005.000000	65.267634  
4004.000000	65.251660  
4003.000000	65.220928  
4002.000000	65.175938  
4001.000000	65.120053  
4000.000000	65.058994  
3999.000000	64.999938  
3998.000000	64.950013  
3997.000000	64.914917  
3996.000000	64.897203  
3995.000000	64.896678  
3994.000000	64.910340  
3993.000000	64.934206  
3992.000000	64.964079  
3991.000000	64.997267  
3990.000000	65.032720  
3989.000000	65.071010  
3988.000000	65.113592  
3987.000000	65.161108  
3986.000000	65.212392  
3985.000000	65.263724  
3984.000000	65.309405  
3983.000000	65.342664  
3982.000000	65.357518  
3981.000000	65.350151  
3980.000000	65.320205  
3979.000000	65.271186  
3978.000000	65.210080  
3977.000000	65.145754  
3976.000000	65.087747  
3975.000000	65.043997  
3974.000000	65.020251  
3973.000000	65.019345  
3972.000000	65.041089  
3971.000000	65.083122  
3970.000000	65.141487  
3969.000000	65.211200  
3968.000000	65.286612  
3967.000000	65.362000  
3966.000000	65.431737  
3965.000000	65.490269  
3964.000000	65.532898  
3963.000000	65.556097  
3962.000000	65.557932  
3961.000000	65.538454  
3960.000000	65.499806  
3959.000000	65.445995  
3958.000000	65.382385  
3957.000000	65.315175  
3956.000000	65.250062  
3955.000000	65.191626  
3954.000000	65.142798  
3953.000000	65.104651  
3952.000000	65.076541  
3951.000000	65.056943  
3950.000000	65.044093  
3949.000000	65.036654  
3948.000000	65.033936  
3947.000000	65.036082  
3946.000000	65.043067  
3945.000000	65.054893  
3944.000000	65.070629  
3943.000000	65.088963  
3942.000000	65.107488  
3941.000000	65.123677  
3940.000000	65.135216  
3939.000000	65.140771  
3938.000000	65.140390  
3937.000000	65.135240  
3936.000000	65.127038  
3935.000000	65.117764  
3934.000000	65.109062  
3933.000000	65.101575  
3932.000000	65.094971  
3931.000000	65.088057  
3930.000000	65.079545  
3929.000000	65.068387  
3928.000000	65.054535  
3927.000000	65.038824  
3926.000000	65.023398  
3925.000000	65.011024  
3924.000000	65.004897  
3923.000000	65.007734  
3922.000000	65.021800  
3921.000000	65.048289  
3920.000000	65.087127  
3919.000000	65.137290  
3918.000000	65.196442  
3917.000000	65.261340  
3916.000000	65.327548  
3915.000000	65.390133  
3914.000000	65.443968  
3913.000000	65.484333  
3912.000000	65.507745  
3911.000000	65.512752  
3910.000000	65.500164  
3909.000000	65.473341  
3908.000000	65.437364  
3907.000000	65.398478  
3906.000000	65.362524  
3905.000000	65.334320  
3904.000000	65.316081  
3903.000000	65.307402  
3902.000000	65.305590  
3901.000000	65.306544  
3900.000000	65.305876  
3899.000000	65.299844  
3898.000000	65.286278  
3897.000000	65.264844  
3896.000000	65.236449  
3895.000000	65.203285  
3894.000000	65.167570  
3893.000000	65.131831  
3892.000000	65.098381  
3891.000000	65.069508  
3890.000000	65.047478  
3889.000000	65.033936  
3888.000000	65.030050  
3887.000000	65.035915  
3886.000000	65.049815  
3885.000000	65.069007  
3884.000000	65.089821  
3883.000000	65.108895  
3882.000000	65.122985  
3881.000000	65.131258  
3880.000000	65.134882  
3879.000000	65.137195  
3878.000000	65.142512  
3877.000000	65.154838  
3876.000000	65.176606  
3875.000000	65.207958  
3874.000000	65.246558  
3873.000000	65.288352  
3872.000000	65.328431  
3871.000000	65.362811  
3870.000000	65.389180  
3869.000000	65.407061  
3868.000000	65.417385  
3867.000000	65.422081  
3866.000000	65.422892  
3865.000000	65.420818  
3864.000000	65.415716  
3863.000000	65.407013  
3862.000000	65.393376  
3861.000000	65.373849  
3860.000000	65.347623  
3859.000000	65.315079  
3858.000000	65.277028  
3857.000000	65.234708  
3856.000000	65.189623  
3855.000000	65.143108  
3854.000000	65.096831  
3853.000000	65.052604  
3852.000000	65.012836  
3851.000000	64.980101  
3850.000000	64.957094  
3849.000000	64.945864  
3848.000000	64.947366  
3847.000000	64.960980  
3846.000000	64.984464  
3845.000000	65.014505  
3844.000000	65.047168  
3843.000000	65.078806  
3842.000000	65.106701  
3841.000000	65.129566  
3840.000000	65.146970  
3839.000000	65.159201  
3838.000000	65.166711  
3837.000000	65.169310  
3836.000000	65.166354  
3835.000000	65.156793  
3834.000000	65.139818  
3833.000000	65.115499  
3832.000000	65.085625  
3831.000000	65.053105  
3830.000000	65.021586  
3829.000000	64.994955  
3828.000000	64.976358  
3827.000000	64.967727  
3826.000000	64.969158  
3825.000000	64.979505  
3824.000000	64.996671  
3823.000000	65.018272  
3822.000000	65.041947  
3821.000000	65.065884  
3820.000000	65.088939  
3819.000000	65.110087  
3818.000000	65.128326  
3817.000000	65.142631  
3816.000000	65.151810  
3815.000000	65.155029  
3814.000000	65.151953  
3813.000000	65.142965  
3812.000000	65.129256  
3811.000000	65.112662  
3810.000000	65.095615  
3809.000000	65.080094  
3808.000000	65.068268  
3807.000000	65.061759  
3806.000000	65.062284  
3805.000000	65.071177  
3804.000000	65.089368  
3803.000000	65.117120  
3802.000000	65.153574  
3801.000000	65.196752  
3800.000000	65.243244  
3799.000000	65.288782  
3798.000000	65.328955  
3797.000000	65.359854  
3796.000000	65.379214  
3795.000000	65.386843  
3794.000000	65.384721  
3793.000000	65.376543  
3792.000000	65.366554  
3791.000000	65.358185  
3790.000000	65.353536  
3789.000000	65.352439  
3788.000000	65.352702  
3787.000000	65.350890  
3786.000000	65.343713  
3785.000000	65.329027  
3784.000000	65.307092  
3783.000000	65.280580  
3782.000000	65.253829  
3781.000000	65.231895  
3780.000000	65.219068  
3779.000000	65.217614  
3778.000000	65.227174  
3777.000000	65.244722  
3776.000000	65.265393  
3775.000000	65.283703  
3774.000000	65.294933  
3773.000000	65.296196  
3772.000000	65.286970  
3771.000000	65.268850  
3770.000000	65.244793  
3769.000000	65.218544  
3768.000000	65.193819  
3767.000000	65.173697  
3766.000000	65.160250  
3765.000000	65.155005  
3764.000000	65.158677  
3763.000000	65.171861  
3762.000000	65.194201  
3761.000000	65.224289  
3760.000000	65.259552  
3759.000000	65.296149  
3758.000000	65.329551  
3757.000000	65.354847  
3756.000000	65.368413  
3755.000000	65.368485  
3754.000000	65.355849  
3753.000000	65.334010  
3752.000000	65.307927  
3751.000000	65.283441  
3750.000000	65.265202  
3749.000000	65.256023  
3748.000000	65.255784  
3747.000000	65.261769  
3746.000000	65.269541  
3745.000000	65.274310  
3744.000000	65.272307  
3743.000000	65.261888  
3742.000000	65.244126  
3741.000000	65.222716  
3740.000000	65.202713  
3739.000000	65.189552  
3738.000000	65.187764  
3737.000000	65.199971  
3736.000000	65.226578  
3735.000000	65.265703  
3734.000000	65.313959  
3733.000000	65.366935  
3732.000000	65.420293  
3731.000000	65.470004  
3730.000000	65.512967  
3729.000000	65.546870  
3728.000000	65.570235  
3727.000000	65.582156  
3726.000000	65.582299  
3725.000000	65.570759  
3724.000000	65.548539  
3723.000000	65.516948  
3722.000000	65.478134  
3721.000000	65.434384  
3720.000000	65.388584  
3719.000000	65.343594  
3718.000000	65.302014  
3717.000000	65.265917  
3716.000000	65.236783  
3715.000000	65.215182  
3714.000000	65.200805  
3713.000000	65.192365  
3712.000000	65.188169  
3711.000000	65.186524  
3710.000000	65.186095  
3709.000000	65.185856  
3708.000000	65.185189  
3707.000000	65.183591  
3706.000000	65.180897  
3705.000000	65.176677  
3704.000000	65.170884  
3703.000000	65.163850  
3702.000000	65.156626  
3701.000000	65.150833  
3700.000000	65.148568  
3699.000000	65.151906  
3698.000000	65.162205  
3697.000000	65.179777  
3696.000000	65.203595  
3695.000000	65.231251  
3694.000000	65.259647  
3693.000000	65.285730  
3692.000000	65.307092  
3691.000000	65.322661  
3690.000000	65.332627  
3689.000000	65.338277  
3688.000000	65.340971  
3687.000000	65.341520  
3686.000000	65.339660  
3685.000000	65.333986  
3684.000000	65.322566  
3683.000000	65.303683  
3682.000000	65.276741  
3681.000000	65.242934  
3680.000000	65.205073  
3679.000000	65.167450  
3678.000000	65.134787  
3677.000000	65.111732  
3676.000000	65.101313  
3675.000000	65.105175  
3674.000000	65.123033  
3673.000000	65.153336  
3672.000000	65.193390  
3671.000000	65.239810  
3670.000000	65.289235  
3669.000000	65.338110  
3668.000000	65.383100  
3667.000000	65.420794  
3666.000000	65.447902  
3665.000000	65.461516  
3664.000000	65.459752  
3663.000000	65.441989  
3662.000000	65.409040  
3661.000000	65.363121  
3660.000000	65.307688  
3659.000000	65.246534  
3658.000000	65.183615  
3657.000000	65.122675  
3656.000000	65.067076  
3655.000000	65.019774  
3654.000000	64.983725  
3653.000000	64.961671  
3652.000000	64.956521  
3651.000000	64.970350  
3650.000000	65.004396  
3649.000000	65.058255  
3648.000000	65.129470  
3647.000000	65.213060  
3646.000000	65.302014  
3645.000000	65.388345  
3644.000000	65.463876  
3643.000000	65.521740  
3642.000000	65.557360  
3641.000000	65.569400  
3640.000000	65.559697  
3639.000000	65.532660  
3638.000000	65.494394  
3637.000000	65.451574  
3636.000000	65.409946  
3635.000000	65.373992  
3634.000000	65.345907  
3633.000000	65.325784  
3632.000000	65.312433  
3631.000000	65.303993  
3630.000000	65.298485  
3629.000000	65.294575  
3628.000000	65.291738  
3627.000000	65.290164  
3626.000000	65.289926  
3625.000000	65.290689  
3624.000000	65.291500  
3623.000000	65.290784  
3622.000000	65.286493  
3621.000000	65.276527  
3620.000000	65.259528  
3619.000000	65.235066  
3618.000000	65.203952  
3617.000000	65.168285  
3616.000000	65.130543  
3615.000000	65.093779  
3614.000000	65.060949  
3613.000000	65.034866  
3612.000000	65.017414  
3611.000000	65.010166  
3610.000000	65.014290  
3609.000000	65.030288  
3608.000000	65.057706  
3607.000000	65.094876  
3606.000000	65.138888  
3605.000000	65.185713  
3604.000000	65.230751  
3603.000000	65.269494  
3602.000000	65.298461  
3601.000000	65.316200  
3600.000000	65.323305  
3599.000000	65.322375  
3598.000000	65.316843  
3597.000000	65.310621  
3596.000000	65.306663  
3595.000000	65.306448  
3594.000000	65.309667  
3593.000000	65.315008  
3592.000000	65.320539  
3591.000000	65.324783  
3590.000000	65.327048  
3589.000000	65.328097  
3588.000000	65.329241  
3587.000000	65.331840  
3586.000000	65.336585  
3585.000000	65.342879  
3584.000000	65.349030  
3583.000000	65.352320  
3582.000000	65.350174  
3581.000000	65.340995  
3580.000000	65.324831  
3579.000000	65.303540  
3578.000000	65.280389  
3577.000000	65.259170  
3576.000000	65.243721  
3575.000000	65.236973  
3574.000000	65.240049  
3573.000000	65.252399  
3572.000000	65.272450  
3571.000000	65.297913  
3570.000000	65.326356  
3569.000000	65.355420  
3568.000000	65.383267  
3567.000000	65.408396  
3566.000000	65.429496  
3565.000000	65.445613  
3564.000000	65.455627  
3563.000000	65.459036  
3562.000000	65.456342  
3561.000000	65.448713  
3560.000000	65.438318  
3559.000000	65.427660  
3558.000000	65.419268  
3557.000000	65.414667  
3556.000000	65.414094  
3555.000000	65.416049  
3554.000000	65.417671  
3553.000000	65.415501  
3552.000000	65.406322  
3551.000000	65.388035  
3550.000000	65.360283  
3549.000000	65.324640  
3548.000000	65.284347  
3547.000000	65.243244  
3546.000000	65.205097  
3545.000000	65.172696  
3544.000000	65.147638  
3543.000000	65.130066  
3542.000000	65.119504  
3541.000000	65.115165  
3540.000000	65.116834  
3539.000000	65.124535  
3538.000000	65.139079  
3537.000000	65.161347  
3536.000000	65.191721  
3535.000000	65.229129  
3534.000000	65.271043  
3533.000000	65.313553  
3532.000000	65.351939  
3531.000000	65.381669  
3530.000000	65.399217  
3529.000000	65.402865  
3528.000000	65.392971  
3527.000000	65.371823  
3526.000000	65.342593  
3525.000000	65.308475  
3524.000000	65.272140  
3523.000000	65.235328  
3522.000000	65.198779  
3521.000000	65.162730  
3520.000000	65.127587  
3519.000000	65.094614  
3518.000000	65.065979  
3517.000000	65.044522  
3516.000000	65.032815  
3515.000000	65.032529  
3514.000000	65.043592  
3513.000000	65.064120  
3512.000000	65.090250  
3511.000000	65.117120  
3510.000000	65.139961  
3509.000000	65.155291  
3508.000000	65.161395  
3507.000000	65.158772  
3506.000000	65.149569  
3505.000000	65.137100  
3504.000000	65.124297  
3503.000000	65.113806  
3502.000000	65.106940  
3501.000000	65.104269  
3500.000000	65.105962  
3499.000000	65.112137  
3498.000000	65.123248  
3497.000000	65.140247  
3496.000000	65.163969  
3495.000000	65.194439  
3494.000000	65.230202  
3493.000000	65.267896  
3492.000000	65.302205  
3491.000000	65.326738  
3490.000000	65.335059  
3489.000000	65.322613  
3488.000000	65.287566  
3487.000000	65.231895  
3486.000000	65.160846  
3485.000000	65.082597  
3484.000000	65.006351  
3483.000000	64.940357  
3482.000000	64.890670  
3481.000000	64.859890  
3480.000000	64.847588  
3479.000000	64.850926  
3478.000000	64.866089  
3477.000000	64.889311  
3476.000000	64.918375  
3475.000000	64.952588  
3474.000000	64.992690  
3473.000000	65.039443  
3472.000000	65.092778  
3471.000000	65.150427  
3470.000000	65.208005  
3469.000000	65.259289  
3468.000000	65.297389  
3467.000000	65.316295  
3466.000000	65.312719  
3465.000000	65.286993  
3464.000000	65.243077  
3463.000000	65.188026  
3462.000000	65.130591  
3461.000000	65.079426  
3460.000000	65.041637  
3459.000000	65.021038  
3458.000000	65.018248  
3457.000000	65.030479  
3456.000000	65.052676  
3455.000000	65.078806  
3454.000000	65.103268  
3453.000000	65.122199  
3452.000000	65.133571  
3451.000000	65.138053  
3450.000000	65.137839  
3449.000000	65.136218  
3448.000000	65.136075  
3447.000000	65.139555  
3446.000000	65.147280  
3445.000000	65.158748  
3444.000000	65.172553  
3443.000000	65.187025  
3442.000000	65.201091  
3441.000000	65.214800  
3440.000000	65.229535  
3439.000000	65.247368  
3438.000000	65.270209  
3437.000000	65.299224  
3436.000000	65.333843  
3435.000000	65.371561  
3434.000000	65.408253  
3433.000000	65.439200  
3432.000000	65.459871  
3431.000000	65.467596  
3430.000000	65.461564  
3429.000000	65.443181  
3428.000000	65.415668  
3427.000000	65.383243  
3426.000000	65.350389  
3425.000000	65.321302  
3424.000000	65.298962  
3423.000000	65.285086  
3422.000000	65.280175  
3421.000000	65.283966  
3420.000000	65.295243  
3419.000000	65.312457  
3418.000000	65.333509  
3417.000000	65.356159  
3416.000000	65.378046  
3415.000000	65.396857  
3414.000000	65.410757  
3413.000000	65.418648  
3412.000000	65.420413  
3411.000000	65.416693  
3410.000000	65.409016  
3409.000000	65.398883  
3408.000000	65.387916  
3407.000000	65.376949  
3406.000000	65.366220  
3405.000000	65.355014  
3404.000000	65.342211  
3403.000000	65.326285  
3402.000000	65.305638  
3401.000000	65.279221  
3400.000000	65.246391  
3399.000000	65.207600  
3398.000000	65.164184  
3397.000000	65.118622  
3396.000000	65.074133  
3395.000000	65.034317  
3394.000000	65.002441  
3393.000000	64.981245  
3392.000000	64.972186  
3391.000000	64.975118  
3390.000000	64.988183  
3389.000000	65.008258  
3388.000000	65.031504  
3387.000000	65.054392  
3386.000000	65.074253  
3385.000000	65.089893  
3384.000000	65.101528  
3383.000000	65.110325  
3382.000000	65.117812  
3381.000000	65.125131  
3380.000000	65.132761  
3379.000000	65.140318  
3378.000000	65.146780  
3377.000000	65.151119  
3376.000000	65.152692  
3375.000000	65.151691  
3374.000000	65.149188  
3373.000000	65.146923  
3372.000000	65.147018  
3371.000000	65.151309  
3370.000000	65.161299  
3369.000000	65.177440  
3368.000000	65.199184  
3367.000000	65.225005  
3366.000000	65.252828  
3365.000000	65.280413  
3364.000000	65.305566  
3363.000000	65.326499  
3362.000000	65.341997  
3361.000000	65.351605  
3360.000000	65.355634  
3359.000000	65.355038  
3358.000000	65.351462  
3357.000000	65.346693  
3356.000000	65.342903  
3355.000000	65.341734  
3354.000000	65.344166  
3353.000000	65.350031  
3352.000000	65.358281  
3351.000000	65.366721  
3350.000000	65.372657  
3349.000000	65.373110  
3348.000000	65.365839  
3347.000000	65.349626  
3346.000000	65.324878  
3345.000000	65.293550  
3344.000000	65.258860  
3343.000000	65.224814  
3342.000000	65.195298  
3341.000000	65.173363  
3340.000000	65.160489  
3339.000000	65.156531  
3338.000000	65.159773  
3337.000000	65.167760  
3336.000000	65.178060  
3335.000000	65.188837  
3334.000000	65.199089  
3333.000000	65.208721  
3332.000000	65.218114  
3331.000000	65.227413  
3330.000000	65.236234  
3329.000000	65.243387  
3328.000000	65.246796  
3327.000000	65.244317  
3326.000000	65.233969  
3325.000000	65.214705  
3324.000000	65.186905  
3323.000000	65.152525  
3322.000000	65.115165  
3321.000000	65.079259  
3320.000000	65.049600  
3319.000000	65.030336  
3318.000000	65.024209  
3317.000000	65.032196  
3316.000000	65.053057  
3315.000000	65.083789  
3314.000000	65.119671  
3313.000000	65.155148  
3312.000000	65.184783  
3311.000000	65.204334  
3310.000000	65.211534  
3309.000000	65.206360  
3308.000000	65.191173  
3307.000000	65.169811  
3306.000000	65.146756  
3305.000000	65.125870  
3304.000000	65.109705  
3303.000000	65.098953  
3302.000000	65.092873  
3301.000000	65.089631  
3300.000000	65.087389  
3299.000000	65.084695  
3298.000000	65.081119  
3297.000000	65.077090  
3296.000000	65.073633  
3295.000000	65.072035  
3294.000000	65.072941  
3293.000000	65.076637  
3292.000000	65.082502  
3291.000000	65.089821  
3290.000000	65.098023  
3289.000000	65.107011  
3288.000000	65.117359  
3287.000000	65.129852  
3286.000000	65.144968  
3285.000000	65.162444  
3284.000000	65.181112  
3283.000000	65.199327  
3282.000000	65.215206  
3281.000000	65.227317  
3280.000000	65.234851  
3279.000000	65.238094  
3278.000000	65.237975  
3277.000000	65.235853  
3276.000000	65.233159  
3275.000000	65.230917  
3274.000000	65.229701  
3273.000000	65.229988  
3272.000000	65.232038  
3271.000000	65.236067  
3270.000000	65.242075  
3269.000000	65.250086  
3268.000000	65.259385  
3267.000000	65.268611  
3266.000000	65.275573  
3265.000000	65.277695  
3264.000000	65.272712  
3263.000000	65.259552  
3262.000000	65.238761  
3261.000000	65.212750  
3260.000000	65.184950  
3259.000000	65.159249  
3258.000000	65.138435  
3257.000000	65.123748  
3256.000000	65.114378  
3255.000000	65.108060  
3254.000000	65.101742  
3253.000000	65.092778  
3252.000000	65.079784  
3251.000000	65.063428  
3250.000000	65.046024  
3249.000000	65.031313  
3248.000000	65.023136  
3247.000000	65.024781  
3246.000000	65.037679  
3245.000000	65.061330  
3244.000000	65.093255  
3243.000000	65.129470  
3242.000000	65.165734  
3241.000000	65.197873  
3240.000000	65.222549  
3239.000000	65.237498  
3238.000000	65.241765  
3237.000000	65.235710  
3236.000000	65.220689  
3235.000000	65.198874  
3234.000000	65.172910  
3233.000000	65.145254  
3232.000000	65.118169  
3231.000000	65.093398  
3230.000000	65.072107  
3229.000000	65.055346  
3228.000000	65.044307  
3227.000000	65.040206  
3226.000000	65.044212  
3225.000000	65.057134  
3224.000000	65.079236  
3223.000000	65.109467  
3222.000000	65.145754  
3221.000000	65.184950  
3220.000000	65.223503  
3219.000000	65.258193  
3218.000000	65.286779  
3217.000000	65.308690  
3216.000000	65.325021  
3215.000000	65.338349  
3214.000000	65.351366  
3213.000000	65.366458  
3212.000000	65.384221  
3211.000000	65.403819  
3210.000000	65.422320  
3209.000000	65.436291  
3208.000000	65.441870  
3207.000000	65.436625  
3206.000000	65.419006  
3205.000000	65.389204  
3204.000000	65.348434  
3203.000000	65.299034  
3202.000000	65.243530  
3201.000000	65.184497  
3200.000000	65.124678  
3199.000000	65.066957  
3198.000000	65.014410  
3197.000000	64.970159  
3196.000000	64.937090  
3195.000000	64.917516  
3194.000000	64.912533  
3193.000000	64.921784  
3192.000000	64.942884  
3191.000000	64.972305  
3190.000000	65.005373  
3189.000000	65.037965  
3188.000000	65.066289  
3187.000000	65.088486  
3186.000000	65.104079  
3185.000000	65.114402  
3184.000000	65.121340  
3183.000000	65.127229  
3182.000000	65.134143  
3181.000000	65.143442  
3180.000000	65.155529  
3179.000000	65.170025  
3178.000000	65.186142  
3177.000000	65.202736  
3176.000000	65.218925  
3175.000000	65.233707  
3174.000000	65.246462  
3173.000000	65.256667  
3172.000000	65.264153  
3171.000000	65.268516  
3170.000000	65.269517  
3169.000000	65.267276  
3168.000000	65.262794  
3167.000000	65.257883  
3166.000000	65.254974  
3165.000000	65.257024  
3164.000000	65.266537  
3163.000000	65.284800  
3162.000000	65.311241  
3161.000000	65.343451  
3160.000000	65.377187  
3159.000000	65.407252  
3158.000000	65.428400  
3157.000000	65.436363  
3156.000000	65.428757  
3155.000000	65.405774  
3154.000000	65.370059  
3153.000000	65.325593  
3152.000000	65.277814  
3151.000000	65.232372  
3150.000000	65.194678  
3149.000000	65.169000  
3148.000000	65.158557  
3147.000000	65.164971  
3146.000000	65.188145  
3145.000000	65.225911  
3144.000000	65.273976  
3143.000000	65.326380  
3142.000000	65.375781  
3141.000000	65.415120  
3140.000000	65.438604  
3139.000000	65.443587  
3138.000000	65.431094  
3137.000000	65.406084  
3136.000000	65.376615  
3135.000000	65.351510  
3134.000000	65.338969  
3133.000000	65.343213  
3132.000000	65.363955  
3131.000000	65.395545  
3130.000000	65.428853  
3129.000000	65.453100  
3128.000000	65.459179  
3127.000000	65.441966  
3126.000000	65.401816  
3125.000000	65.344405  
3124.000000	65.279221  
3123.000000	65.217185  
3122.000000	65.167665  
3121.000000	65.136623  
3120.000000	65.125250  
3119.000000	65.130591  
3118.000000	65.147018  
3117.000000	65.167999  
3116.000000	65.188241  
3115.000000	65.204787  
3114.000000	65.217471  
3113.000000	65.228295  
3112.000000	65.240550  
3111.000000	65.256595  
3110.000000	65.277361  
3109.000000	65.301704  
3108.000000	65.326929  
3107.000000	65.349578  
3106.000000	65.366268  
3105.000000	65.374875  
3104.000000	65.374779  
3103.000000	65.367150  
3102.000000	65.354514  
3101.000000	65.339922  
3100.000000	65.326261  
3099.000000	65.315747  
3098.000000	65.309524  
3097.000000	65.307831  
3096.000000	65.309834  
3095.000000	65.314316  
3094.000000	65.319490  
3093.000000	65.323543  
3092.000000	65.324711  
3091.000000	65.321636  
3090.000000	65.313100  
3089.000000	65.298604  
3088.000000	65.278315  
3087.000000	65.253520  
3086.000000	65.226435  
3085.000000	65.200018  
3084.000000	65.177369  
3083.000000	65.161228  
3082.000000	65.153479  
3081.000000	65.154767  
3080.000000	65.164160  
3079.000000	65.179586  
3078.000000	65.198135  
3077.000000	65.216708  
3076.000000	65.232539  
3075.000000	65.243983  
3074.000000	65.250253  
3073.000000	65.251636  
3072.000000	65.249085  
3071.000000	65.243721  
3070.000000	65.236377  
3069.000000	65.227580  
3068.000000	65.217590  
3067.000000	65.206551  
3066.000000	65.194797  
3065.000000	65.182924  
3064.000000	65.171957  
3063.000000	65.163016  
3062.000000	65.157032  
3061.000000	65.154457  
3060.000000	65.155029  
3059.000000	65.157818  
3058.000000	65.161609  
3057.000000	65.165305  
3056.000000	65.168261  
3055.000000	65.170478  
3054.000000	65.172934  
3053.000000	65.176939  
3052.000000	65.183997  
3051.000000	65.195226  
3050.000000	65.211057  
3049.000000	65.231013  
3048.000000	65.253949  
3047.000000	65.278339  
3046.000000	65.302586  
3045.000000	65.325355  
3044.000000	65.345382  
3043.000000	65.361905  
3042.000000	65.373897  
3041.000000	65.380573  
3040.000000	65.380859  
3039.000000	65.373969  
3038.000000	65.359520  
3037.000000	65.338087  
3036.000000	65.311431  
3035.000000	65.282416  
3034.000000	65.254807  
3033.000000	65.232515  
3032.000000	65.218830  
3031.000000	65.215706  
3030.000000	65.223240  
3029.000000	65.239644  
3028.000000	65.261697  
3027.000000	65.285062  
3026.000000	65.305733  
3025.000000	65.320205  
3024.000000	65.326309  
3023.000000	65.323495  
3022.000000	65.312457  
3021.000000	65.295171  
3020.000000	65.274333  
3019.000000	65.252971  
3018.000000	65.233945  
3017.000000	65.219545  
3016.000000	65.211415  
3015.000000	65.210080  
3014.000000	65.215110  
3013.000000	65.225028  
3012.000000	65.237951  
3011.000000	65.251469  
3010.000000	65.263056  
3009.000000	65.270447  
3008.000000	65.272021  
3007.000000	65.267133  
3006.000000	65.256094  
3005.000000	65.240454  
3004.000000	65.222740  
3003.000000	65.205788  
3002.000000	65.192389  
3001.000000	65.184736  
3000.000000	65.183997  
2999.000000	65.190219  
2998.000000	65.202260  
2997.000000	65.218210  
2996.000000	65.235924  
2995.000000	65.253353  
2994.000000	65.268898  
2993.000000	65.281677  
2992.000000	65.291118  
2991.000000	65.296983  
2990.000000	65.298819  
2989.000000	65.295767  
2988.000000	65.286803  
2987.000000	65.271186  
2986.000000	65.248918  
2985.000000	65.221166  
2984.000000	65.190434  
2983.000000	65.160107  
2982.000000	65.133571  
2981.000000	65.113472  
2980.000000	65.100574  
2979.000000	65.093564  
2978.000000	65.089440  
2977.000000	65.084242  
2976.000000	65.074324  
2975.000000	65.057420  
2974.000000	65.033459  
2973.000000	65.004563  
2972.000000	64.974832  
2971.000000	64.949107  
2970.000000	64.931321  
2969.000000	64.923977  
2968.000000	64.927196  
2967.000000	64.939332  
2966.000000	64.957475  
2965.000000	64.978599  
2964.000000	65.000152  
2963.000000	65.020847  
2962.000000	65.040755  
2961.000000	65.060520  
2960.000000	65.080571  
2959.000000	65.100908  
2958.000000	65.120387  
2957.000000	65.137004  
2956.000000	65.148138  
2955.000000	65.151524  
2954.000000	65.145969  
2953.000000	65.131735  
2952.000000	65.110921  
2951.000000	65.086913  
2950.000000	65.064215  
2949.000000	65.047478  
2948.000000	65.040874  
2947.000000	65.047240  
2946.000000	65.067481  
2945.000000	65.101051  
2944.000000	65.144991  
2943.000000	65.194892  
2942.000000	65.244865  
2941.000000	65.288639  
2940.000000	65.320205  
2939.000000	65.334701  
2938.000000	65.329241  
2937.000000	65.303730  
2936.000000	65.260577  
2935.000000	65.204286  
2934.000000	65.140485  
2933.000000	65.074992  
2932.000000	65.012502  
2931.000000	64.956116  
2930.000000	64.906692  
2929.000000	64.863300  
2928.000000	64.824032  
2927.000000	64.787220  
2926.000000	64.751982  
2925.000000	64.719247  
2924.000000	64.691472  
2923.000000	64.672446  
2922.000000	64.665794  
2921.000000	64.674305  
2920.000000	64.698410  
2919.000000	64.736485  
2918.000000	64.784312  
2917.000000	64.836740  
2916.000000	64.888143  
2915.000000	64.934158  
2914.000000	64.972281  
2913.000000	65.002155  
2912.000000	65.025472  
2911.000000	65.044808  
2910.000000	65.062785  
2909.000000	65.080618  
2908.000000	65.098118  
2907.000000	65.113377  
2906.000000	65.123629  
2905.000000	65.126109  
2904.000000	65.119171  
2903.000000	65.103077  
2902.000000	65.080380  
2901.000000	65.054988  
2900.000000	65.031695  
2899.000000	65.014791  
2898.000000	65.007591  
2897.000000	65.011334  
2896.000000	65.025234  
2895.000000	65.047121  
2894.000000	65.074038  
2893.000000	65.102672  
2892.000000	65.130329  
2891.000000	65.155148  
2890.000000	65.176367  
2889.000000	65.193486  
2888.000000	65.206623  
2887.000000	65.215682  
2886.000000	65.220689  
2885.000000	65.221953  
2884.000000	65.219998  
2883.000000	65.215492  
2882.000000	65.209388  
2881.000000	65.203070  
2880.000000	65.197515  
2879.000000	65.193247  
2878.000000	65.190172  
2877.000000	65.187978  
2876.000000	65.185856  
2875.000000	65.182924  
2874.000000	65.178489  
2873.000000	65.172529  
2872.000000	65.165519  
2871.000000	65.158629  
2870.000000	65.153264  
2869.000000	65.151381  
2868.000000	65.154910  
2867.000000	65.165615  
2866.000000	65.184593  
2865.000000	65.211939  
2864.000000	65.246772  
2863.000000	65.286898  
2862.000000	65.329098  
2861.000000	65.368962  
2860.000000	65.401959  
2859.000000	65.423393  
2858.000000	65.429759  
2857.000000	65.418791  
2856.000000	65.390348  
2855.000000	65.345883  
2854.000000	65.288519  
2853.000000	65.222215  
2852.000000	65.151476  
2851.000000	65.080642  
2850.000000	65.013647  
2849.000000	64.953851  
2848.000000	64.904022  
2847.000000	64.866209  
2846.000000	64.841961  
2845.000000	64.832282  
2844.000000	64.837646  
2843.000000	64.857888  
2842.000000	64.892053  
2841.000000	64.938092  
2840.000000	64.993023  
2839.000000	65.052890  
2838.000000	65.113353  
2837.000000	65.169811  
2836.000000	65.218353  
2835.000000	65.256142  
2834.000000	65.281796  
2833.000000	65.295624  
2832.000000	65.299272  
2831.000000	65.295553  
2830.000000	65.287113  
2829.000000	65.276694  
2828.000000	65.265583  
2827.000000	65.253973  
2826.000000	65.240907  
2825.000000	65.225338  
2824.000000	65.206527  
2823.000000	65.184760  
2822.000000	65.162110  
2821.000000	65.142083  
2820.000000	65.128850  
2819.000000	65.125966  
2818.000000	65.135550  
2817.000000	65.157365  
2816.000000	65.188717  
2815.000000	65.224671  
2814.000000	65.259337  
2813.000000	65.287208  
2812.000000	65.304231  
2811.000000	65.308904  
2810.000000	65.302085  
2809.000000	65.286946  
2808.000000	65.268015  
2807.000000	65.250134  
2806.000000	65.236926  
2805.000000	65.230703  
2804.000000	65.232372  
2803.000000	65.241527  
2802.000000	65.257143  
2801.000000	65.277934  
2800.000000	65.303039  
2799.000000	65.331721  
2798.000000	65.363335  
2797.000000	65.396881  
2796.000000	65.430688  
2795.000000	65.462231  
2794.000000	65.488433  
2793.000000	65.506267  
2792.000000	65.513229  
2791.000000	65.508317  
2790.000000	65.492320  
2789.000000	65.467715  
2788.000000	65.438413  
2787.000000	65.408873  
2786.000000	65.383172  
2785.000000	65.364265  
2784.000000	65.353441  
2783.000000	65.349984  
2782.000000	65.351867  
2781.000000	65.356516  
2780.000000	65.361332  
2779.000000	65.364408  
2778.000000	65.365028  
2777.000000	65.363669  
2776.000000	65.361690  
2775.000000	65.360498  
2774.000000	65.361094  
2773.000000	65.363717  
2772.000000	65.367507  
2771.000000	65.370750  
2770.000000	65.371322  
2769.000000	65.367341  
2768.000000	65.357685  
2767.000000	65.342402  
2766.000000	65.322875  
2765.000000	65.301561  
2764.000000	65.281486  
2763.000000	65.265393  
2762.000000	65.255165  
2761.000000	65.251421  
2760.000000	65.253329  
2759.000000	65.258836  
2758.000000	65.265393  
2757.000000	65.270352  
2756.000000	65.272045  
2755.000000	65.269851  
2754.000000	65.264225  
2753.000000	65.256619  
2752.000000	65.248990  
2751.000000	65.243244  
2750.000000	65.240335  
2749.000000	65.240454  
2748.000000	65.242934  
2747.000000	65.246558  
2746.000000	65.249919  
2745.000000	65.251970  
2744.000000	65.252280  
2743.000000	65.251016  
2742.000000	65.248751  
2741.000000	65.246105  
2740.000000	65.243697  
2739.000000	65.241909  
2738.000000	65.240883  
2737.000000	65.240764  
2736.000000	65.241742  
2735.000000	65.244317  
2734.000000	65.249204  
2733.000000	65.257072  
2732.000000	65.268468  
2731.000000	65.283584  
2730.000000	65.302085  
2729.000000	65.322971  
2728.000000	65.345001  
2727.000000	65.366744  
2726.000000	65.387034  
2725.000000	65.405178  
2724.000000	65.421080  
2723.000000	65.435028  
2722.000000	65.447688  
2721.000000	65.459680  
2720.000000	65.471220  
2719.000000	65.482020  
2718.000000	65.491271  
2717.000000	65.497875  
2716.000000	65.500664  
2715.000000	65.498805  
2714.000000	65.492081  
2713.000000	65.480947  
2712.000000	65.466475  
2711.000000	65.450191  
2710.000000	65.433526  
2709.000000	65.417480  
2708.000000	65.402293  
2707.000000	65.387606  
2706.000000	65.372419  
2705.000000	65.355753  
2704.000000	65.337157  
2703.000000	65.317225  
2702.000000	65.297484  
2701.000000	65.280532  
2700.000000	65.269160  
2699.000000	65.265989  
2698.000000	65.272426  
2697.000000	65.288376  
2696.000000	65.312099  
2695.000000	65.340495  
2694.000000	65.369653  
2693.000000	65.395593  
2692.000000	65.415167  
2691.000000	65.426325  
2690.000000	65.428495  
2689.000000	65.422487  
2688.000000	65.410041  
2687.000000	65.393352  
2686.000000	65.374636  
2685.000000	65.355730  
2684.000000	65.337920  
2683.000000	65.322160  
2682.000000	65.308761  
2681.000000	65.297651  
2680.000000	65.288686  
2679.000000	65.281510  
2678.000000	65.275835  
2677.000000	65.271306  
2676.000000	65.267848  
2675.000000	65.265345  
2674.000000	65.264272  
2673.000000	65.265130  
2672.000000	65.268659  
2671.000000	65.275573  
2670.000000	65.286421  
2669.000000	65.301275  
2668.000000	65.319681  
2667.000000	65.340590  
2666.000000	65.362286  
2665.000000	65.382862  
2664.000000	65.400028  
2663.000000	65.411829  
2662.000000	65.416574  
2661.000000	65.413117  
2660.000000	65.401077  
2659.000000	65.380907  
2658.000000	65.353846  
2657.000000	65.321803  
2656.000000	65.287470  
2655.000000	65.253877  
2654.000000	65.224003  
2653.000000	65.200304  
2652.000000	65.184593  
2651.000000	65.177607  
2650.000000	65.178656  
2649.000000	65.186095  
2648.000000	65.197300  
2647.000000	65.209460  
2646.000000	65.219998  
2645.000000	65.227007  
2644.000000	65.229535  
2643.000000	65.227556  
2642.000000	65.221619  
2641.000000	65.212583  
2640.000000	65.201258  
2639.000000	65.188407  
2638.000000	65.174770  
2637.000000	65.161037  
2636.000000	65.148019  
2635.000000	65.136861  
2634.000000	65.128922  
2633.000000	65.125441  
2632.000000	65.127491  
2631.000000	65.135550  
2630.000000	65.149569  
2629.000000	65.168786  
2628.000000	65.192031  
2627.000000	65.217804  
2626.000000	65.244626  
2625.000000	65.271329  
2624.000000	65.296840  
2623.000000	65.320062  
2622.000000	65.340042  
2621.000000	65.355825  
2620.000000	65.366816  
2619.000000	65.372872  
2618.000000	65.374302  
2617.000000	65.372371  
2616.000000	65.368461  
2615.000000	65.364193  
2614.000000	65.360736  
2613.000000	65.358543  
2612.000000	65.357422  
2611.000000	65.356588  
2610.000000	65.355086  
2609.000000	65.352201  
2608.000000	65.347647  
2607.000000	65.341806  
2606.000000	65.335512  
2605.000000	65.329813  
2604.000000	65.325570  
2603.000000	65.323162  
2602.000000	65.322351  
2601.000000	65.322351  
2600.000000	65.322232  
2599.000000	65.321230  
2598.000000	65.318989  
2597.000000	65.315628  
2596.000000	65.311741  
2595.000000	65.307903  
2594.000000	65.304565  
2593.000000	65.301704  
2592.000000	65.299177  
2591.000000	65.296578  
2590.000000	65.293502  
2589.000000	65.289688  
2588.000000	65.285348  
2587.000000	65.280818  
2586.000000	65.276622  
2585.000000	65.273261  
2584.000000	65.271186  
2583.000000	65.270662  
2582.000000	65.271759  
2581.000000	65.274262  
2580.000000	65.278053  
2579.000000	65.282821  
2578.000000	65.288376  
2577.000000	65.294265  
2576.000000	65.299749  
2575.000000	65.304040  
2574.000000	65.306425  
2573.000000	65.306591  
2572.000000	65.304708  
2571.000000	65.301632  
2570.000000	65.298795  
2569.000000	65.297389  
2568.000000	65.298366  
2567.000000	65.301704  
2566.000000	65.306687  
2565.000000	65.312004  
2564.000000	65.316104  
2563.000000	65.317869  
2562.000000	65.316772  
2561.000000	65.313100  
2560.000000	65.307760  
2559.000000	65.301990  
2558.000000	65.297079  
2557.000000	65.293741  
2556.000000	65.292358  
2555.000000	65.292763  
2554.000000	65.294814  
2553.000000	65.298581  
2552.000000	65.304636  
2551.000000	65.313792  
2550.000000	65.326857  
2549.000000	65.344071  
2548.000000	65.364575  
2547.000000	65.386581  
2546.000000	65.407228  
2545.000000	65.423417  
2544.000000	65.432476  
2543.000000	65.433096  
2542.000000	65.425324  
2541.000000	65.410852  
2540.000000	65.392613  
2539.000000	65.374064  
2538.000000	65.358209  
2537.000000	65.346932  
2536.000000	65.340900  
2535.000000	65.339016  
2534.000000	65.339446  
2533.000000	65.339565  
2532.000000	65.337061  
2531.000000	65.330266  
2530.000000	65.318465  
2529.000000	65.301918  
2528.000000	65.281629  
2527.000000	65.259027  
2526.000000	65.235757  
2525.000000	65.213584  
2524.000000	65.194082  
2523.000000	65.179133  
2522.000000	65.170884  
2521.000000	65.171265  
2520.000000	65.181827  
2519.000000	65.203237  
2518.000000	65.235209  
2517.000000	65.275812  
2516.000000	65.322113  
2515.000000	65.370488  
2514.000000	65.417385  
2513.000000	65.460014  
2512.000000	65.496253  
2511.000000	65.525054  
2510.000000	65.545749  
2509.000000	65.558409  
2508.000000	65.563154  
2507.000000	65.560245  
2506.000000	65.550184  
2505.000000	65.534234  
2504.000000	65.514373  
2503.000000	65.493226  
2502.000000	65.473699  
2501.000000	65.458750  
2500.000000	65.450239  
2499.000000	65.448594  
2498.000000	65.452432  
2497.000000	65.458750  
2496.000000	65.463399  
2495.000000	65.462446  
2494.000000	65.452909  
2493.000000	65.433931  
2492.000000	65.406680  
2491.000000	65.374398  
2490.000000	65.341567  
2489.000000	65.313267  
2488.000000	65.293741  
2487.000000	65.285801  
2486.000000	65.290260  
2485.000000	65.305662  
2484.000000	65.329051  
2483.000000	65.356349  
2482.000000	65.383195  
2481.000000	65.405797  
2480.000000	65.421915  
2479.000000	65.430617  
2478.000000	65.432310  
2477.000000	65.428161  
2476.000000	65.419650  
2475.000000	65.407848  
2474.000000	65.393304  
2473.000000	65.375995  
2472.000000	65.355777  
2471.000000	65.332722  
2470.000000	65.307545  
2469.000000	65.281963  
2468.000000	65.258502  
2467.000000	65.240216  
2466.000000	65.230035  
2465.000000	65.230107  
2464.000000	65.241217  
2463.000000	65.262508  
2462.000000	65.291571  
2461.000000	65.325045  
2460.000000	65.359282  
2459.000000	65.390634  
2458.000000	65.416073  
2457.000000	65.433597  
2456.000000	65.442204  
2455.000000	65.441918  
2454.000000	65.433454  
2453.000000	65.418410  
2452.000000	65.398502  
2451.000000	65.375947  
2450.000000	65.352559  
2449.000000	65.329837  
2448.000000	65.308547  
2447.000000	65.288901  
2446.000000	65.270090  
2445.000000	65.250992  
2444.000000	65.230631  
2443.000000	65.208792  
2442.000000	65.186262  
2441.000000	65.164756  
2440.000000	65.147161  
2439.000000	65.136218  
2438.000000	65.133190  
2437.000000	65.137100  
2436.000000	65.144658  
2435.000000	65.150666  
2434.000000	65.148925  
2433.000000	65.134024  
2432.000000	65.102744  
2431.000000	65.055537  
2430.000000	64.996433  
2429.000000	64.932775  
2428.000000	64.873123  
2427.000000	64.826011  
2426.000000	64.797925  
2425.000000	64.792180  
2424.000000	64.808058  
2423.000000	64.841866  
2422.000000	64.887857  
2421.000000	64.939713  
2420.000000	64.991807  
2419.000000	65.040016  
2418.000000	65.082287  
2417.000000	65.118384  
2416.000000	65.149593  
2415.000000	65.178561  
2414.000000	65.208530  
2413.000000	65.243196  
2412.000000	65.285587  
2411.000000	65.337467  
2410.000000	65.398263  
2409.000000	65.465402  
2408.000000	65.533971  
2407.000000	65.597438  
2406.000000	65.648770  
2405.000000	65.682053  
2404.000000	65.693449  
2403.000000	65.682268  
2402.000000	65.650701  
2401.000000	65.604066  
2400.000000	65.549015  
2399.000000	65.492582  
2398.000000	65.440344  
2397.000000	65.396380  
2396.000000	65.361952  
2395.000000	65.336084  
2394.000000	65.316343  
2393.000000	65.299963  
2392.000000	65.284609  
2391.000000	65.269017  
2390.000000	65.252709  
2389.000000	65.236067  
2388.000000	65.219950  
2387.000000	65.205526  
2386.000000	65.193319  
2385.000000	65.183305  
2384.000000	65.175366  
2383.000000	65.169215  
2382.000000	65.164542  
2381.000000	65.161180  
2380.000000	65.159225  
2379.000000	65.159034  
2378.000000	65.160441  
2377.000000	65.163278  
2376.000000	65.167212  
2375.000000	65.172100  
2374.000000	65.177750  
2373.000000	65.184354  
2372.000000	65.192651  
2371.000000	65.203595  
2370.000000	65.218281  
2369.000000	65.237092  
2368.000000	65.259337  
2367.000000	65.283489  
2366.000000	65.307164  
2365.000000	65.327668  
2364.000000	65.342378  
2363.000000	65.349626  
2362.000000	65.349102  
2361.000000	65.341639  
2360.000000	65.328907  
2359.000000	65.313124  
2358.000000	65.296363  
2357.000000	65.280008  
2356.000000	65.264654  
2355.000000	65.250301  
2354.000000	65.236544  
2353.000000	65.223121  
2352.000000	65.210056  
2351.000000	65.197801  
2350.000000	65.187573  
2349.000000	65.180587  
2348.000000	65.178275  
2347.000000	65.181350  
2346.000000	65.190219  
2345.000000	65.204763  
2344.000000	65.224528  
2343.000000	65.248465  
2342.000000	65.275144  
2341.000000	65.302896  
2340.000000	65.329575  
2339.000000	65.352821  
2338.000000	65.370416  
2337.000000	65.380597  
2336.000000	65.382575  
2335.000000	65.376710  
2334.000000	65.364718  
2333.000000	65.349364  
2332.000000	65.334153  
2331.000000	65.322566  
2330.000000	65.317416  
2329.000000	65.320372  
2328.000000	65.331768  
2327.000000	65.350270  
2326.000000	65.373659  
2325.000000	65.398645  
2324.000000	65.422344  
2323.000000	65.442085  
2322.000000	65.455746  
2321.000000	65.462207  
2320.000000	65.461063  
2319.000000	65.452694  
2318.000000	65.438246  
2317.000000	65.419268  
2316.000000	65.397763  
2315.000000	65.375638  
2314.000000	65.354728  
2313.000000	65.336394  
2312.000000	65.321445  
2311.000000	65.310311  
2310.000000	65.303087  
2309.000000	65.299510  
2308.000000	65.299105  
2307.000000	65.301251  
2306.000000	65.305209  
2305.000000	65.309977  
2304.000000	65.314841  
2303.000000	65.319061  
2302.000000	65.322637  
2301.000000	65.325856  
2300.000000	65.329551  
2299.000000	65.334963  
2298.000000	65.343213  
2297.000000	65.355253  
2296.000000	65.370893  
2295.000000	65.389204  
2294.000000	65.408086  
2293.000000	65.424871  
2292.000000	65.436816  
2291.000000	65.441775  
2290.000000	65.438818  
2289.000000	65.428566  
2288.000000	65.412855  
2287.000000	65.394139  
2286.000000	65.375185  
2285.000000	65.358257  
2284.000000	65.345001  
2283.000000	65.335893  
2282.000000	65.330886  
2281.000000	65.329313  
2280.000000	65.330290  
2279.000000	65.332746  
2278.000000	65.335488  
2277.000000	65.337395  
2276.000000	65.337276  
2275.000000	65.334177  
2274.000000	65.327167  
2273.000000	65.315890  
2272.000000	65.300631  
2271.000000	65.282654  
2270.000000	65.263962  
2269.000000	65.246987  
2268.000000	65.234303  
2267.000000	65.228080  
2266.000000	65.229392  
2265.000000	65.238261  
2264.000000	65.253567  
2263.000000	65.273213  
2262.000000	65.294694  
2261.000000	65.315604  
2260.000000	65.333938  
2259.000000	65.348529  
2258.000000	65.359091  
2257.000000	65.366029  
2256.000000	65.370082  
2255.000000	65.372180  
2254.000000	65.373039  
2253.000000	65.372872  
2252.000000	65.371298  
2251.000000	65.367746  
2250.000000	65.361762  
2249.000000	65.353178  
2248.000000	65.342164  
2247.000000	65.329551  
2246.000000	65.316534  
2245.000000	65.304207  
2244.000000	65.293574  
2243.000000	65.285086  
2242.000000	65.278649  
2241.000000	65.273785  
2240.000000	65.270018  
2239.000000	65.266871  
2238.000000	65.264272  
2237.000000	65.262722  
2236.000000	65.263056  
2235.000000	65.266132  
2234.000000	65.272378  
2233.000000	65.281701  
2232.000000	65.293264  
2231.000000	65.305447  
2230.000000	65.316510  
2229.000000	65.324997  
2228.000000	65.330004  
2227.000000	65.331697  
2226.000000	65.330982  
2225.000000	65.329551  
2224.000000	65.329265  
2223.000000	65.331602  
2222.000000	65.337276  
2221.000000	65.345978  
2220.000000	65.356636  
2219.000000	65.367555  
2218.000000	65.376853  
2217.000000	65.382838  
2216.000000	65.384674  
2215.000000	65.382027  
2214.000000	65.375280  
2213.000000	65.365171  
2212.000000	65.352702  
2211.000000	65.338778  
2210.000000	65.324139  
2209.000000	65.309238  
2208.000000	65.294384  
2207.000000	65.279865  
2206.000000	65.266084  
2205.000000	65.253782  
2204.000000	65.243792  
2203.000000	65.237188  
2202.000000	65.235137  
2201.000000	65.238666  
2200.000000	65.248346  
2199.000000	65.264320  
2198.000000	65.285897  
2197.000000	65.311694  
2196.000000	65.339612  
2195.000000	65.367031  
2194.000000	65.391302  
2193.000000	65.410208  
2192.000000	65.422391  
2191.000000	65.427684  
2190.000000	65.427279  
2189.000000	65.423464  
2188.000000	65.418839  
2187.000000	65.415930  
2186.000000	65.416145  
2185.000000	65.419793  
2184.000000	65.425705  
2183.000000	65.431928  
2182.000000	65.436077  
2181.000000	65.436100  
2180.000000	65.431165  
2179.000000	65.421724  
2178.000000	65.409445  
2177.000000	65.396571  
2176.000000	65.385508  
2175.000000	65.377974  
2174.000000	65.374708  
2173.000000	65.375328  
2172.000000	65.378737  
2171.000000	65.383505  
2170.000000	65.388345  
2169.000000	65.392589  
2168.000000	65.395760  
2167.000000	65.398025  
2166.000000	65.399312  
2165.000000	65.399932  
2164.000000	65.400075  
2163.000000	65.400409  
2162.000000	65.401983  
2161.000000	65.406012  
2160.000000	65.414071  
2159.000000	65.426969  
2158.000000	65.444803  
2157.000000	65.465855  
2156.000000	65.487003  
2155.000000	65.503692  
2154.000000	65.510964  
2153.000000	65.504693  
2152.000000	65.482687  
2151.000000	65.445733  
2150.000000	65.397691  
2149.000000	65.344762  
2148.000000	65.294384  
2147.000000	65.253496  
2146.000000	65.227270  
2145.000000	65.217924  
2144.000000	65.224432  
2143.000000	65.243387  
2142.000000	65.269875  
2141.000000	65.298652  
2140.000000	65.325570  
2139.000000	65.347957  
2138.000000	65.365433  
2137.000000	65.379047  
2136.000000	65.390944  
2135.000000	65.403008  
2134.000000	65.416002  
2133.000000	65.429520  
2132.000000	65.441656  
2131.000000	65.449810  
2130.000000	65.451145  
2129.000000	65.443897  
2128.000000	65.427541  
2127.000000	65.403389  
2126.000000	65.374207  
2125.000000	65.343666  
2124.000000	65.315556  
2123.000000	65.293025  
2122.000000	65.278100  
2121.000000	65.271544  
2120.000000	65.272927  
2119.000000	65.281081  
2118.000000	65.294694  
2117.000000	65.312695  
2116.000000	65.334177  
2115.000000	65.358281  
2114.000000	65.383672  
2113.000000	65.408253  
2112.000000	65.429258  
2111.000000	65.443444  
2110.000000	65.447902  
2109.000000	65.440654  
2108.000000	65.421628  
2107.000000	65.392684  
2106.000000	65.357470  
2105.000000	65.320873  
2104.000000	65.288043  
2103.000000	65.263342  
2102.000000	65.249371  
2101.000000	65.246677  
2100.000000	65.254163  
2099.000000	65.269327  
2098.000000	65.289044  
2097.000000	65.310072  
2096.000000	65.329694  
2095.000000	65.345525  
2094.000000	65.355801  
2093.000000	65.358972  
2092.000000	65.353679  
2091.000000	65.339255  
2090.000000	65.316128  
2089.000000	65.285897  
2088.000000	65.251874  
2087.000000	65.219140  
2086.000000	65.193891  
2085.000000	65.181970  
2084.000000	65.187954  
2083.000000	65.213727  
2082.000000	65.258479  
2081.000000	65.318083  
2080.000000	65.386986  
2079.000000	65.459203  
2078.000000	65.529870  
2077.000000	65.596127  
2076.000000	65.657019  
2075.000000	65.713071  
2074.000000	65.764904  
2073.000000	65.812683  
2072.000000	65.854597  
2071.000000	65.887331  
2070.000000	65.906357  
2069.000000	65.907859  
2068.000000	65.889263  
2067.000000	65.850424  
2066.000000	65.793681  
2065.000000	65.723776  
2064.000000	65.646243  
2063.000000	65.566635  
2062.000000	65.489292  
2061.000000	65.417075  
2060.000000	65.351891  
2059.000000	65.295076  
2058.000000	65.248250  
2057.000000	65.213227  
2056.000000	65.191793  
2055.000000	65.185308  
2054.000000	65.193295  
2053.000000	65.213847  
2052.000000	65.242910  
2051.000000	65.275669  
2050.000000	65.306711  
2049.000000	65.331745  
2048.000000	65.348148  
2047.000000	65.355682  
2046.000000	65.355706  
2045.000000	65.350961  
2044.000000	65.344548  
2043.000000	65.339016  
2042.000000	65.335583  
2041.000000	65.334248  
2040.000000	65.334033  
2039.000000	65.333509  
2038.000000	65.331554  
2037.000000	65.327477  
2036.000000	65.321135  
2035.000000	65.312790  
2034.000000	65.303206  
2033.000000	65.292859  
2032.000000	65.282130  
2031.000000	65.271592  
2030.000000	65.261769  
2029.000000	65.253233  
2028.000000	65.246438  
2027.000000	65.242123  
2026.000000	65.240979  
2025.000000	65.243434  
2024.000000	65.249633  
2023.000000	65.259265  
2022.000000	65.271472  
2021.000000	65.285038  
2020.000000	65.298581  
2019.000000	65.310692  
2018.000000	65.320396  
2017.000000	65.327286  
2016.000000	65.331625  
2015.000000	65.334224  
2014.000000	65.336132  
2013.000000	65.338349  
2012.000000	65.341687  
2011.000000	65.346455  
2010.000000	65.352296  
2009.000000	65.358304  
2008.000000	65.363192  
2007.000000	65.365672  
2006.000000	65.364694  
2005.000000	65.359735  
2004.000000	65.351009  
2003.000000	65.339207  
2002.000000	65.325379  
2001.000000	65.310931  
2000.000000	65.296983  
1999.000000	65.284585  
1998.000000	65.274381  
1997.000000	65.266799  
1996.000000	65.261960  
1995.000000	65.259981  
1994.000000	65.260815  
1993.000000	65.264511  
1992.000000	65.270900  
1991.000000	65.279889  
1990.000000	65.291237  
1989.000000	65.304660  
1988.000000	65.319490  
1987.000000	65.334844  
1986.000000	65.349769  
1985.000000	65.363025  
1984.000000	65.373492  
1983.000000	65.380215  
1982.000000	65.382480  
1981.000000	65.380120  
1980.000000	65.373468  
1979.000000	65.363574  
1978.000000	65.351891  
1977.000000	65.340423  
1976.000000	65.330934  
1975.000000	65.324926  
1974.000000	65.323042  
1973.000000	65.325379  
1972.000000	65.331125  
1971.000000	65.339016  
1970.000000	65.347361  
1969.000000	65.354752  
1968.000000	65.359926  
1967.000000	65.361952  
1966.000000	65.360331  
1965.000000	65.355062  
1964.000000	65.346574  
1963.000000	65.335726  
1962.000000	65.323638  
1961.000000	65.311717  
1960.000000	65.301227  
1959.000000	65.293169  
1958.000000	65.287947  
1957.000000	65.285396  
1956.000000	65.284776  
1955.000000	65.285205  
1954.000000	65.285754  
1953.000000	65.285634  
1952.000000	65.284752  
1951.000000	65.283775  
1950.000000	65.283703  
1949.000000	65.285825  
1948.000000	65.291500  
1947.000000	65.301632  
1946.000000	65.316438  
1945.000000	65.335416  
1944.000000	65.357398  
1943.000000	65.381026  
1942.000000	65.404558  
1941.000000	65.426611  
1940.000000	65.446066  
1939.000000	65.462231  
1938.000000	65.474820  
1937.000000	65.484023  
1936.000000	65.490269  
1935.000000	65.494227  
1934.000000	65.496468  
1933.000000	65.497279  
1932.000000	65.496540  
1931.000000	65.493798  
1930.000000	65.488505  
1929.000000	65.480184  
1928.000000	65.468502  
1927.000000	65.453720  
1926.000000	65.436649  
1925.000000	65.418457  
1924.000000	65.400409  
1923.000000	65.383577  
1922.000000	65.368604  
1921.000000	65.355563  
1920.000000	65.343904  
1919.000000	65.332722  
1918.000000	65.321183  
1917.000000	65.308856  
1916.000000	65.295982  
1915.000000	65.283155  
1914.000000	65.271496  
1913.000000	65.262126  
1912.000000	65.255808  
1911.000000	65.252494  
1910.000000	65.251564  
1909.000000	65.252161  
1908.000000	65.253257  
1907.000000	65.254187  
1906.000000	65.254855  
1905.000000	65.255713  
1904.000000	65.257668  
1903.000000	65.261888  
1902.000000	65.269136  
1901.000000	65.279793  
1900.000000	65.293622  
1899.000000	65.309739  
1898.000000	65.327239  
1897.000000	65.345048  
1896.000000	65.362548  
1895.000000	65.379357  
1894.000000	65.395426  
1893.000000	65.410542  
1892.000000	65.424537  
1891.000000	65.436911  
1890.000000	65.446662  
1889.000000	65.452456  
1888.000000	65.453267  
1887.000000	65.448093  
1886.000000	65.436387  
1885.000000	65.418100  
1884.000000	65.393948  
1883.000000	65.365409  
1882.000000	65.334582  
1881.000000	65.304112  
1880.000000	65.276813  
1879.000000	65.255451  
1878.000000	65.242099  
1877.000000	65.237903  
1876.000000	65.242671  
1875.000000	65.254807  
1874.000000	65.271544  
1873.000000	65.289258  
1872.000000	65.304160  
1871.000000	65.313100  
1870.000000	65.314364  
1869.000000	65.307641  
1868.000000	65.294384  
1867.000000	65.277338  
1866.000000	65.259838  
1865.000000	65.245127  
1864.000000	65.235590  
1863.000000	65.232610  
1862.000000	65.236186  
1861.000000	65.245270  
1860.000000	65.257930  
1859.000000	65.271902  
1858.000000	65.284895  
1857.000000	65.295004  
1856.000000	65.301203  
1855.000000	65.303206  
1854.000000	65.301775  
1853.000000	65.298342  
1852.000000	65.294981  
1851.000000	65.293908  
1850.000000	65.297007  
1849.000000	65.305495  
1848.000000	65.319490  
1847.000000	65.337800  
1846.000000	65.358114  
1845.000000	65.377473  
1844.000000	65.392899  
1843.000000	65.402102  
1842.000000	65.403938  
1841.000000	65.398788  
1840.000000	65.388393  
1839.000000	65.375494  
1838.000000	65.363264  
1837.000000	65.354466  
1836.000000	65.351009  
1835.000000	65.353631  
1834.000000	65.361905  
1833.000000	65.374374  
1832.000000	65.389132  
1831.000000	65.404009  
1830.000000	65.416979  
1829.000000	65.426635  
1828.000000	65.432262  
1827.000000	65.433597  
1826.000000	65.430760  
1825.000000	65.424394  
1824.000000	65.415406  
1823.000000	65.404701  
1822.000000	65.393257  
1821.000000	65.381813  
1820.000000	65.370750  
1819.000000	65.360283  
1818.000000	65.350294  
1817.000000	65.340447  
1816.000000	65.330648  
1815.000000	65.320897  
1814.000000	65.311765  
1813.000000	65.304207  
1812.000000	65.299463  
1811.000000	65.298914  
1810.000000	65.303349  
1809.000000	65.312981  
1808.000000	65.326952  
1807.000000	65.343618  
1806.000000	65.360641  
1805.000000	65.375351  
1804.000000	65.385365  
1803.000000	65.389060  
1802.000000	65.385866  
1801.000000	65.376496  
1800.000000	65.362501  
1799.000000	65.346026  
1798.000000	65.329408  
1797.000000	65.314745  
1796.000000	65.303444  
1795.000000	65.296077  
1794.000000	65.292620  
1793.000000	65.292716  
1792.000000	65.295505  
1791.000000	65.300250  
1790.000000	65.306162  
1789.000000	65.312695  
1788.000000	65.319371  
1787.000000	65.325856  
1786.000000	65.331912  
1785.000000	65.337491  
1784.000000	65.342736  
1783.000000	65.347790  
1782.000000	65.352749  
1781.000000	65.357661  
1780.000000	65.362596  
1779.000000	65.367436  
1778.000000	65.372014  
1777.000000	65.376138  
1776.000000	65.379691  
1775.000000	65.382456  
1774.000000	65.384244  
1773.000000	65.384721  
1772.000000	65.383410  
1771.000000	65.379476  
1770.000000	65.371894  
1769.000000	65.359377  
1768.000000	65.340805  
1767.000000	65.315604  
1766.000000	65.283823  
1765.000000	65.246462  
1764.000000	65.205287  
1763.000000	65.162420  
1762.000000	65.120387  
1761.000000	65.081310  
1760.000000	65.047287  
1759.000000	65.019893  
1758.000000	65.000724  
1757.000000	64.990568  
1756.000000	64.990162  
1755.000000	64.999318  
1754.000000	65.017294  
1753.000000	65.042209  
1752.000000	65.071654  
1751.000000	65.102458  
1750.000000	65.131783  
1749.000000	65.157294  
1748.000000	65.177559  
1747.000000	65.192341  
1746.000000	65.202164  
1745.000000	65.208053  
1744.000000	65.210390  
1743.000000	65.208435  
1742.000000	65.200376  
1741.000000	65.183973  
1740.000000	65.157246  
1739.000000	65.119767  
1738.000000	65.073466  
1737.000000	65.022826  
1736.000000	64.973855  
1735.000000	64.933061  
1734.000000	64.905786  
1733.000000	64.895200  
1732.000000	64.900946  
1731.000000	64.919972  
1730.000000	64.946937  
1729.000000	64.976000  
1728.000000	65.001893  
1727.000000	65.021324  
1726.000000	65.033316  
1725.000000	65.039348  
1724.000000	65.041899  
1723.000000	65.044140  
1722.000000	65.048241  
1721.000000	65.055584  
1720.000000	65.066337  
1719.000000	65.079784  
1718.000000	65.094757  
1717.000000	65.110135  
1716.000000	65.125155  
1715.000000	65.139341  
1714.000000	65.152359  
1713.000000	65.163993  
1712.000000	65.174221  
1711.000000	65.183138  
1710.000000	65.191078  
1709.000000	65.198612  
1708.000000	65.206336  
1707.000000	65.215110  
1706.000000	65.225744  
1705.000000	65.238404  
1704.000000	65.252923  
1703.000000	65.268731  
1702.000000	65.285038  
1701.000000	65.301084  
1700.000000	65.316510  
1699.000000	65.331506  
1698.000000	65.346622  
1697.000000	65.362572  
1696.000000	65.379405  
1695.000000	65.396475  
1694.000000	65.412068  
1693.000000	65.423822  
1692.000000	65.429091  
1691.000000	65.425705  
1690.000000	65.412640  
1689.000000	65.390563  
1688.000000	65.361618  
1687.000000	65.329241  
1686.000000	65.297412  
1685.000000	65.269827  
1684.000000	65.249037  
1683.000000	65.236186  
1682.000000	65.230870  
1681.000000	65.231871  
1680.000000	65.237379  
1679.000000	65.245819  
1678.000000	65.256214  
1677.000000	65.268397  
1676.000000	65.282464  
1675.000000	65.298700  
1674.000000	65.316867  
1673.000000	65.336108  
1672.000000	65.354800  
1671.000000	65.370631  
1670.000000	65.381646  
1669.000000	65.386271  
1668.000000	65.383911  
1667.000000	65.374994  
1666.000000	65.360879  
1665.000000	65.343308  
1664.000000	65.324115  
1663.000000	65.304756  
1662.000000	65.286183  
1661.000000	65.268921  
1660.000000	65.253210  
1659.000000	65.239048  
1658.000000	65.226554  
1657.000000	65.216088  
1656.000000	65.208172  
1655.000000	65.203309  
1654.000000	65.201759  
1653.000000	65.203547  
1652.000000	65.208220  
1651.000000	65.214753  
1650.000000	65.221691  
1649.000000	65.227413  
1648.000000	65.230536  
1647.000000	65.229964  
1646.000000	65.225434  
1645.000000	65.217328  
1644.000000	65.206837  
1643.000000	65.195608  
1642.000000	65.185570  
1641.000000	65.178489  
1640.000000	65.175485  
1639.000000	65.176796  
1638.000000	65.181612  
1637.000000	65.188312  
1636.000000	65.194702  
1635.000000	65.198636  
1634.000000	65.198564  
1633.000000	65.193939  
1632.000000	65.185427  
1631.000000	65.174531  
1630.000000	65.163564  
1629.000000	65.154838  
1628.000000	65.150094  
1627.000000	65.149974  
1626.000000	65.153932  
1625.000000	65.160226  
1624.000000	65.166449  
1623.000000	65.170168  
1622.000000	65.169501  
1621.000000	65.163683  
1620.000000	65.153241  
1619.000000	65.139865  
1618.000000	65.125966  
1617.000000	65.114235  
1616.000000	65.106987  
1615.000000	65.105724  
1614.000000	65.110850  
1613.000000	65.121531  
1612.000000	65.135955  
1611.000000	65.151715  
1610.000000	65.166354  
1609.000000	65.178060  
1608.000000	65.185976  
1607.000000	65.190148  
1606.000000	65.191507  
1605.000000	65.191411  
1604.000000	65.191125  
1603.000000	65.191340  
1602.000000	65.192031  
1601.000000	65.192580  
1600.000000	65.192151  
1599.000000	65.189933  
1598.000000	65.185523  
1597.000000	65.178990  
1596.000000	65.171003  
1595.000000	65.162491  
1594.000000	65.154671  
1593.000000	65.148758  
1592.000000	65.145897  
1591.000000	65.146708  
1590.000000	65.151405  
1589.000000	65.159940  
1588.000000	65.171504  
1587.000000	65.185070  
1586.000000	65.198993  
1585.000000	65.211200  
1584.000000	65.219497  
1583.000000	65.221977  
1582.000000	65.217065  
1581.000000	65.203809  
1580.000000	65.182447  
1579.000000	65.154314  
1578.000000	65.121674  
1577.000000	65.087461  
1576.000000	65.054893  
1575.000000	65.026855  
1574.000000	65.005540  
1573.000000	64.991831  
1572.000000	64.985466  
1571.000000	64.985036  
1570.000000	64.988183  
1569.000000	64.992070  
1568.000000	64.993643  
1567.000000	64.990806  
1566.000000	64.982128  
1565.000000	64.967656  
1564.000000	64.948487  
1563.000000	64.927005  
1562.000000	64.906191  
1561.000000	64.889645  
1560.000000	64.880418  
1559.000000	64.881014  
1558.000000	64.892768  
1557.000000	64.915800  
1556.000000	64.948773  
1555.000000	64.989161  
1554.000000	65.033674  
1553.000000	65.078592  
1552.000000	65.120410  
1551.000000	65.156245  
1550.000000	65.184235  
1549.000000	65.203762  
1548.000000	65.215396  
1547.000000	65.220737  
1546.000000	65.221810  
1545.000000	65.220975  
1544.000000	65.220236  
1543.000000	65.220713  
1542.000000	65.222406  
1541.000000	65.224766  
1540.000000	65.226411  
1539.000000	65.225601  
1538.000000	65.220761  
1537.000000	65.210890  
1536.000000	65.196084  
1535.000000	65.177297  
1534.000000	65.156507  
1533.000000	65.136098  
1532.000000	65.118598  
1531.000000	65.106058  
1530.000000	65.099692  
1529.000000	65.099668  
1528.000000	65.105080  
1527.000000	65.114355  
1526.000000	65.125322  
1525.000000	65.135765  
1524.000000	65.143990  
1523.000000	65.148997  
1522.000000	65.150403  
1521.000000	65.148520  
1520.000000	65.144371  
1519.000000	65.139389  
1518.000000	65.135216  
1517.000000	65.133166  
1516.000000	65.134596  
1515.000000	65.140295  
1514.000000	65.150713  
1513.000000	65.165472  
1512.000000	65.183615  
1511.000000	65.203475  
1510.000000	65.223073  
1509.000000	65.240240  
1508.000000	65.253090  
1507.000000	65.260291  
1506.000000	65.261507  
1505.000000	65.257191  
1504.000000	65.248560  
1503.000000	65.237426  
1502.000000	65.225672  
1501.000000	65.214896  
1500.000000	65.205979  
1499.000000	65.199112  
1498.000000	65.193819  
1497.000000	65.189218  
1496.000000	65.184187  
1495.000000	65.177917  
1494.000000	65.169954  
1493.000000	65.160155  
1492.000000	65.148830  
1491.000000	65.136551  
1490.000000	65.123939  
1489.000000	65.111541  
1488.000000	65.099859  
1487.000000	65.089201  
1486.000000	65.079784  
1485.000000	65.071725  
1484.000000	65.065073  
1483.000000	65.059828  
1482.000000	65.056300  
1481.000000	65.054678  
1480.000000	65.055513  
1479.000000	65.059208  
1478.000000	65.066027  
1477.000000	65.075945  
1476.000000	65.088224  
1475.000000	65.101885  
1474.000000	65.115284  
1473.000000	65.126490  
1472.000000	65.133738  
1471.000000	65.135860  
1470.000000	65.132784  
1469.000000	65.125465  
1468.000000	65.116000  
1467.000000	65.107011  
1466.000000	65.101170  
1465.000000	65.100502  
1464.000000	65.105676  
1463.000000	65.116095  
1462.000000	65.130257  
1461.000000	65.146112  
1460.000000	65.161633  
1459.000000	65.175676  
1458.000000	65.187859  
1457.000000	65.198945  
1456.000000	65.210080  
1455.000000	65.222835  
1454.000000	65.238237  
1453.000000	65.256762  
1452.000000	65.278077  
1451.000000	65.301227  
1450.000000	65.325021  
1449.000000	65.348148  
1448.000000	65.369606  
1447.000000	65.388393  
1446.000000	65.403604  
1445.000000	65.414166  
1444.000000	65.418982  
1443.000000	65.416860  
1442.000000	65.406775  
1441.000000	65.388321  
1440.000000	65.361833  
1439.000000	65.328335  
1438.000000	65.289449  
1437.000000	65.247297  
1436.000000	65.204215  
1435.000000	65.162467  
1434.000000	65.124058  
1433.000000	65.090441  
1432.000000	65.062642  
1431.000000	65.041184  
1430.000000	65.026211  
1429.000000	65.017271  
1428.000000	65.013742  
1427.000000	65.014648  
1426.000000	65.019011  
1425.000000	65.025448  
1424.000000	65.032935  
1423.000000	65.040636  
1422.000000	65.048122  
1421.000000	65.055036  
1420.000000	65.061450  
1419.000000	65.067648  
1418.000000	65.073966  
1417.000000	65.080785  
1416.000000	65.088677  
1415.000000	65.098381  
1414.000000	65.110731  
1413.000000	65.126204  
1412.000000	65.144920  
1411.000000	65.165972  
1410.000000	65.187716  
1409.000000	65.207600  
1408.000000	65.222787  
1407.000000	65.230751  
1406.000000	65.229892  
1405.000000	65.220165  
1404.000000	65.202999  
1403.000000	65.181040  
1402.000000	65.158033  
1401.000000	65.137529  
1400.000000	65.122246  
1399.000000	65.113258  
1398.000000	65.110111  
1397.000000	65.110683  
1396.000000	65.111994  
1395.000000	65.110945  
1394.000000	65.105128  
1393.000000	65.093469  
1392.000000	65.076494  
1391.000000	65.056228  
1390.000000	65.035390  
1389.000000	65.017008  
1388.000000	65.003490  
1387.000000	64.996123  
1386.000000	64.994978  
1385.000000	64.998865  
1384.000000	65.005612  
1383.000000	65.012717  
1382.000000	65.017819  
1381.000000	65.019249  
1380.000000	65.016269  
1379.000000	65.009164  
1378.000000	64.999246  
1377.000000	64.988446  
1376.000000	64.978790  
1375.000000	64.972114  
1374.000000	64.969801  
1373.000000	64.972448  
1372.000000	64.979767  
1371.000000	64.990711  
1370.000000	65.003514  
1369.000000	65.016198  
1368.000000	65.026879  
1367.000000	65.034198  
1366.000000	65.037918  
1365.000000	65.038681  
1364.000000	65.037965  
1363.000000	65.037608  
1362.000000	65.039110  
1361.000000	65.042924  
1360.000000	65.048503  
1359.000000	65.054607  
1358.000000	65.059447  
1357.000000	65.061783  
1356.000000	65.061402  
1355.000000	65.059614  
1354.000000	65.058469  
1353.000000	65.060329  
1352.000000	65.067076  
1351.000000	65.079140  
1350.000000	65.095281  
1349.000000	65.112566  
1348.000000	65.127110  
1347.000000	65.134930  
1346.000000	65.133452  
1345.000000	65.122103  
1344.000000	65.102314  
1343.000000	65.077209  
1342.000000	65.050816  
1341.000000	65.026855  
1340.000000	65.007948  
1339.000000	64.995384  
1338.000000	64.989161  
1337.000000	64.988374  
1336.000000	64.992022  
1335.000000	64.999294  
1334.000000	65.010023  
1333.000000	65.024304  
1332.000000	65.042424  
1331.000000	65.064215  
1330.000000	65.089130  
1329.000000	65.115952  
1328.000000	65.142965  
1327.000000	65.168404  
1326.000000	65.190243  
1325.000000	65.207242  
1324.000000	65.218114  
1323.000000	65.221786  
1322.000000	65.217137  
1321.000000	65.203261  
1320.000000	65.179491  
1319.000000	65.146160  
1318.000000	65.104770  
1317.000000	65.058231  
1316.000000	65.010523  
1315.000000	64.966559  
1314.000000	64.930820  
1313.000000	64.906597  
1312.000000	64.895319  
1311.000000	64.896535  
1310.000000	64.907908  
1309.000000	64.925932  
1308.000000	64.946746  
1307.000000	64.967036  
1306.000000	64.984464  
1305.000000	64.998388  
1304.000000	65.009498  
1303.000000	65.019536  
1302.000000	65.030360  
1301.000000	65.043449  
1300.000000	65.059590  
1299.000000	65.078496  
1298.000000	65.099096  
1297.000000	65.119504  
1296.000000	65.137505  
1295.000000	65.150880  
1294.000000	65.157842  
1293.000000	65.156984  
1292.000000	65.147566  
1291.000000	65.129446  
1290.000000	65.103363  
1289.000000	65.070915  
1288.000000	65.034365  
1287.000000	64.996814  
1286.000000	64.962077  
1285.000000	64.934039  
1284.000000	64.916157  
1283.000000	64.910984  
1282.000000	64.919662  
1281.000000	64.941239  
1280.000000	64.972686  
1279.000000	65.009355  
1278.000000	65.045475  
1277.000000	65.074896  
1276.000000	65.092563  
1275.000000	65.094876  
1274.000000	65.081048  
1273.000000	65.052795  
1272.000000	65.014529  
1271.000000	64.972329  
1270.000000	64.932751  
1269.000000	64.901733  
1268.000000	64.883255  
1267.000000	64.878821  
1266.000000	64.887237  
1265.000000	64.905285  
1264.000000	64.928269  
1263.000000	64.951300  
1262.000000	64.970207  
1261.000000	64.982533  
1260.000000	64.987850  
1259.000000	64.987230  
1258.000000	64.983034  
1257.000000	64.977765  
1256.000000	64.973759  
1255.000000	64.972519  
1254.000000	64.974689  
1253.000000	64.980149  
1252.000000	64.988398  
1251.000000	64.998865  
1250.000000	65.011072  
1249.000000	65.024685  
1248.000000	65.039396  
1247.000000	65.054678  
1246.000000	65.070247  
1245.000000	65.085411  
1244.000000	65.099334  
1243.000000	65.111088  
1242.000000	65.119767  
1241.000000	65.124344  
1240.000000	65.124177  
1239.000000	65.118908  
1238.000000	65.108346  
1237.000000	65.092921  
1236.000000	65.073919  
1235.000000	65.053415  
1234.000000	65.034174  
1233.000000	65.019202  
1232.000000	65.011239  
1231.000000	65.011882  
1230.000000	65.021228  
1229.000000	65.037393  
1228.000000	65.056705  
1227.000000	65.074491  
1226.000000	65.086007  
1225.000000	65.087580  
1224.000000	65.077424  
1223.000000	65.056109  
1222.000000	65.026426  
1221.000000	64.992451  
1220.000000	64.958667  
1219.000000	64.928650  
1218.000000	64.904546  
1217.000000	64.886522  
1216.000000	64.873456  
1215.000000	64.863729  
1214.000000	64.855980  
1213.000000	64.849781  
1212.000000	64.845848  
1211.000000	64.845657  
1210.000000	64.850854  
1209.000000	64.862155  
1208.000000	64.879488  
1207.000000	64.901113  
1206.000000	64.924645  
1205.000000	64.947223  
1204.000000	64.966511  
1203.000000	64.981222  
1202.000000	64.991402  
1201.000000	64.998269  
1200.000000	65.003490  
1199.000000	65.008592  
1198.000000	65.014338  
1197.000000	65.020561  
1196.000000	65.026664  
1195.000000	65.031814  
1194.000000	65.035486  
1193.000000	65.037488  
1192.000000	65.037989  
1191.000000	65.037322  
1190.000000	65.035700  
1189.000000	65.033102  
1188.000000	65.029263  
1187.000000	65.023994  
1186.000000	65.017461  
1185.000000	65.010046  
1184.000000	65.002369  
1183.000000	64.995121  
1182.000000	64.988756  
1181.000000	64.983606  
1180.000000	64.979910  
1179.000000	64.977884  
1178.000000	64.977884  
1177.000000	64.980435  
1176.000000	64.986324  
1175.000000	64.996194  
1174.000000	65.009975  
1173.000000	65.026617  
1172.000000	65.043854  
1171.000000	65.058183  
1170.000000	65.065836  
1169.000000	65.063738  
1168.000000	65.050601  
1167.000000	65.027403  
1166.000000	64.997553  
1165.000000	64.966416  
1164.000000	64.940023  
1163.000000	64.923429  
1162.000000	64.919376  
1161.000000	64.927792  
1160.000000	64.945602  
1159.000000	64.967560  
1158.000000	64.987468  
1157.000000	64.999604  
1156.000000	65.000343  
1155.000000	64.988756  
1154.000000	64.966678  
1153.000000	64.937782  
1152.000000	64.906859  
1151.000000	64.878535  
1150.000000	64.856624  
1149.000000	64.843225  
1148.000000	64.839076  
1147.000000	64.843630  
1146.000000	64.855360  
1145.000000	64.871978  
1144.000000	64.890837  
1143.000000	64.908981  
1142.000000	64.923262  
1141.000000	64.930629  
1140.000000	64.928126  
1139.000000	64.913630  
1138.000000	64.886236  
1137.000000	64.846563  
1136.000000	64.796996  
1135.000000	64.741921  
1134.000000	64.686870  
1133.000000	64.638233  
1132.000000	64.601778  
1131.000000	64.582371  
1130.000000	64.582657  
1129.000000	64.603233  
1128.000000	64.641976  
1127.000000	64.695048  
1126.000000	64.757323  
1125.000000	64.823150  
1124.000000	64.886927  
1123.000000	64.943861  
1122.000000	64.990210  
1121.000000	65.023684  
1120.000000	65.043306  
1119.000000	65.049266  
1118.000000	65.042543  
1117.000000	65.025377  
1116.000000	65.000653  
1115.000000	64.971971  
1114.000000	64.943051  
1113.000000	64.917659  
1112.000000	64.898467  
1111.000000	64.887070  
1110.000000	64.883279  
1109.000000	64.885282  
1108.000000	64.889907  
1107.000000	64.893460  
1106.000000	64.892458  
1105.000000	64.884448  
1104.000000	64.868259  
1103.000000	64.844155  
1102.000000	64.813566  
1101.000000	64.778900  
1100.000000	64.742875  
1099.000000	64.708042  
1098.000000	64.676976  
1097.000000	64.651751  
1096.000000	64.634251  
1095.000000	64.626097  
1094.000000	64.628505  
1093.000000	64.641785  
1092.000000	64.665555  
1091.000000	64.698433  
1090.000000	64.737629  
1089.000000	64.779329  
1088.000000	64.819025  
1087.000000	64.852428  
1086.000000	64.876055  
1085.000000	64.888024  
1084.000000	64.888000  
1083.000000	64.877367  
1082.000000	64.859294  
1081.000000	64.837431  
1080.000000	64.815306  
1079.000000	64.795637  
1078.000000	64.780259  
1077.000000	64.769530  
1076.000000	64.762783  
1075.000000	64.758610  
1074.000000	64.755654  
1073.000000	64.753127  
1072.000000	64.751124  
1071.000000	64.750647  
1070.000000	64.753007  
1069.000000	64.759230  
1068.000000	64.769387  
1067.000000	64.782452  
1066.000000	64.796042  
1065.000000	64.807057  
1064.000000	64.812517  
1063.000000	64.810228  
1062.000000	64.799666  
1061.000000	64.781951  
1060.000000	64.760136  
1059.000000	64.738059  
1058.000000	64.720034  
1057.000000	64.709758  
1056.000000	64.710116  
1055.000000	64.721989  
1054.000000	64.744758  
1053.000000	64.776706  
1052.000000	64.814853  
1051.000000	64.855742  
1050.000000	64.895439  
1049.000000	64.930391  
1048.000000	64.957094  
1047.000000	64.972758  
1046.000000	64.975619  
1045.000000	64.965224  
1044.000000	64.942479  
1043.000000	64.909768  
1042.000000	64.870333  
1041.000000	64.827847  
1040.000000	64.786028  
1039.000000	64.747953  
1038.000000	64.715671  
1037.000000	64.690136  
1036.000000	64.671397  
1035.000000	64.658975  
1034.000000	64.652228  
1033.000000	64.650821  
1032.000000	64.654159  
1031.000000	64.661693  
1030.000000	64.672303  
1029.000000	64.684391  
1028.000000	64.695525  
1027.000000	64.702963  
1026.000000	64.704394  
1025.000000	64.698100  
1024.000000	64.683890  
1023.000000	64.662480  
1022.000000	64.635396  
1021.000000	64.604520  
1020.000000	64.571619  
1019.000000	64.538550  
1018.000000	64.507150  
1017.000000	64.479422  
1016.000000	64.457678  
1015.000000	64.444351  
1014.000000	64.441418  
1013.000000	64.449977  
1012.000000	64.469742  
1011.000000	64.498329  
1010.000000	64.531469  
1009.000000	64.563584  
1008.000000	64.588832  
1007.000000	64.602065  
1006.000000	64.599990  
1005.000000	64.581775  
1004.000000	64.549446  
1003.000000	64.506983  
1002.000000	64.460062  
1001.000000	64.414310  
1000.000000	64.375257  
999.000000	 64.347171  
998.000000	 64.332985  
997.000000	 64.334273  
996.000000	 64.350771  
995.000000	 64.380979  
994.000000	 64.421868  
993.000000	 64.469051  
992.000000	 64.517760  
991.000000	 64.563226  
990.000000	 64.601612  
989.000000	 64.630484  
988.000000	 64.649200  
987.000000	 64.658999  
986.000000	 64.662694  
985.000000	 64.663720  
984.000000	 64.665246  
983.000000	 64.669322  
982.000000	 64.676451  
981.000000	 64.685416  
980.000000	 64.693856  
979.000000	 64.698934  
978.000000	 64.698386  
977.000000	 64.691543  
976.000000	 64.679646  
975.000000	 64.665746  
974.000000	 64.653825  
973.000000	 64.647889  
972.000000	 64.650583  
971.000000	 64.662647  
970.000000	 64.682507  
969.000000	 64.706206  
968.000000	 64.728617  
967.000000	 64.744210  
966.000000	 64.748549  
965.000000	 64.739274  
964.000000	 64.716410  
963.000000	 64.682531  
962.000000	 64.642071  
961.000000	 64.600157  
960.000000	 64.561557  
959.000000	 64.530110  
958.000000	 64.508247  
957.000000	 64.497303  
956.000000	 64.497566  
955.000000	 64.508461  
954.000000	 64.528679  
953.000000	 64.556288  
952.000000	 64.588737  
951.000000	 64.622449  
950.000000	 64.653754  
949.000000	 64.679336  
948.000000	 64.696955  
947.000000	 64.705777  
946.000000	 64.706301  
945.000000	 64.700269  
944.000000	 64.689683  
943.000000	 64.676260  
942.000000	 64.660692  
941.000000	 64.642620  
940.000000	 64.621543  
939.000000	 64.597010  
938.000000	 64.571070  
937.000000	 64.548254  
936.000000	 64.535403  
935.000000	 64.540266  
934.000000	 64.569664  
933.000000	 64.627408  
932.000000	 64.712214  
931.000000	 64.817047  
930.000000	 64.929866  
929.000000	 65.035581  
928.000000	 65.119862  
927.000000	 65.171623  
926.000000	 65.185236  
925.000000	 65.161061  
924.000000	 65.105032  
923.000000	 65.026593  
922.000000	 64.937019  
921.000000	 64.846253  
920.000000	 64.761948  
919.000000	 64.688158  
918.000000	 64.626812  
917.000000	 64.577579  
916.000000	 64.540219  
915.000000	 64.513778  
914.000000	 64.497637  
913.000000	 64.489912  
912.000000	 64.487481  
911.000000	 64.485383  
910.000000	 64.476728  
909.000000	 64.454841  
908.000000	 64.414215  
907.000000	 64.354109  
906.000000	 64.278984  
905.000000	 64.199161  
904.000000	 64.128446  
903.000000	 64.081621  
902.000000	 64.070391  
901.000000	 64.099669  
900.000000	 64.165472  
899.000000	 64.254999  
898.000000	 64.349174  
897.000000	 64.426589  
896.000000	 64.469075  
895.000000	 64.465713  
894.000000	 64.416432  
893.000000	 64.331102  
892.000000	 64.228129  
891.000000	 64.128804  
890.000000	 64.053297  
889.000000	 64.016175  
888.000000	 64.023327  
887.000000	 64.071869  
886.000000	 64.150977  
885.000000	 64.246439  
884.000000	 64.342737  
883.000000	 64.426732  
882.000000	 64.489102  
881.000000	 64.525151  
880.000000	 64.534640  
879.000000	 64.520406  
878.000000	 64.487242  
877.000000	 64.440679  
876.000000	 64.386820  
875.000000	 64.331793  
874.000000	 64.281988  
873.000000	 64.243340  
872.000000	 64.221143  
871.000000	 64.219164  
870.000000	 64.238572  
869.000000	 64.277625  
868.000000	 64.331603  
867.000000	 64.393973  
866.000000	 64.456653  
865.000000	 64.512205  
864.000000	 64.554953  
863.000000	 64.582252  
862.000000	 64.594244  
861.000000	 64.593672  
860.000000	 64.584612  
859.000000	 64.571022  
858.000000	 64.556598  
857.000000	 64.542627  
856.000000	 64.527964  
855.000000	 64.509582  
854.000000	 64.484167  
853.000000	 64.448642  
852.000000	 64.401507  
851.000000	 64.343261  
850.000000	 64.276504  
849.000000	 64.204883  
848.000000	 64.132332  
847.000000	 64.062118  
846.000000	 63.996219  
845.000000	 63.935208  
844.000000	 63.878989  
843.000000	 63.827013  
842.000000	 63.779950  
841.000000	 63.739728  
840.000000	 63.710212  
839.000000	 63.695168  
838.000000	 63.698649  
837.000000	 63.722872  
836.000000	 63.768339  
835.000000	 63.831806  
834.000000	 63.908267  
833.000000	 63.991212  
832.000000	 64.074587  
831.000000	 64.153051  
830.000000	 64.223957  
829.000000	 64.286994  
828.000000	 64.344310  
827.000000	 64.399099  
826.000000	 64.454412  
825.000000	 64.511823  
824.000000	 64.571166  
823.000000	 64.630126  
822.000000	 64.685249  
821.000000	 64.732050  
820.000000	 64.766931  
819.000000	 64.786911  
818.000000	 64.789915  
817.000000	 64.774417  
816.000000	 64.740204  
815.000000	 64.687991  
814.000000	 64.619827  
813.000000	 64.538741  
812.000000	 64.450120  
811.000000	 64.359521  
810.000000	 64.272499  
809.000000	 64.193224  
808.000000	 64.124321  
807.000000	 64.066863  
806.000000	 64.020586  
805.000000	 63.984704  
804.000000	 63.958239  
803.000000	 63.940739  
802.000000	 63.932371  
801.000000	 63.933253  
800.000000	 63.942170  
799.000000	 63.956975  
798.000000	 63.974261  
797.000000	 63.989496  
796.000000	 63.997721  
795.000000	 63.995385  
794.000000	 63.981366  
793.000000	 63.956832  
792.000000	 63.925361  
791.000000	 63.892054  
790.000000	 63.862705  
789.000000	 63.842034  
788.000000	 63.833546  
787.000000	 63.839077  
786.000000	 63.859248  
785.000000	 63.894319  
784.000000	 63.943433  
783.000000	 64.004635  
782.000000	 64.074182  
781.000000	 64.147114  
780.000000	 64.216661  
779.000000	 64.274907  
778.000000	 64.314413  
777.000000	 64.329648  
776.000000	 64.318609  
775.000000	 64.283657  
774.000000	 64.230871  
773.000000	 64.169359  
772.000000	 64.108419  
771.000000	 64.056110  
770.000000	 64.016270  
769.000000	 63.988399  
768.000000	 63.967633  
767.000000	 63.946866  
766.000000	 63.918972  
765.000000	 63.879799  
764.000000	 63.829708  
763.000000	 63.774561  
762.000000	 63.723921  
761.000000	 63.689494  
760.000000	 63.681125  
759.000000	 63.705134  
758.000000	 63.761711  
757.000000	 63.845324  
756.000000	 63.946318  
755.000000	 64.052081  
754.000000	 64.150571  
753.000000	 64.231038  
752.000000	 64.286041  
751.000000	 64.311003  
750.000000	 64.304471  
749.000000	 64.267110  
748.000000	 64.201307  
747.000000	 64.110946  
746.000000	 64.001417  
745.000000	 63.879585  
744.000000	 63.753962  
743.000000	 63.633894  
742.000000	 63.528847  
741.000000	 63.446331  
740.000000	 63.391399  
739.000000	 63.365387  
738.000000	 63.366675  
737.000000	 63.390946  
736.000000	 63.432741  
735.000000	 63.486123  
734.000000	 63.545536  
733.000000	 63.605260  
732.000000	 63.660073  
731.000000	 63.704109  
730.000000	 63.732838  
729.000000	 63.742947  
728.000000	 63.734197  
727.000000	 63.709235  
726.000000	 63.673400  
725.000000	 63.634324  
724.000000	 63.599181  
723.000000	 63.573455  
722.000000	 63.559126  
721.000000	 63.554787  
720.000000	 63.555669  
719.000000	 63.555335  
718.000000	 63.547706  
717.000000	 63.529133  
716.000000	 63.499784  
715.000000	 63.463854  
714.000000	 63.427710  
713.000000	 63.398313  
712.000000	 63.381624  
711.000000	 63.380837  
710.000000	 63.396048  
709.000000	 63.423967  
708.000000	 63.459730  
707.000000	 63.497042  
706.000000	 63.529372  
705.000000	 63.550710  
704.000000	 63.555574  
703.000000	 63.540410  
702.000000	 63.503885  
701.000000	 63.447380  
700.000000	 63.374948  
699.000000	 63.293004  
698.000000	 63.209533  
697.000000	 63.132953  
696.000000	 63.070893  
695.000000	 63.028979  
694.000000	 63.009715  
693.000000	 63.012647  
692.000000	 63.034653  
691.000000	 63.071060  
690.000000	 63.116741  
689.000000	 63.167023  
688.000000	 63.217997  
687.000000	 63.266420  
686.000000	 63.309621  
685.000000	 63.345050  
684.000000	 63.370132  
683.000000	 63.382577  
682.000000	 63.380551  
681.000000	 63.364148  
680.000000	 63.334941  
679.000000	 63.295602  
678.000000	 63.249468  
677.000000	 63.200211  
676.000000	 63.151502  
675.000000	 63.106608  
674.000000	 63.068747  
673.000000	 63.040614  
672.000000	 63.024854  
671.000000	 63.024210  
670.000000	 63.040256  
669.000000	 63.073110  
668.000000	 63.120198  
667.000000	 63.176083  
666.000000	 63.232612  
665.000000	 63.279986  
664.000000	 63.309001  
663.000000	 63.312959  
662.000000	 63.289761  
661.000000	 63.242578  
660.000000	 63.179683  
659.000000	 63.112902  
658.000000	 63.055324  
657.000000	 63.018703  
656.000000	 63.011670  
655.000000	 63.037824  
654.000000	 63.095998  
653.000000	 63.179683  
652.000000	 63.279128  
651.000000	 63.382339  
650.000000	 63.476896  
649.000000	 63.551807  
648.000000	 63.598847  
647.000000	 63.613438  
646.000000	 63.594698  
645.000000	 63.545417  
644.000000	 63.471913  
643.000000	 63.382029  
642.000000	 63.284873  
641.000000	 63.188290  
640.000000	 63.098526  
639.000000	 63.018918  
638.000000	 62.950468  
637.000000	 62.892246  
636.000000	 62.842917  
635.000000	 62.801504  
634.000000	 62.768197  
633.000000	 62.744879  
632.000000	 62.734699  
631.000000	 62.740778  
630.000000	 62.765097  
629.000000	 62.807559  
628.000000	 62.865281  
627.000000	 62.932825  
626.000000	 63.002324  
625.000000	 63.065099  
624.000000	 63.112139  
623.000000	 63.136243  
622.000000	 63.131999  
621.000000	 63.097548  
620.000000	 63.033890  
619.000000	 62.944626  
618.000000	 62.835788  
617.000000	 62.715578  
616.000000	 62.593007  
615.000000	 62.477588  
614.000000	 62.377595  
613.000000	 62.299156  
612.000000	 62.245631  
611.000000	 62.217736  
610.000000	 62.213182  
609.000000	 62.227058  
608.000000	 62.253403  
607.000000	 62.286233  
606.000000	 62.320756  
605.000000	 62.353754  
604.000000	 62.384200  
603.000000	 62.412405  
602.000000	 62.438941  
601.000000	 62.463450  
600.000000	 62.484383  
599.000000	 62.498235  
598.000000	 62.500667  
597.000000	 62.486839  
596.000000	 62.453198  
595.000000	 62.398338  
594.000000	 62.323808  
593.000000	 62.234759  
592.000000	 62.138867  
591.000000	 62.046623  
590.000000	 61.969065  
589.000000	 61.916875  
588.000000	 61.898756  
587.000000	 61.918544  
586.000000	 61.974072  
585.000000	 62.057328  
584.000000	 62.156033  
583.000000	 62.255144  
582.000000	 62.339591  
581.000000	 62.397909  
580.000000	 62.424492  
579.000000	 62.420988  
578.000000	 62.395524  
577.000000	 62.360596  
576.000000	 62.329339  
575.000000	 62.313318  
574.000000	 62.318682  
573.000000	 62.344956  
572.000000	 62.384748  
571.000000	 62.427449  
570.000000	 62.461185  
569.000000	 62.476277  
568.000000	 62.467908  
567.000000	 62.436866  
566.000000	 62.390494  
565.000000	 62.338805  
564.000000	 62.294983  
563.000000	 62.271237  
562.000000	 62.277674  
561.000000	 62.319874  
560.000000	 62.398242  
559.000000	 62.508106  
558.000000	 62.640166  
557.000000	 62.782192  
556.000000	 62.920427  
555.000000	 63.041949  
554.000000	 63.135290  
553.000000	 63.191556  
552.000000	 63.204789  
551.000000	 63.171887  
550.000000	 63.093042  
549.000000	 62.970924  
548.000000	 62.811064  
547.000000	 62.621068  
546.000000	 62.411189  
545.000000	 62.193155  
544.000000	 61.980462  
543.000000	 61.786198  
542.000000	 61.621832  
541.000000	 61.495280  
540.000000	 61.409258  
539.000000	 61.361813  
538.000000	 61.345338  
537.000000	 61.350011  
536.000000	 61.364650  
535.000000	 61.379575  
534.000000	 61.387157  
533.000000	 61.382722  
532.000000	 61.363267  
531.000000	 61.327528  
530.000000	 61.274337  
529.000000	 61.204886  
528.000000	 61.122584  
527.000000	 61.034369  
526.000000	 60.949826  
525.000000	 60.881519  
524.000000	 60.842251  
523.000000	 60.841655  
522.000000	 60.882592  
521.000000	 60.958862  
520.000000	 61.055493  
519.000000	 61.150765  
518.000000	 61.222124  
517.000000	 61.249589  
516.000000	 61.223006  
515.000000	 61.144852  
514.000000	 61.030983  
513.000000	 60.905766  
512.000000	 60.797047  
511.000000	 60.729861  
510.000000	 60.719251  
509.000000	 60.767197  
508.000000	 60.861539  
507.000000	 60.980558  
506.000000	 61.097145  
505.000000	 61.186766  
504.000000	 61.231446  
503.000000	 61.223602  
502.000000	 61.165904  
501.000000	 61.069130  
500.000000	 60.947966  
499.000000	 60.817265  
498.000000	 60.690569  
497.000000	 60.578775  
496.000000	 60.490250  
495.000000	 60.431027  
494.000000	 60.406231  
493.000000	 60.419702  
492.000000	 60.472869  
491.000000	 60.563611  
490.000000	 60.685276  
489.000000	 60.826516  
488.000000	 60.971426  
487.000000	 61.102151  
486.000000	 61.201620  
485.000000	 61.256122  
484.000000	 61.258196  
483.000000	 61.207103  
482.000000	 61.109113  
481.000000	 60.975980  
480.000000	 60.823225  
479.000000	 60.666894  
478.000000	 60.521769  
477.000000	 60.398316  
476.000000	 60.302686  
475.000000	 60.233759  
474.000000	 60.185050  
473.000000	 60.143923  
472.000000	 60.095119  
471.000000	 60.024619  
470.000000	 59.923505  
469.000000	 59.789800  
468.000000	 59.629821  
467.000000	 59.456110  
466.000000	 59.285902  
465.000000	 59.135770  
464.000000	 59.019637  
463.000000	 58.947896  
462.000000	 58.924651  
461.000000	 58.945465  
460.000000	 58.999729  
459.000000	 59.073567  
458.000000	 59.152412  
457.000000	 59.221673  
456.000000	 59.271192  
455.000000	 59.294581  
454.000000	 59.292054  
453.000000	 59.270191  
452.000000	 59.237813  
451.000000	 59.202194  
450.000000	 59.167814  
449.000000	 59.136819  
448.000000	 59.104228  
447.000000	 59.059810  
446.000000	 58.992695  
445.000000	 58.895230  
444.000000	 58.769106  
443.000000	 58.625268  
442.000000	 58.480954  
441.000000	 58.352279  
440.000000	 58.250308  
439.000000	 58.171701  
438.000000	 58.098912  
437.000000	 58.000564  
436.000000	 57.832527  
435.000000	 57.556343  
434.000000	 57.154345  
433.000000	 56.641793  
432.000000	 56.054115  
431.000000	 55.459642  
430.000000	 54.951930  
429.000000	 54.626107  
428.000000	 54.542589  
427.000000	 54.730629  
426.000000	 55.173349  
425.000000	 55.824875  
424.000000	 56.624913  
423.000000	 57.501149  
422.000000	 58.380579  
421.000000	 59.190940  
420.000000	 59.867024  
419.000000	 60.343074  
418.000000	 60.557270  
417.000000	 60.467362  
416.000000	 60.062456  
415.000000	 59.358978  
414.000000	 58.414602  
413.000000	 57.331609  
412.000000	 56.253337  
411.000000	 55.352997  
410.000000	 54.816150  
409.000000	 54.744601  
408.000000	 55.207586  
407.000000	 56.244397  
406.000000	 57.888269  
405.000000	 60.108256  
404.000000	 62.853813  
403.000000	 66.182899  
402.000000	 70.025038  
401.000000	 74.129223  
400.000000	 78.055167  
399.000000	 81.125450  
398.000000	 82.767844  
397.000000	 82.692170  
396.000000	 81.001234  
395.000000	 78.297019  
394.000000	 75.221896  
393.000000	 72.319769  
392.000000	 69.667124  
391.000000	 66.847777  
390.000000	 63.606643  
389.000000	 59.942173  
388.000000	 56.462645  
387.000000	 54.141688  
386.000000	 53.378057  
385.000000	 54.235816  
384.000000	 55.659294  
383.000000	 56.693172  
382.000000	 57.476758  
381.000000	 59.221935  
380.000000	 64.888072  
379.000000	 77.244305  
378.000000	 97.481560  
377.000000	 124.647903 
376.000000	 154.465007 
375.000000	 181.633329 
374.000000	 199.999976 
373.000000	 199.999976 
372.000000	 199.999976 
371.000000	 199.999976 
370.000000	 197.485971 

