PE IR       SPECTRUM    SPECTRUM    ASCII       PEDS        1.60        
  -1
C-1EEF~1.ASC
17/03/27
22:28:20.00
17/03/27
22:28:20.00
tln
$C-4040-8_t0097$<tbV0>[-7.8,7.8,8.0,0.0,27,1,0]
370.000000
64









2002,4.07    
MIRTGS : RIGHTBACK : INTERNAL 2
MIR : ON : INTERNAL 2
OPTKBR

0.200000
8
8.000000
FILLER
RATIO
SPECTRUM
UNLOCKED 256

DOUBLE
64
COMBINED
1
0
0


1.000000
RATIO


1
0
TRUE
51149
0
LEFT NOT FITTED RIGHT NOT FITTED 0
NONE
NONE
15600
12.000000
4.427000
51148
TRUE
1 0 8 72 0 0 0 0 

15798.010000






#HDR
-1
-1
#GR
CM-1
%T
0.00002384185791015625
0.0
5000.000000
-1.000000
4631
8
199.999976
27.399134
#DATA
5000.000000	65.241289  
4999.000000	65.186977  
4998.000000	65.143704  
4997.000000	65.112328  
4996.000000	65.091586  
4995.000000	65.079712  
4994.000000	65.075540  
4993.000000	65.079736  
4992.000000	65.093851  
4991.000000	65.120029  
4990.000000	65.158247  
4989.000000	65.205430  
4988.000000	65.254330  
4987.000000	65.294241  
4986.000000	65.313315  
4985.000000	65.301275  
4984.000000	65.252375  
4983.000000	65.167307  
4982.000000	65.053820  
4981.000000	64.925241  
4980.000000	64.797639  
4979.000000	64.686512  
4978.000000	64.602994  
4977.000000	64.552569  
4976.000000	64.535045  
4975.000000	64.546322  
4974.000000	64.579772  
4973.000000	64.628887  
4972.000000	64.688563  
4971.000000	64.756083  
4970.000000	64.829468  
4969.000000	64.907431  
4968.000000	64.986848  
4967.000000	65.063858  
4966.000000	65.132832  
4965.000000	65.188550  
4964.000000	65.227484  
4963.000000	65.248823  
4962.000000	65.255522  
4961.000000	65.252852  
4960.000000	65.247702  
4959.000000	65.245747  
4958.000000	65.250396  
4957.000000	65.261363  
4956.000000	65.274882  
4955.000000	65.285158  
4954.000000	65.285897  
4953.000000	65.271902  
4952.000000	65.240383  
4951.000000	65.191936  
4950.000000	65.130710  
4949.000000	65.062403  
4948.000000	64.994049  
4947.000000	64.932727  
4946.000000	64.884519  
4945.000000	64.853739  
4944.000000	64.842057  
4943.000000	64.849281  
4942.000000	64.872455  
4941.000000	64.907073  
4940.000000	64.946937  
4939.000000	64.984297  
4938.000000	65.011835  
4937.000000	65.023684  
4936.000000	65.016531  
4935.000000	64.989686  
4934.000000	64.946055  
4933.000000	64.891624  
4932.000000	64.834165  
4931.000000	64.781808  
4930.000000	64.741730  
4929.000000	64.719128  
4928.000000	64.716672  
4927.000000	64.734435  
4926.000000	64.770579  
4925.000000	64.822268  
4924.000000	64.886140  
4923.000000	64.958739  
4922.000000	65.036630  
4921.000000	65.116095  
4920.000000	65.192937  
4919.000000	65.262079  
4918.000000	65.317797  
4917.000000	65.354251  
4916.000000	65.367579  
4915.000000	65.355372  
4914.000000	65.317583  
4913.000000	65.256524  
4912.000000	65.177798  
4911.000000	65.088438  
4910.000000	64.996504  
4909.000000	64.909625  
4908.000000	64.834380  
4907.000000	64.775466  
4906.000000	64.735603  
4905.000000	64.715528  
4904.000000	64.714050  
4903.000000	64.728212  
4902.000000	64.753794  
4901.000000	64.785981  
4900.000000	64.820075  
4899.000000	64.851164  
4898.000000	64.874911  
4897.000000	64.888191  
4896.000000	64.889883  
4895.000000	64.880895  
4894.000000	64.864826  
4893.000000	64.846611  
4892.000000	64.832878  
4891.000000	64.831066  
4890.000000	64.848232  
4889.000000	64.889073  
4888.000000	64.955163  
4887.000000	65.045142  
4886.000000	65.153217  
4885.000000	65.270137  
4884.000000	65.383744  
4883.000000	65.481328  
4882.000000	65.551567  
4881.000000	65.586686  
4880.000000	65.584731  
4879.000000	65.549778  
4878.000000	65.492987  
4877.000000	65.430426  
4876.000000	65.380644  
4875.000000	65.360951  
4874.000000	65.383887  
4873.000000	65.454363  
4872.000000	65.568399  
4871.000000	65.713238  
4870.000000	65.869784  
4869.000000	66.015934  
4868.000000	66.131782  
4867.000000	66.202616  
4866.000000	66.221594  
4865.000000	66.189527  
4864.000000	66.113853  
4863.000000	66.005611  
4862.000000	65.877151  
4861.000000	65.739297  
4860.000000	65.600872  
4859.000000	65.468049  
4858.000000	65.346264  
4857.000000	65.240144  
4856.000000	65.155053  
4855.000000	65.096211  
4854.000000	65.067934  
4853.000000	65.072226  
4852.000000	65.107512  
4851.000000	65.167593  
4850.000000	65.241456  
4849.000000	65.315532  
4848.000000	65.376067  
4847.000000	65.411424  
4846.000000	65.414214  
4845.000000	65.382218  
4844.000000	65.318846  
4843.000000	65.231657  
4842.000000	65.130972  
4841.000000	65.028095  
4840.000000	64.933490  
4839.000000	64.855480  
4838.000000	64.799451  
4837.000000	64.768052  
4836.000000	64.761328  
4835.000000	64.776587  
4834.000000	64.810037  
4833.000000	64.856648  
4832.000000	64.911842  
4831.000000	64.971089  
4830.000000	65.030741  
4829.000000	65.087246  
4828.000000	65.137958  
4827.000000	65.181136  
4826.000000	65.215110  
4825.000000	65.238118  
4824.000000	65.248847  
4823.000000	65.246844  
4822.000000	65.232300  
4821.000000	65.206360  
4820.000000	65.171432  
4819.000000	65.130925  
4818.000000	65.088725  
4817.000000	65.048551  
4816.000000	65.013146  
4815.000000	64.984202  
4814.000000	64.962434  
4813.000000	64.947962  
4812.000000	64.940452  
4811.000000	64.939594  
4810.000000	64.945006  
4809.000000	64.956474  
4808.000000	64.973449  
4807.000000	64.995121  
4806.000000	65.019679  
4805.000000	65.045189  
4804.000000	65.069127  
4803.000000	65.089893  
4802.000000	65.107059  
4801.000000	65.121889  
4800.000000	65.136957  
4799.000000	65.155744  
4798.000000	65.181946  
4797.000000	65.217781  
4796.000000	65.263342  
4795.000000	65.316200  
4794.000000	65.371727  
4793.000000	65.423774  
4792.000000	65.465831  
4791.000000	65.492272  
4790.000000	65.499138  
4789.000000	65.485143  
4788.000000	65.451598  
4787.000000	65.401983  
4786.000000	65.341067  
4785.000000	65.274524  
4784.000000	65.207719  
4783.000000	65.145349  
4782.000000	65.090751  
4781.000000	65.046143  
4780.000000	65.012502  
4779.000000	64.990091  
4778.000000	64.978384  
4777.000000	64.975738  
4776.000000	64.980292  
4775.000000	64.989876  
4774.000000	65.002202  
4773.000000	65.014505  
4772.000000	65.024256  
4771.000000	65.029430  
4770.000000	65.028762  
4769.000000	65.021705  
4768.000000	65.009140  
4767.000000	64.992904  
4766.000000	64.975762  
4765.000000	64.960861  
4764.000000	64.950776  
4763.000000	64.947152  
4762.000000	64.950370  
4761.000000	64.959645  
4760.000000	64.973235  
4759.000000	64.988756  
4758.000000	65.004372  
4757.000000	65.018296  
4756.000000	65.029239  
4755.000000	65.035796  
4754.000000	65.037059  
4753.000000	65.031623  
4752.000000	65.017747  
4751.000000	64.993786  
4750.000000	64.958858  
4749.000000	64.913415  
4748.000000	64.859676  
4747.000000	64.801716  
4746.000000	64.745068  
4745.000000	64.695835  
4744.000000	64.659214  
4743.000000	64.638829  
4742.000000	64.635848  
4741.000000	64.649343  
4740.000000	64.676761  
4739.000000	64.714765  
4738.000000	64.759969  
4737.000000	64.809513  
4736.000000	64.861512  
4735.000000	64.914488  
4734.000000	64.967489  
4733.000000	65.019631  
4732.000000	65.069770  
4731.000000	65.116667  
4730.000000	65.158534  
4729.000000	65.194010  
4728.000000	65.221261  
4727.000000	65.239453  
4726.000000	65.247368  
4725.000000	65.244531  
4724.000000	65.230584  
4723.000000	65.206098  
4722.000000	65.172052  
4721.000000	65.130519  
4720.000000	65.084409  
4719.000000	65.037703  
4718.000000	64.994311  
4717.000000	64.957690  
4716.000000	64.930438  
4715.000000	64.913630  
4714.000000	64.906978  
4713.000000	64.908885  
4712.000000	64.917039  
4711.000000	64.929032  
4710.000000	64.942765  
4709.000000	64.956831  
4708.000000	64.970088  
4707.000000	64.981627  
4706.000000	64.990639  
4705.000000	64.996314  
4704.000000	64.997482  
4703.000000	64.993286  
4702.000000	64.983534  
4701.000000	64.968895  
4700.000000	64.951062  
4699.000000	64.932656  
4698.000000	64.916920  
4697.000000	64.906954  
4696.000000	64.904856  
4695.000000	64.911866  
4694.000000	64.927816  
4693.000000	64.951348  
4692.000000	64.980363  
4691.000000	65.012383  
4690.000000	65.044951  
4689.000000	65.075922  
4688.000000	65.103602  
4687.000000	65.125989  
4686.000000	65.140867  
4685.000000	65.146183  
4684.000000	65.140581  
4683.000000	65.123844  
4682.000000	65.097188  
4681.000000	65.064001  
4680.000000	65.029430  
4679.000000	64.999389  
4678.000000	64.979457  
4677.000000	64.973783  
4676.000000	64.984202  
4675.000000	65.009903  
4674.000000	65.047740  
4673.000000	65.092849  
4672.000000	65.139484  
4671.000000	65.182209  
4670.000000	65.216374  
4669.000000	65.238475  
4668.000000	65.246629  
4667.000000	65.240335  
4666.000000	65.220737  
4665.000000	65.190124  
4664.000000	65.152645  
4663.000000	65.113711  
4662.000000	65.079855  
4661.000000	65.057873  
4660.000000	65.053510  
4659.000000	65.070366  
4658.000000	65.108847  
4657.000000	65.165805  
4656.000000	65.235161  
4655.000000	65.309047  
4654.000000	65.379476  
4653.000000	65.439653  
4652.000000	65.485429  
4651.000000	65.515589  
4650.000000	65.531802  
4649.000000	65.537548  
4648.000000	65.536761  
4647.000000	65.532350  
4646.000000	65.526127  
4645.000000	65.517663  
4644.000000	65.505647  
4643.000000	65.487599  
4642.000000	65.461874  
4641.000000	65.427899  
4640.000000	65.387248  
4639.000000	65.342855  
4638.000000	65.298438  
4637.000000	65.258026  
4636.000000	65.225386  
4635.000000	65.202879  
4634.000000	65.190935  
4633.000000	65.188550  
4632.000000	65.193700  
4631.000000	65.203762  
4630.000000	65.216255  
4629.000000	65.229392  
4628.000000	65.242528  
4627.000000	65.256023  
4626.000000	65.270948  
4625.000000	65.288519  
4624.000000	65.309667  
4623.000000	65.334582  
4622.000000	65.362334  
4621.000000	65.391230  
4620.000000	65.418577  
4619.000000	65.442132  
4618.000000	65.459227  
4617.000000	65.467977  
4616.000000	65.466451  
4615.000000	65.454339  
4614.000000	65.431022  
4613.000000	65.396332  
4612.000000	65.349888  
4611.000000	65.292000  
4610.000000	65.222930  
4609.000000	65.143752  
4608.000000	65.056538  
4607.000000	64.964556  
4606.000000	64.872312  
4605.000000	64.785146  
4604.000000	64.708709  
4603.000000	64.648437  
4602.000000	64.608716  
4601.000000	64.592623  
4600.000000	64.600896  
4599.000000	64.632368  
4598.000000	64.683771  
4597.000000	64.750766  
4596.000000	64.827752  
4595.000000	64.909625  
4594.000000	64.991450  
4593.000000	65.070176  
4592.000000	65.143895  
4591.000000	65.212249  
4590.000000	65.275502  
4589.000000	65.334105  
4588.000000	65.388774  
4587.000000	65.438914  
4586.000000	65.483283  
4585.000000	65.519452  
4584.000000	65.545272  
4583.000000	65.558552  
4582.000000	65.558147  
4581.000000	65.544319  
4580.000000	65.519165  
4579.000000	65.485835  
4578.000000	65.448021  
4577.000000	65.409636  
4576.000000	65.374159  
4575.000000	65.344095  
4574.000000	65.320873  
4573.000000	65.305042  
4572.000000	65.296506  
4571.000000	65.294933  
4570.000000	65.300512  
4569.000000	65.312719  
4568.000000	65.331864  
4567.000000	65.358662  
4566.000000	65.394783  
4565.000000	65.440869  
4564.000000	65.497088  
4563.000000	65.562796  
4562.000000	65.635943  
4561.000000	65.712857  
4560.000000	65.788722  
4559.000000	65.858292  
4558.000000	65.916204  
4557.000000	65.958189  
4556.000000	65.981841  
4555.000000	65.987300  
4554.000000	65.977096  
4553.000000	65.955853  
4552.000000	65.929031  
4551.000000	65.901327  
4550.000000	65.876436  
4549.000000	65.855646  
4548.000000	65.837693  
4547.000000	65.818214  
4546.000000	65.791654  
4545.000000	65.751552  
4544.000000	65.691494  
4543.000000	65.607047  
4542.000000	65.496349  
4541.000000	65.362763  
4540.000000	65.213918  
4539.000000	65.062642  
4538.000000	64.924097  
4537.000000	64.813828  
4536.000000	64.744877  
4535.000000	64.724397  
4534.000000	64.751505  
4533.000000	64.817857  
4532.000000	64.908337  
4531.000000	65.005207  
4530.000000	65.090727  
4529.000000	65.152931  
4528.000000	65.187120  
4527.000000	65.197467  
4526.000000	65.194511  
4525.000000	65.192365  
4524.000000	65.204238  
4523.000000	65.238714  
4522.000000	65.297245  
4521.000000	65.374231  
4520.000000	65.458464  
4519.000000	65.537428  
4518.000000	65.599727  
4517.000000	65.638208  
4516.000000	65.650749  
4515.000000	65.640830  
4514.000000	65.615224  
4513.000000	65.581226  
4512.000000	65.544939  
4511.000000	65.510272  
4510.000000	65.478062  
4509.000000	65.446853  
4508.000000	65.414190  
4507.000000	65.379452  
4506.000000	65.343594  
4505.000000	65.309691  
4504.000000	65.282130  
4503.000000	65.265250  
4502.000000	65.262031  
4501.000000	65.273070  
4500.000000	65.295767  
4499.000000	65.324592  
4498.000000	65.352988  
4497.000000	65.374732  
4496.000000	65.385103  
4495.000000	65.381789  
4494.000000	65.365600  
4493.000000	65.340328  
4492.000000	65.311145  
4491.000000	65.284132  
4490.000000	65.265011  
4489.000000	65.258479  
4488.000000	65.267181  
4487.000000	65.291690  
4486.000000	65.331387  
4485.000000	65.384030  
4484.000000	65.446400  
4483.000000	65.514230  
4482.000000	65.582346  
4481.000000	65.645360  
4480.000000	65.698289  
4479.000000	65.736651  
4478.000000	65.756988  
4477.000000	65.757298  
4476.000000	65.737700  
4475.000000	65.699982  
4474.000000	65.647792  
4473.000000	65.585780  
4472.000000	65.519499  
4471.000000	65.453934  
4470.000000	65.393209  
4469.000000	65.340328  
4468.000000	65.297102  
4467.000000	65.263748  
4466.000000	65.239214  
4465.000000	65.221285  
4464.000000	65.207099  
4463.000000	65.192699  
4462.000000	65.174818  
4461.000000	65.150117  
4460.000000	65.118193  
4459.000000	65.081024  
4458.000000	65.044307  
4457.000000	65.015816  
4456.000000	65.004086  
4455.000000	65.016722  
4454.000000	65.057301  
4453.000000	65.123414  
4452.000000	65.207195  
4451.000000	65.297293  
4450.000000	65.380549  
4449.000000	65.443992  
4448.000000	65.479421  
4447.000000	65.485000  
4446.000000	65.465927  
4445.000000	65.432929  
4444.000000	65.399408  
4443.000000	65.377759  
4442.000000	65.377521  
4441.000000	65.403079  
4440.000000	65.452909  
4439.000000	65.520095  
4438.000000	65.596246  
4437.000000	65.672516  
4436.000000	65.740156  
4435.000000	65.792083  
4434.000000	65.824389  
4433.000000	65.835857  
4432.000000	65.828657  
4431.000000	65.805220  
4430.000000	65.770220  
4429.000000	65.723943  
4428.000000	65.663671  
4427.000000	65.581345  
4426.000000	65.466737  
4425.000000	65.310668  
4424.000000	65.107870  
4423.000000	64.863300  
4422.000000	64.595460  
4421.000000	64.330649  
4420.000000	64.096593  
4419.000000	63.920187  
4418.000000	63.820290  
4417.000000	63.809728  
4416.000000	63.894438  
4415.000000	64.063572  
4414.000000	64.292621  
4413.000000	64.558839  
4412.000000	64.843845  
4411.000000	65.133404  
4410.000000	65.417861  
4409.000000	65.685439  
4408.000000	65.924024  
4407.000000	66.122269  
4406.000000	66.269946  
4405.000000	66.364669  
4404.000000	66.406393  
4403.000000	66.402053  
4402.000000	66.360163  
4401.000000	66.276741  
4400.000000	66.159510  
4399.000000	66.017723  
4398.000000	65.892028  
4397.000000	65.853714  
4396.000000	65.991592  
4395.000000	66.402697  
4394.000000	67.131066  
4393.000000	68.152308  
4392.000000	69.330000  
4391.000000	70.439505  
4390.000000	71.178197  
4389.000000	71.241521  
4388.000000	70.399999  
4387.000000	68.579053  
4386.000000	65.925645  
4385.000000	62.792348  
4384.000000	59.689211  
4383.000000	57.154703  
4382.000000	55.605697  
4381.000000	55.247354  
4380.000000	55.994486  
4379.000000	57.542586  
4378.000000	59.478425  
4377.000000	61.391925  
4376.000000	63.013601  
4375.000000	64.227771  
4374.000000	65.047144  
4373.000000	65.582728  
4372.000000	65.911865  
4371.000000	66.107821  
4370.000000	66.193652  
4369.000000	66.173338  
4368.000000	66.074633  
4367.000000	65.919709  
4366.000000	65.750885  
4365.000000	65.596723  
4364.000000	65.471339  
4363.000000	65.375232  
4362.000000	65.298390  
4361.000000	65.234017  
4360.000000	65.183138  
4359.000000	65.149545  
4358.000000	65.139937  
4357.000000	65.154767  
4356.000000	65.190720  
4355.000000	65.241026  
4354.000000	65.298175  
4353.000000	65.362906  
4352.000000	65.438628  
4351.000000	65.520477  
4350.000000	65.601396  
4349.000000	65.675163  
4348.000000	65.735030  
4347.000000	65.778326  
4346.000000	65.802621  
4345.000000	65.801405  
4344.000000	65.771603  
4343.000000	65.718412  
4342.000000	65.650343  
4341.000000	65.576815  
4340.000000	65.509605  
4339.000000	65.461277  
4338.000000	65.441703  
4337.000000	65.456032  
4336.000000	65.503191  
4335.000000	65.576314  
4334.000000	65.664339  
4333.000000	65.755224  
4332.000000	65.838909  
4331.000000	65.909671  
4330.000000	65.967965  
4329.000000	66.018533  
4328.000000	66.067910  
4327.000000	66.120624  
4326.000000	66.177082  
4325.000000	66.231751  
4324.000000	66.275429  
4323.000000	66.296243  
4322.000000	66.284656  
4321.000000	66.234540  
4320.000000	66.147017  
4319.000000	66.028428  
4318.000000	65.890312  
4317.000000	65.745353  
4316.000000	65.605449  
4315.000000	65.478777  
4314.000000	65.369057  
4313.000000	65.276050  
4312.000000	65.197324  
4311.000000	65.130043  
4310.000000	65.072798  
4309.000000	65.026068  
4308.000000	64.992284  
4307.000000	64.974474  
4306.000000	64.975166  
4305.000000	64.995026  
4304.000000	65.032219  
4303.000000	65.082478  
4302.000000	65.139365  
4301.000000	65.195512  
4300.000000	65.243530  
4299.000000	65.276861  
4298.000000	65.290999  
4297.000000	65.283560  
4296.000000	65.255188  
4295.000000	65.209364  
4294.000000	65.152406  
4293.000000	65.092706  
4292.000000	65.039086  
4291.000000	64.999938  
4290.000000	64.980363  
4289.000000	64.981722  
4288.000000	65.000700  
4287.000000	65.029954  
4286.000000	65.060544  
4285.000000	65.083956  
4284.000000	65.095162  
4283.000000	65.093636  
4282.000000	65.084052  
4281.000000	65.074682  
4280.000000	65.075039  
4279.000000	65.093088  
4278.000000	65.132832  
4277.000000	65.193295  
4276.000000	65.269088  
4275.000000	65.352106  
4274.000000	65.433907  
4273.000000	65.507936  
4272.000000	65.571379  
4271.000000	65.624713  
4270.000000	65.670633  
4269.000000	65.711712  
4268.000000	65.749073  
4267.000000	65.780806  
4266.000000	65.802907  
4265.000000	65.809249  
4264.000000	65.795493  
4263.000000	65.758252  
4262.000000	65.698075  
4261.000000	65.617656  
4260.000000	65.522599  
4259.000000	65.418410  
4258.000000	65.310072  
4257.000000	65.200734  
4256.000000	65.092182  
4255.000000	64.985990  
4254.000000	64.884996  
4253.000000	64.793729  
4252.000000	64.718985  
4251.000000	64.668416  
4250.000000	64.648985  
4249.000000	64.664268  
4248.000000	64.713454  
4247.000000	64.790368  
4246.000000	64.885210  
4245.000000	64.985418  
4244.000000	65.079045  
4243.000000	65.157246  
4242.000000	65.215659  
4241.000000	65.254139  
4240.000000	65.275835  
4239.000000	65.285825  
4238.000000	65.288329  
4237.000000	65.285658  
4236.000000	65.277242  
4235.000000	65.261101  
4234.000000	65.234375  
4233.000000	65.195703  
4232.000000	65.145826  
4231.000000	65.088391  
4230.000000	65.029096  
4229.000000	64.974784  
4228.000000	64.931774  
4227.000000	64.904594  
4226.000000	64.895272  
4225.000000	64.903187  
4224.000000	64.925599  
4223.000000	64.958357  
4222.000000	64.996957  
4221.000000	65.037274  
4220.000000	65.075778  
4219.000000	65.109634  
4218.000000	65.136837  
4217.000000	65.155911  
4216.000000	65.165328  
4215.000000	65.163540  
4214.000000	65.150284  
4213.000000	65.125703  
4212.000000	65.090656  
4211.000000	65.046215  
4210.000000	64.994359  
4209.000000	64.936876  
4208.000000	64.876008  
4207.000000	64.813590  
4206.000000	64.751863  
4205.000000	64.692568  
4204.000000	64.636969  
4203.000000	64.585804  
4202.000000	64.539408  
4201.000000	64.497017  
4200.000000	64.456939  
4199.000000	64.416456  
4198.000000	64.372706  
4197.000000	64.322757  
4196.000000	64.265537  
4195.000000	64.201688  
4194.000000	64.135909  
4193.000000	64.076423  
4192.000000	64.035439  
4191.000000	64.025592  
4190.000000	64.058637  
4189.000000	64.142775  
4188.000000	64.279866  
4187.000000	64.463591  
4186.000000	64.679837  
4185.000000	64.908218  
4184.000000	65.126132  
4183.000000	65.312147  
4182.000000	65.451145  
4181.000000	65.536403  
4180.000000	65.570974  
4179.000000	65.566706  
4178.000000	65.540099  
4177.000000	65.508055  
4176.000000	65.484023  
4175.000000	65.476036  
4174.000000	65.484857  
4173.000000	65.505337  
4172.000000	65.529561  
4171.000000	65.549588  
4170.000000	65.559029  
4169.000000	65.554237  
4168.000000	65.534019  
4167.000000	65.499067  
4166.000000	65.450024  
4165.000000	65.387654  
4164.000000	65.311598  
4163.000000	65.222430  
4162.000000	65.122723  
4161.000000	65.018296  
4160.000000	64.918041  
4159.000000	64.833092  
4158.000000	64.774489  
4157.000000	64.750957  
4156.000000	64.765143  
4155.000000	64.814114  
4154.000000	64.889025  
4153.000000	64.977741  
4152.000000	65.066027  
4151.000000	65.142941  
4150.000000	65.202474  
4149.000000	65.244603  
4148.000000	65.274047  
4147.000000	65.298557  
4146.000000	65.325522  
4145.000000	65.359878  
4144.000000	65.402078  
4143.000000	65.447688  
4142.000000	65.488266  
4141.000000	65.514445  
4140.000000	65.517592  
4139.000000	65.492439  
4138.000000	65.438103  
4137.000000	65.358495  
4136.000000	65.261745  
4135.000000	65.158104  
4134.000000	65.058898  
4133.000000	64.974474  
4132.000000	64.912796  
4131.000000	64.878320  
4130.000000	64.871644  
4129.000000	64.890027  
4128.000000	64.927887  
4127.000000	64.977431  
4126.000000	65.030598  
4125.000000	65.079474  
4124.000000	65.118908  
4123.000000	65.146517  
4122.000000	65.163302  
4121.000000	65.172243  
4120.000000	65.177774  
4119.000000	65.184164  
4118.000000	65.194058  
4117.000000	65.207624  
4116.000000	65.222954  
4115.000000	65.236926  
4114.000000	65.246415  
4113.000000	65.249395  
4112.000000	65.245819  
4111.000000	65.237426  
4110.000000	65.227317  
4109.000000	65.218997  
4108.000000	65.215134  
4107.000000	65.217018  
4106.000000	65.223908  
4105.000000	65.233540  
4104.000000	65.242981  
4103.000000	65.248990  
4102.000000	65.249729  
4101.000000	65.243959  
4100.000000	65.230846  
4099.000000	65.209889  
4098.000000	65.180754  
4097.000000	65.143346  
4096.000000	65.098261  
4095.000000	65.047049  
4094.000000	64.992403  
4093.000000	64.938402  
4092.000000	64.890050  
4091.000000	64.852166  
4090.000000	64.828348  
4089.000000	64.820337  
4088.000000	64.827275  
4087.000000	64.846014  
4086.000000	64.871621  
4085.000000	64.898061  
4084.000000	64.919519  
4083.000000	64.931130  
4082.000000	64.930152  
4081.000000	64.915513  
4080.000000	64.888691  
4079.000000	64.852404  
4078.000000	64.811325  
4077.000000	64.770936  
4076.000000	64.737367  
4075.000000	64.716362  
4074.000000	64.711904  
4073.000000	64.725375  
4072.000000	64.754939  
4071.000000	64.795660  
4070.000000	64.840388  
4069.000000	64.880847  
4068.000000	64.909958  
4067.000000	64.923238  
4066.000000	64.919877  
4065.000000	64.902782  
4064.000000	64.878201  
4063.000000	64.854359  
4062.000000	64.839124  
4061.000000	64.838433  
4060.000000	64.855504  
4059.000000	64.889574  
4058.000000	64.936733  
4057.000000	64.990162  
4056.000000	65.042424  
4055.000000	65.086245  
4054.000000	65.115475  
4053.000000	65.126347  
4052.000000	65.117383  
4051.000000	65.090346  
4050.000000	65.049481  
4049.000000	65.001273  
4048.000000	64.953327  
4047.000000	64.913201  
4046.000000	64.887475  
4045.000000	64.880204  
4044.000000	64.892458  
4043.000000	64.922213  
4042.000000	64.964962  
4041.000000	65.014576  
4040.000000	65.064597  
4039.000000	65.109634  
4038.000000	65.146279  
4037.000000	65.173435  
4036.000000	65.191936  
4035.000000	65.204262  
4034.000000	65.213680  
4033.000000	65.223193  
4032.000000	65.235304  
4031.000000	65.251970  
4030.000000	65.274572  
4029.000000	65.304183  
4028.000000	65.340971  
4027.000000	65.384721  
4026.000000	65.433502  
4025.000000	65.484237  
4024.000000	65.531945  
4023.000000	65.570783  
4022.000000	65.594434  
4021.000000	65.597844  
4020.000000	65.577840  
4019.000000	65.534329  
4018.000000	65.470528  
4017.000000	65.393090  
4016.000000	65.310645  
4015.000000	65.232300  
4014.000000	65.166449  
4013.000000	65.119338  
4012.000000	65.094304  
4011.000000	65.091323  
4010.000000	65.107250  
4009.000000	65.136718  
4008.000000	65.173029  
4007.000000	65.209507  
4006.000000	65.239691  
4005.000000	65.258550  
4004.000000	65.262746  
4003.000000	65.251731  
4002.000000	65.226674  
4001.000000	65.191173  
4000.000000	65.150308  
3999.000000	65.110039  
3998.000000	65.076446  
3997.000000	65.054273  
3996.000000	65.046405  
3995.000000	65.053367  
3994.000000	65.073275  
3993.000000	65.102720  
3992.000000	65.137577  
3991.000000	65.174198  
3990.000000	65.209984  
3989.000000	65.243935  
3988.000000	65.276479  
3987.000000	65.308666  
3986.000000	65.341043  
3985.000000	65.372657  
3984.000000	65.400862  
3983.000000	65.421605  
3982.000000	65.430426  
3981.000000	65.423679  
3980.000000	65.399789  
3979.000000	65.360331  
3978.000000	65.309977  
3977.000000	65.255498  
3976.000000	65.204596  
3975.000000	65.163969  
3974.000000	65.138435  
3973.000000	65.129852  
3972.000000	65.137362  
3971.000000	65.158009  
3970.000000	65.187788  
3969.000000	65.222573  
3968.000000	65.258502  
3967.000000	65.292692  
3966.000000	65.322589  
3965.000000	65.346026  
3964.000000	65.360569  
3963.000000	65.363645  
3962.000000	65.352702  
3961.000000	65.325832  
3960.000000	65.282440  
3959.000000	65.224123  
3958.000000	65.154743  
3957.000000	65.080523  
3956.000000	65.008616  
3955.000000	64.946269  
3954.000000	64.899420  
3953.000000	64.871740  
3952.000000	64.864039  
3951.000000	64.874768  
3950.000000	64.900588  
3949.000000	64.937567  
3948.000000	64.981913  
3947.000000	65.030479  
3946.000000	65.080308  
3945.000000	65.128612  
3944.000000	65.172505  
3943.000000	65.208816  
3942.000000	65.233707  
3941.000000	65.243744  
3940.000000	65.237164  
3939.000000	65.214347  
3938.000000	65.178561  
3937.000000	65.135407  
3936.000000	65.092206  
3935.000000	65.056014  
3934.000000	65.032434  
3933.000000	65.023827  
3932.000000	65.029096  
3931.000000	65.044140  
3930.000000	65.063238  
3929.000000	65.080523  
3928.000000	65.091443  
3927.000000	65.093660  
3926.000000	65.087795  
3925.000000	65.076184  
3924.000000	65.062880  
3923.000000	65.052151  
3922.000000	65.048336  
3921.000000	65.054631  
3920.000000	65.073394  
3919.000000	65.105938  
3918.000000	65.152692  
3917.000000	65.212988  
3916.000000	65.284943  
3915.000000	65.365290  
3914.000000	65.449428  
3913.000000	65.531396  
3912.000000	65.604710  
3911.000000	65.663266  
3910.000000	65.702104  
3909.000000	65.718722  
3908.000000	65.712475  
3907.000000	65.685200  
3906.000000	65.640234  
3905.000000	65.582370  
3904.000000	65.516304  
3903.000000	65.446257  
3902.000000	65.375661  
3901.000000	65.306878  
3900.000000	65.241384  
3899.000000	65.179991  
3898.000000	65.122771  
3897.000000	65.069890  
3896.000000	65.021538  
3895.000000	64.978957  
3894.000000	64.943265  
3893.000000	64.916396  
3892.000000	64.900112  
3891.000000	64.896297  
3890.000000	64.905714  
3889.000000	64.928007  
3888.000000	64.961194  
3887.000000	65.002226  
3886.000000	65.046525  
3885.000000	65.089869  
3884.000000	65.128731  
3883.000000	65.161418  
3882.000000	65.187764  
3881.000000	65.209436  
3880.000000	65.229129  
3879.000000	65.249180  
3878.000000	65.270709  
3877.000000	65.292739  
3876.000000	65.312218  
3875.000000	65.324807  
3874.000000	65.326499  
3873.000000	65.314507  
3872.000000	65.288639  
3871.000000	65.252161  
3870.000000	65.211200  
3869.000000	65.173101  
3868.000000	65.144705  
3867.000000	65.131020  
3866.000000	65.133666  
3865.000000	65.150976  
3864.000000	65.178346  
3863.000000	65.209794  
3862.000000	65.239381  
3861.000000	65.262794  
3860.000000	65.277791  
3859.000000	65.284276  
3858.000000	65.283775  
3857.000000	65.278482  
3856.000000	65.270423  
3855.000000	65.260624  
3854.000000	65.249276  
3853.000000	65.236210  
3852.000000	65.221667  
3851.000000	65.206789  
3850.000000	65.193819  
3849.000000	65.185713  
3848.000000	65.185570  
3847.000000	65.195608  
3846.000000	65.216255  
3845.000000	65.245699  
3844.000000	65.280079  
3843.000000	65.314078  
3842.000000	65.341997  
3841.000000	65.358829  
3840.000000	65.361261  
3839.000000	65.348100  
3838.000000	65.320324  
3837.000000	65.280675  
3836.000000	65.232706  
3835.000000	65.180373  
3834.000000	65.127110  
3833.000000	65.076041  
3832.000000	65.029478  
3831.000000	64.989781  
3830.000000	64.959263  
3829.000000	64.940690  
3828.000000	64.936614  
3827.000000	64.949512  
3826.000000	64.980554  
3825.000000	65.029621  
3824.000000	65.094399  
3823.000000	65.170645  
3822.000000	65.252161  
3821.000000	65.331935  
3820.000000	65.402936  
3819.000000	65.459322  
3818.000000	65.496921  
3817.000000	65.514183  
3816.000000	65.511608  
3815.000000	65.491938  
3814.000000	65.458679  
3813.000000	65.416169  
3812.000000	65.368199  
3811.000000	65.318393  
3810.000000	65.269327  
3809.000000	65.223145  
3808.000000	65.181469  
3807.000000	65.145874  
3806.000000	65.118074  
3805.000000	65.099644  
3804.000000	65.092277  
3803.000000	65.096735  
3802.000000	65.113186  
3801.000000	65.140604  
3800.000000	65.177083  
3799.000000	65.219640  
3798.000000	65.264773  
3797.000000	65.308666  
3796.000000	65.347790  
3795.000000	65.379333  
3794.000000	65.401339  
3793.000000	65.412831  
3792.000000	65.413880  
3791.000000	65.405416  
3790.000000	65.389275  
3789.000000	65.367364  
3788.000000	65.342092  
3787.000000	65.315508  
3786.000000	65.289402  
3785.000000	65.265011  
3784.000000	65.243220  
3783.000000	65.224766  
3782.000000	65.210056  
3781.000000	65.200066  
3780.000000	65.195727  
3779.000000	65.198445  
3778.000000	65.209507  
3777.000000	65.229821  
3776.000000	65.259099  
3775.000000	65.295553  
3774.000000	65.335965  
3773.000000	65.375661  
3772.000000	65.409421  
3771.000000	65.432167  
3770.000000	65.440034  
3769.000000	65.431451  
3768.000000	65.407562  
3767.000000	65.372014  
3766.000000	65.330386  
3765.000000	65.289425  
3764.000000	65.255546  
3763.000000	65.233755  
3762.000000	65.226364  
3761.000000	65.232753  
3760.000000	65.249228  
3759.000000	65.270352  
3758.000000	65.289998  
3757.000000	65.302371  
3756.000000	65.303778  
3755.000000	65.292859  
3754.000000	65.271282  
3753.000000	65.242838  
3752.000000	65.212774  
3751.000000	65.186238  
3750.000000	65.167260  
3749.000000	65.158081  
3748.000000	65.158486  
3747.000000	65.166401  
3746.000000	65.178155  
3745.000000	65.189957  
3744.000000	65.198016  
3743.000000	65.199732  
3742.000000	65.193676  
3741.000000	65.179824  
3740.000000	65.159106  
3739.000000	65.133333  
3738.000000	65.105032  
3737.000000	65.077352  
3736.000000	65.053987  
3735.000000	65.038704  
3734.000000	65.035271  
3733.000000	65.046191  
3732.000000	65.072751  
3731.000000	65.113830  
3730.000000	65.165686  
3729.000000	65.222287  
3728.000000	65.275907  
3727.000000	65.318679  
3726.000000	65.344119  
3725.000000	65.348386  
3724.000000	65.331244  
3723.000000	65.295672  
3722.000000	65.247297  
3721.000000	65.193152  
3720.000000	65.140223  
3719.000000	65.094065  
3718.000000	65.058040  
3717.000000	65.033292  
3716.000000	65.019392  
3715.000000	65.014839  
3714.000000	65.018081  
3713.000000	65.027785  
3712.000000	65.043044  
3711.000000	65.063428  
3710.000000	65.088629  
3709.000000	65.117645  
3708.000000	65.148591  
3707.000000	65.178918  
3706.000000	65.205740  
3705.000000	65.226221  
3704.000000	65.238523  
3703.000000	65.242052  
3702.000000	65.237545  
3701.000000	65.227317  
3700.000000	65.214419  
3699.000000	65.202021  
3698.000000	65.192961  
3697.000000	65.189194  
3696.000000	65.191817  
3695.000000	65.201139  
3694.000000	65.216541  
3693.000000	65.237164  
3692.000000	65.261316  
3691.000000	65.286993  
3690.000000	65.311646  
3689.000000	65.332555  
3688.000000	65.346837  
3687.000000	65.351915  
3686.000000	65.345978  
3685.000000	65.328359  
3684.000000	65.299367  
3683.000000	65.260529  
3682.000000	65.214109  
3681.000000	65.163254  
3680.000000	65.111398  
3679.000000	65.062546  
3678.000000	65.020442  
3677.000000	64.989018  
3676.000000	64.971518  
3675.000000	64.970850  
3674.000000	64.988303  
3673.000000	65.023565  
3672.000000	65.074419  
3671.000000	65.136623  
3670.000000	65.204119  
3669.000000	65.269851  
3668.000000	65.326762  
3667.000000	65.369057  
3666.000000	65.392994  
3665.000000	65.397477  
3664.000000	65.384292  
3663.000000	65.357518  
3662.000000	65.322613  
3661.000000	65.285491  
3660.000000	65.251493  
3659.000000	65.224409  
3658.000000	65.206241  
3657.000000	65.197110  
3656.000000	65.195703  
3655.000000	65.199923  
3654.000000	65.207600  
3653.000000	65.216755  
3652.000000	65.226125  
3651.000000	65.235161  
3650.000000	65.243673  
3649.000000	65.251302  
3648.000000	65.257525  
3647.000000	65.261483  
3646.000000	65.262293  
3645.000000	65.259242  
3644.000000	65.251970  
3643.000000	65.240907  
3642.000000	65.227079  
3641.000000	65.212154  
3640.000000	65.197706  
3639.000000	65.184736  
3638.000000	65.173745  
3637.000000	65.164780  
3636.000000	65.157198  
3635.000000	65.150070  
3634.000000	65.142679  
3633.000000	65.134763  
3632.000000	65.126633  
3631.000000	65.119171  
3630.000000	65.113306  
3629.000000	65.109992  
3628.000000	65.109825  
3627.000000	65.113329  
3626.000000	65.120482  
3625.000000	65.131211  
3624.000000	65.145397  
3623.000000	65.162825  
3622.000000	65.183115  
3621.000000	65.205621  
3620.000000	65.229010  
3619.000000	65.251493  
3618.000000	65.270900  
3617.000000	65.284943  
3616.000000	65.291738  
3615.000000	65.289902  
3614.000000	65.279245  
3613.000000	65.260434  
3612.000000	65.235328  
3611.000000	65.206360  
3610.000000	65.176367  
3609.000000	65.148043  
3608.000000	65.123558  
3607.000000	65.104532  
3606.000000	65.091896  
3605.000000	65.085911  
3604.000000	65.086555  
3603.000000	65.093374  
3602.000000	65.105986  
3601.000000	65.123796  
3600.000000	65.146136  
3599.000000	65.171861  
3598.000000	65.199518  
3597.000000	65.227222  
3596.000000	65.252947  
3595.000000	65.274524  
3594.000000	65.290284  
3593.000000	65.299105  
3592.000000	65.301060  
3591.000000	65.297603  
3590.000000	65.290856  
3589.000000	65.283656  
3588.000000	65.278434  
3587.000000	65.277123  
3586.000000	65.280103  
3585.000000	65.286111  
3584.000000	65.292239  
3583.000000	65.294718  
3582.000000	65.289831  
3581.000000	65.274977  
3580.000000	65.249514  
3579.000000	65.215086  
3578.000000	65.175914  
3577.000000	65.137767  
3576.000000	65.107083  
3575.000000	65.089511  
3574.000000	65.088772  
3573.000000	65.105795  
3572.000000	65.138959  
3571.000000	65.183997  
3570.000000	65.235161  
3569.000000	65.286278  
3568.000000	65.331983  
3567.000000	65.368247  
3566.000000	65.392446  
3565.000000	65.403437  
3564.000000	65.400862  
3563.000000	65.384960  
3562.000000	65.356159  
3561.000000	65.315580  
3560.000000	65.265536  
3559.000000	65.209603  
3558.000000	65.152978  
3557.000000	65.101718  
3556.000000	65.061950  
3555.000000	65.038728  
3554.000000	65.034914  
3553.000000	65.050196  
3552.000000	65.081191  
3551.000000	65.121841  
3550.000000	65.164756  
3549.000000	65.202593  
3548.000000	65.229487  
3547.000000	65.242052  
3546.000000	65.239930  
3545.000000	65.225267  
3544.000000	65.202283  
3543.000000	65.176153  
3542.000000	65.151715  
3541.000000	65.132927  
3540.000000	65.121674  
3539.000000	65.118503  
3538.000000	65.121793  
3537.000000	65.128922  
3536.000000	65.136337  
3535.000000	65.140318  
3534.000000	65.138220  
3533.000000	65.128707  
3532.000000	65.112566  
3531.000000	65.092253  
3530.000000	65.071868  
3529.000000	65.056085  
3528.000000	65.049314  
3527.000000	65.054559  
3526.000000	65.072774  
3525.000000	65.102434  
3524.000000	65.139865  
3523.000000	65.180134  
3522.000000	65.217781  
3521.000000	65.248012  
3520.000000	65.267825  
3519.000000	65.276527  
3518.000000	65.275812  
3517.000000	65.269541  
3516.000000	65.262174  
3515.000000	65.258097  
3514.000000	65.260887  
3513.000000	65.272164  
3512.000000	65.291690  
3511.000000	65.317130  
3510.000000	65.344929  
3509.000000	65.370488  
3508.000000	65.389919  
3507.000000	65.400052  
3506.000000	65.399050  
3505.000000	65.386486  
3504.000000	65.363550  
3503.000000	65.332269  
3502.000000	65.295147  
3501.000000	65.255069  
3500.000000	65.215015  
3499.000000	65.178036  
3498.000000	65.146994  
3497.000000	65.124869  
3496.000000	65.114164  
3495.000000	65.116286  
3494.000000	65.130901  
3493.000000	65.155577  
3492.000000	65.185809  
3491.000000	65.215325  
3490.000000	65.237307  
3489.000000	65.245246  
3488.000000	65.234899  
3487.000000	65.205287  
3486.000000	65.159416  
3485.000000	65.103387  
3484.000000	65.045928  
3483.000000	64.996600  
3482.000000	64.963817  
3481.000000	64.953136  
3480.000000	64.966082  
3479.000000	65.000152  
3478.000000	65.049624  
3477.000000	65.106797  
3476.000000	65.164089  
3475.000000	65.215373  
3474.000000	65.257358  
3473.000000	65.289807  
3472.000000	65.315389  
3471.000000	65.338230  
3470.000000	65.362977  
3469.000000	65.393042  
3468.000000	65.429782  
3467.000000	65.471792  
3466.000000	65.515923  
3465.000000	65.557289  
3464.000000	65.591096  
3463.000000	65.612673  
3462.000000	65.619158  
3461.000000	65.608763  
3460.000000	65.580964  
3459.000000	65.536165  
3458.000000	65.475606  
3457.000000	65.401816  
3456.000000	65.318965  
3455.000000	65.233111  
3454.000000	65.151953  
3453.000000	65.083861  
3452.000000	65.036988  
3451.000000	65.017247  
3450.000000	65.027093  
3449.000000	65.064477  
3448.000000	65.123057  
3447.000000	65.193176  
3446.000000	65.263509  
3445.000000	65.323638  
3444.000000	65.366220  
3443.000000	65.387845  
3442.000000	65.389466  
3441.000000	65.375590  
3440.000000	65.353035  
3439.000000	65.329098  
3438.000000	65.309739  
3437.000000	65.299010  
3436.000000	65.298533  
3435.000000	65.308141  
3434.000000	65.325689  
3433.000000	65.348482  
3432.000000	65.373134  
3431.000000	65.396142  
3430.000000	65.414333  
3429.000000	65.424990  
3428.000000	65.426278  
3427.000000	65.417408  
3426.000000	65.398883  
3425.000000	65.372300  
3424.000000	65.340518  
3423.000000	65.307283  
3422.000000	65.276503  
3421.000000	65.251517  
3420.000000	65.234708  
3419.000000	65.227079  
3418.000000	65.228295  
3417.000000	65.236878  
3416.000000	65.250587  
3415.000000	65.266990  
3414.000000	65.284156  
3413.000000	65.301251  
3412.000000	65.317940  
3411.000000	65.334367  
3410.000000	65.351057  
3409.000000	65.368366  
3408.000000	65.386295  
3407.000000	65.404105  
3406.000000	65.420341  
3405.000000	65.432786  
3404.000000	65.439462  
3403.000000	65.438580  
3402.000000	65.429019  
3401.000000	65.410709  
3400.000000	65.384793  
3399.000000	65.353369  
3398.000000	65.319156  
3397.000000	65.285158  
3396.000000	65.254163  
3395.000000	65.228414  
3394.000000	65.209341  
3393.000000	65.197396  
3392.000000	65.192031  
3391.000000	65.191888  
3390.000000	65.194940  
3389.000000	65.198898  
3388.000000	65.201616  
3387.000000	65.201663  
3386.000000	65.198779  
3385.000000	65.193843  
3384.000000	65.188670  
3383.000000	65.185689  
3382.000000	65.187430  
3381.000000	65.195822  
3380.000000	65.212011  
3379.000000	65.235853  
3378.000000	65.265965  
3377.000000	65.300154  
3376.000000	65.335464  
3375.000000	65.369009  
3374.000000	65.398025  
3373.000000	65.420365  
3372.000000	65.434527  
3371.000000	65.440154  
3370.000000	65.437769  
3369.000000	65.428709  
3368.000000	65.414524  
3367.000000	65.397095  
3366.000000	65.377736  
3365.000000	65.357446  
3364.000000	65.336513  
3363.000000	65.314626  
3362.000000	65.291213  
3361.000000	65.266227  
3360.000000	65.240478  
3359.000000	65.216183  
3358.000000	65.196871  
3357.000000	65.186882  
3356.000000	65.190434  
3355.000000	65.210533  
3354.000000	65.247964  
3353.000000	65.300488  
3352.000000	65.362787  
3351.000000	65.427207  
3350.000000	65.484857  
3349.000000	65.527486  
3348.000000	65.548944  
3347.000000	65.546298  
3346.000000	65.520381  
3345.000000	65.475296  
3344.000000	65.417742  
3343.000000	65.355134  
3342.000000	65.294313  
3341.000000	65.240120  
3340.000000	65.195155  
3339.000000	65.159296  
3338.000000	65.130877  
3337.000000	65.107512  
3336.000000	65.087223  
3335.000000	65.069031  
3334.000000	65.053510  
3333.000000	65.042233  
3332.000000	65.037274  
3331.000000	65.040349  
3330.000000	65.052151  
3329.000000	65.071821  
3328.000000	65.096974  
3327.000000	65.124344  
3326.000000	65.150141  
3325.000000	65.170741  
3324.000000	65.183424  
3323.000000	65.186715  
3322.000000	65.180754  
3321.000000	65.167093  
3320.000000	65.148353  
3319.000000	65.127491  
3318.000000	65.107250  
3317.000000	65.089941  
3316.000000	65.076661  
3315.000000	65.067458  
3314.000000	65.061354  
3313.000000	65.056633  
3312.000000	65.051817  
3311.000000	65.046000  
3310.000000	65.039086  
3309.000000	65.031743  
3308.000000	65.025591  
3307.000000	65.022706  
3306.000000	65.024733  
3305.000000	65.032505  
3304.000000	65.045857  
3303.000000	65.063714  
3302.000000	65.084481  
3301.000000	65.106320  
3300.000000	65.127873  
3299.000000	65.148067  
3298.000000	65.166211  
3297.000000	65.181565  
3296.000000	65.193295  
3295.000000	65.200352  
3294.000000	65.201640  
3293.000000	65.196347  
3292.000000	65.184259  
3291.000000	65.165948  
3290.000000	65.143156  
3289.000000	65.118241  
3288.000000	65.094113  
3287.000000	65.073418  
3286.000000	65.058064  
3285.000000	65.049099  
3284.000000	65.046691  
3283.000000	65.050482  
3282.000000	65.060067  
3281.000000	65.074968  
3280.000000	65.094923  
3279.000000	65.119409  
3278.000000	65.147423  
3277.000000	65.177202  
3276.000000	65.206170  
3275.000000	65.231370  
3274.000000	65.250110  
3273.000000	65.260624  
3272.000000	65.262532  
3271.000000	65.257167  
3270.000000	65.247178  
3269.000000	65.235686  
3268.000000	65.225791  
3267.000000	65.219736  
3266.000000	65.218400  
3265.000000	65.221285  
3264.000000	65.226912  
3263.000000	65.233659  
3262.000000	65.240097  
3261.000000	65.245556  
3260.000000	65.249896  
3259.000000	65.253567  
3258.000000	65.257048  
3257.000000	65.260338  
3256.000000	65.263009  
3255.000000	65.264153  
3254.000000	65.263104  
3253.000000	65.259790  
3252.000000	65.255045  
3251.000000	65.250372  
3250.000000	65.247941  
3249.000000	65.249514  
3248.000000	65.256094  
3247.000000	65.267038  
3246.000000	65.280246  
3245.000000	65.292263  
3244.000000	65.299654  
3243.000000	65.299487  
3242.000000	65.290641  
3241.000000	65.273547  
3240.000000	65.250492  
3239.000000	65.224480  
3238.000000	65.198493  
3237.000000	65.174818  
3236.000000	65.154218  
3235.000000	65.136361  
3234.000000	65.119957  
3233.000000	65.103912  
3232.000000	65.087962  
3231.000000	65.073275  
3230.000000	65.062236  
3229.000000	65.058159  
3228.000000	65.064191  
3227.000000	65.082383  
3226.000000	65.112757  
3225.000000	65.153241  
3224.000000	65.199756  
3223.000000	65.247273  
3222.000000	65.290617  
3221.000000	65.325641  
3220.000000	65.349888  
3219.000000	65.363073  
3218.000000	65.366744  
3217.000000	65.363979  
3216.000000	65.358161  
3215.000000	65.352487  
3214.000000	65.348792  
3213.000000	65.347337  
3212.000000	65.346407  
3211.000000	65.343809  
3210.000000	65.336632  
3209.000000	65.322828  
3208.000000	65.301370  
3207.000000	65.273022  
3206.000000	65.239667  
3205.000000	65.204071  
3204.000000	65.168857  
3203.000000	65.136146  
3202.000000	65.106987  
3201.000000	65.081501  
3200.000000	65.059137  
3199.000000	65.039205  
3198.000000	65.021681  
3197.000000	65.007376  
3196.000000	64.997935  
3195.000000	64.995169  
3194.000000	65.000271  
3193.000000	65.013384  
3192.000000	65.032720  
3191.000000	65.055418  
3190.000000	65.077781  
3189.000000	65.096712  
3188.000000	65.110158  
3187.000000	65.117812  
3186.000000	65.120959  
3185.000000	65.122008  
3184.000000	65.123629  
3183.000000	65.127921  
3182.000000	65.135931  
3181.000000	65.147233  
3180.000000	65.160512  
3179.000000	65.173602  
3178.000000	65.184521  
3177.000000	65.191769  
3176.000000	65.194773  
3175.000000	65.193676  
3174.000000	65.189075  
3173.000000	65.181827  
3172.000000	65.172982  
3171.000000	65.163445  
3170.000000	65.154147  
3169.000000	65.146303  
3168.000000	65.141439  
3167.000000	65.141654  
3166.000000	65.149092  
3165.000000	65.165567  
3164.000000	65.191602  
3163.000000	65.226268  
3162.000000	65.266680  
3161.000000	65.308785  
3160.000000	65.347576  
3159.000000	65.377998  
3158.000000	65.395689  
3157.000000	65.398263  
3156.000000	65.385270  
3155.000000	65.358257  
3154.000000	65.320420  
3153.000000	65.275979  
3152.000000	65.229654  
3151.000000	65.186214  
3150.000000	65.150046  
3149.000000	65.124678  
3148.000000	65.112662  
3147.000000	65.115118  
3146.000000	65.131378  
3145.000000	65.158557  
3144.000000	65.191435  
3143.000000	65.223145  
3142.000000	65.245890  
3141.000000	65.253162  
3140.000000	65.240311  
3139.000000	65.207099  
3138.000000	65.157914  
3137.000000	65.101575  
3136.000000	65.049886  
3135.000000	65.014982  
3134.000000	65.007019  
3133.000000	65.031290  
3132.000000	65.087103  
3131.000000	65.167284  
3130.000000	65.259885  
3129.000000	65.350580  
3128.000000	65.425968  
3127.000000	65.476107  
3126.000000	65.496182  
3125.000000	65.487170  
3124.000000	65.454673  
3123.000000	65.406966  
3122.000000	65.352773  
3121.000000	65.299630  
3120.000000	65.252590  
3119.000000	65.214323  
3118.000000	65.185785  
3117.000000	65.167117  
3116.000000	65.158724  
3115.000000	65.161347  
3114.000000	65.176415  
3113.000000	65.204930  
3112.000000	65.247154  
3111.000000	65.300989  
3110.000000	65.362715  
3109.000000	65.426683  
3108.000000	65.486860  
3107.000000	65.537714  
3106.000000	65.575289  
3105.000000	65.597987  
3104.000000	65.606164  
3103.000000	65.602469  
3102.000000	65.590023  
3101.000000	65.572118  
3100.000000	65.550756  
3099.000000	65.526890  
3098.000000	65.500140  
3097.000000	65.469956  
3096.000000	65.435457  
3095.000000	65.396499  
3094.000000	65.353775  
3093.000000	65.309023  
3092.000000	65.264511  
3091.000000	65.222549  
3090.000000	65.185022  
3089.000000	65.153264  
3088.000000	65.127849  
3087.000000	65.108871  
3086.000000	65.095949  
3085.000000	65.088963  
3084.000000	65.087604  
3083.000000	65.092182  
3082.000000	65.103054  
3081.000000	65.120959  
3080.000000	65.145921  
3079.000000	65.177488  
3078.000000	65.214180  
3077.000000	65.253591  
3076.000000	65.292549  
3075.000000	65.327429  
3074.000000	65.355014  
3073.000000	65.372729  
3072.000000	65.379452  
3071.000000	65.375375  
3070.000000	65.362048  
3069.000000	65.341949  
3068.000000	65.318059  
3067.000000	65.292859  
3066.000000	65.267992  
3065.000000	65.243935  
3064.000000	65.220355  
3063.000000	65.196490  
3062.000000	65.171575  
3061.000000	65.145540  
3060.000000	65.119314  
3059.000000	65.094280  
3058.000000	65.072417  
3057.000000	65.055513  
3056.000000	65.045356  
3055.000000	65.042924  
3054.000000	65.048885  
3053.000000	65.063118  
3052.000000	65.085244  
3051.000000	65.114688  
3050.000000	65.150475  
3049.000000	65.191268  
3048.000000	65.235280  
3047.000000	65.280270  
3046.000000	65.323495  
3045.000000	65.362024  
3044.000000	65.393066  
3043.000000	65.414738  
3042.000000	65.425896  
3041.000000	65.426588  
3040.000000	65.417861  
3039.000000	65.401530  
3038.000000	65.379881  
3037.000000	65.355443  
3036.000000	65.330815  
3035.000000	65.308380  
3034.000000	65.290474  
3033.000000	65.278911  
3032.000000	65.274596  
3031.000000	65.277218  
3030.000000	65.285325  
3029.000000	65.296316  
3028.000000	65.306854  
3027.000000	65.313863  
3026.000000	65.314936  
3025.000000	65.309453  
3024.000000	65.298366  
3023.000000	65.284705  
3022.000000	65.272498  
3021.000000	65.266203  
3020.000000	65.269517  
3019.000000	65.284323  
3018.000000	65.310144  
3017.000000	65.344238  
3016.000000	65.382409  
3015.000000	65.419340  
3014.000000	65.449953  
3013.000000	65.470027  
3012.000000	65.477228  
3011.000000	65.470957  
3010.000000	65.452456  
3009.000000	65.424156  
3008.000000	65.389418  
3007.000000	65.351963  
3006.000000	65.315556  
3005.000000	65.283226  
3004.000000	65.257406  
3003.000000	65.239667  
3002.000000	65.230727  
3001.000000	65.230345  
3000.000000	65.237760  
2999.000000	65.251302  
2998.000000	65.269160  
2997.000000	65.289354  
2996.000000	65.310168  
2995.000000	65.329980  
2994.000000	65.347552  
2993.000000	65.361928  
2992.000000	65.372300  
2991.000000	65.378046  
2990.000000	65.378713  
2989.000000	65.374040  
2988.000000	65.364241  
2987.000000	65.350031  
2986.000000	65.332937  
2985.000000	65.315032  
2984.000000	65.298652  
2983.000000	65.285921  
2982.000000	65.278458  
2981.000000	65.276813  
2980.000000	65.280199  
2979.000000	65.286636  
2978.000000	65.293264  
2977.000000	65.296864  
2976.000000	65.294790  
2975.000000	65.285420  
2974.000000	65.268301  
2973.000000	65.244174  
2972.000000	65.215039  
2971.000000	65.183639  
2970.000000	65.152716  
2969.000000	65.124821  
2968.000000	65.101814  
2967.000000	65.084743  
2966.000000	65.073895  
2965.000000	65.069007  
2964.000000	65.069222  
2963.000000	65.073442  
2962.000000	65.080618  
2961.000000	65.089869  
2960.000000	65.100145  
2959.000000	65.110778  
2958.000000	65.121006  
2957.000000	65.130186  
2956.000000	65.137791  
2955.000000	65.143561  
2954.000000	65.147423  
2953.000000	65.149641  
2952.000000	65.150785  
2951.000000	65.151715  
2950.000000	65.153527  
2949.000000	65.157389  
2948.000000	65.164279  
2947.000000	65.174746  
2946.000000	65.188479  
2945.000000	65.204811  
2944.000000	65.221953  
2943.000000	65.237617  
2942.000000	65.249037  
2941.000000	65.253758  
2940.000000	65.249919  
2939.000000	65.236592  
2938.000000	65.214133  
2937.000000	65.184473  
2936.000000	65.150523  
2935.000000	65.115594  
2934.000000	65.082812  
2933.000000	65.054583  
2932.000000	65.031886  
2931.000000	65.014243  
2930.000000	64.999985  
2929.000000	64.986610  
2928.000000	64.971613  
2927.000000	64.953303  
2926.000000	64.930868  
2925.000000	64.905142  
2924.000000	64.878058  
2923.000000	64.852428  
2922.000000	64.831161  
2921.000000	64.816832  
2920.000000	64.811134  
2919.000000	64.814782  
2918.000000	64.827322  
2917.000000	64.847660  
2916.000000	64.874196  
2915.000000	64.905428  
2914.000000	64.939785  
2913.000000	64.975833  
2912.000000	65.012192  
2911.000000	65.047597  
2910.000000	65.080642  
2909.000000	65.109920  
2908.000000	65.134286  
2907.000000	65.152955  
2906.000000	65.165734  
2905.000000	65.172934  
2904.000000	65.175223  
2903.000000	65.173745  
2902.000000	65.169858  
2901.000000	65.165042  
2900.000000	65.160703  
2899.000000	65.158319  
2898.000000	65.159153  
2897.000000	65.164160  
2896.000000	65.173578  
2895.000000	65.187215  
2894.000000	65.203952  
2893.000000	65.221691  
2892.000000	65.237760  
2891.000000	65.249228  
2890.000000	65.253853  
2889.000000	65.250277  
2888.000000	65.238690  
2887.000000	65.220832  
2886.000000	65.199637  
2885.000000	65.178823  
2884.000000	65.161705  
2883.000000	65.150666  
2882.000000	65.146636  
2881.000000	65.149116  
2880.000000	65.156197  
2879.000000	65.165114  
2878.000000	65.172791  
2877.000000	65.176749  
2876.000000	65.175223  
2875.000000	65.167665  
2874.000000	65.154767  
2873.000000	65.138554  
2872.000000	65.121817  
2871.000000	65.107893  
2870.000000	65.100145  
2869.000000	65.101385  
2868.000000	65.113615  
2867.000000	65.137195  
2866.000000	65.170979  
2865.000000	65.212035  
2864.000000	65.256047  
2863.000000	65.297818  
2862.000000	65.332341  
2861.000000	65.355491  
2860.000000	65.364599  
2859.000000	65.359187  
2858.000000	65.340924  
2857.000000	65.313220  
2856.000000	65.280628  
2855.000000	65.247845  
2854.000000	65.219092  
2853.000000	65.197181  
2852.000000	65.183758  
2851.000000	65.178894  
2850.000000	65.181493  
2849.000000	65.189814  
2848.000000	65.202116  
2847.000000	65.216779  
2846.000000	65.232944  
2845.000000	65.250062  
2844.000000	65.267920  
2843.000000	65.286493  
2842.000000	65.305805  
2841.000000	65.325427  
2840.000000	65.344643  
2839.000000	65.362405  
2838.000000	65.377330  
2837.000000	65.388226  
2836.000000	65.393829  
2835.000000	65.393590  
2834.000000	65.387439  
2833.000000	65.376067  
2832.000000	65.360736  
2831.000000	65.343332  
2830.000000	65.326094  
2829.000000	65.311264  
2828.000000	65.300798  
2827.000000	65.296316  
2826.000000	65.298676  
2825.000000	65.308189  
2824.000000	65.323972  
2823.000000	65.344262  
2822.000000	65.366625  
2821.000000	65.388345  
2820.000000	65.406680  
2819.000000	65.419530  
2818.000000	65.425539  
2817.000000	65.424442  
2816.000000	65.416979  
2815.000000	65.404748  
2814.000000	65.389752  
2813.000000	65.373849  
2812.000000	65.358614  
2811.000000	65.344810  
2810.000000	65.332746  
2809.000000	65.322160  
2808.000000	65.312576  
2807.000000	65.303802  
2806.000000	65.295553  
2805.000000	65.288138  
2804.000000	65.282225  
2803.000000	65.278935  
2802.000000	65.279078  
2801.000000	65.283536  
2800.000000	65.292811  
2799.000000	65.306830  
2798.000000	65.325021  
2797.000000	65.346121  
2796.000000	65.368390  
2795.000000	65.389561  
2794.000000	65.407085  
2793.000000	65.418291  
2792.000000	65.420913  
2791.000000	65.413570  
2790.000000	65.396189  
2789.000000	65.370512  
2788.000000	65.339803  
2787.000000	65.308713  
2786.000000	65.282130  
2785.000000	65.264177  
2784.000000	65.257024  
2783.000000	65.260744  
2782.000000	65.272688  
2781.000000	65.288305  
2780.000000	65.302205  
2779.000000	65.309524  
2778.000000	65.307116  
2777.000000	65.294122  
2776.000000	65.272235  
2775.000000	65.245008  
2774.000000	65.216994  
2773.000000	65.192294  
2772.000000	65.173792  
2771.000000	65.162515  
2770.000000	65.157699  
2769.000000	65.157485  
2768.000000	65.159511  
2767.000000	65.161776  
2766.000000	65.163183  
2765.000000	65.163874  
2764.000000	65.164470  
2763.000000	65.166163  
2762.000000	65.170168  
2761.000000	65.177655  
2760.000000	65.189170  
2759.000000	65.205001  
2758.000000	65.224909  
2757.000000	65.248441  
2756.000000	65.275168  
2755.000000	65.304446  
2754.000000	65.335249  
2753.000000	65.366172  
2752.000000	65.395498  
2751.000000	65.421223  
2750.000000	65.441250  
2749.000000	65.453743  
2748.000000	65.457606  
2747.000000	65.452504  
2746.000000	65.439176  
2745.000000	65.419220  
2744.000000	65.394949  
2743.000000	65.368723  
2742.000000	65.342807  
2741.000000	65.318894  
2740.000000	65.298151  
2739.000000	65.280795  
2738.000000	65.266537  
2737.000000	65.254616  
2736.000000	65.244364  
2735.000000	65.235447  
2734.000000	65.228343  
2733.000000	65.223693  
2732.000000	65.222787  
2731.000000	65.226697  
2730.000000	65.236353  
2729.000000	65.251660  
2728.000000	65.271735  
2727.000000	65.294718  
2726.000000	65.318155  
2725.000000	65.339374  
2724.000000	65.355992  
2723.000000	65.366435  
2722.000000	65.370082  
2721.000000	65.367317  
2720.000000	65.359401  
2719.000000	65.348267  
2718.000000	65.335869  
2717.000000	65.324020  
2716.000000	65.313959  
2715.000000	65.306401  
2714.000000	65.301465  
2713.000000	65.298867  
2712.000000	65.297961  
2711.000000	65.297913  
2710.000000	65.297794  
2709.000000	65.296816  
2708.000000	65.294265  
2707.000000	65.289831  
2706.000000	65.283513  
2705.000000	65.275788  
2704.000000	65.267634  
2703.000000	65.260529  
2702.000000	65.256190  
2701.000000	65.256214  
2700.000000	65.261864  
2699.000000	65.273523  
2698.000000	65.290713  
2697.000000	65.311765  
2696.000000	65.334105  
2695.000000	65.354681  
2694.000000	65.370655  
2693.000000	65.379834  
2692.000000	65.381312  
2691.000000	65.375638  
2690.000000	65.364623  
2689.000000	65.351009  
2688.000000	65.337657  
2687.000000	65.326881  
2686.000000	65.320038  
2685.000000	65.317201  
2684.000000	65.317535  
2683.000000	65.319299  
2682.000000	65.320754  
2681.000000	65.320706  
2680.000000	65.319132  
2679.000000	65.316748  
2678.000000	65.315127  
2677.000000	65.315985  
2676.000000	65.320920  
2675.000000	65.330719  
2674.000000	65.345358  
2673.000000	65.363836  
2672.000000	65.384769  
2671.000000	65.406584  
2670.000000	65.427994  
2669.000000	65.448212  
2668.000000	65.466856  
2667.000000	65.483951  
2666.000000	65.499591  
2665.000000	65.513920  
2664.000000	65.526700  
2663.000000	65.537285  
2662.000000	65.544557  
2661.000000	65.547132  
2660.000000	65.543508  
2659.000000	65.532469  
2658.000000	65.513181  
2657.000000	65.485477  
2656.000000	65.450072  
2655.000000	65.408658  
2654.000000	65.363621  
2653.000000	65.318083  
2652.000000	65.275478  
2651.000000	65.239048  
2650.000000	65.211534  
2649.000000	65.194773  
2648.000000	65.189146  
2647.000000	65.193939  
2646.000000	65.207123  
2645.000000	65.225887  
2644.000000	65.246915  
2643.000000	65.266871  
2642.000000	65.282773  
2641.000000	65.292644  
2640.000000	65.295338  
2639.000000	65.291047  
2638.000000	65.280961  
2637.000000	65.267086  
2636.000000	65.251970  
2635.000000	65.238046  
2634.000000	65.227460  
2633.000000	65.221405  
2632.000000	65.220117  
2631.000000	65.222954  
2630.000000	65.228605  
2629.000000	65.235447  
2628.000000	65.242099  
2627.000000	65.247559  
2626.000000	65.251612  
2625.000000	65.254759  
2624.000000	65.257692  
2623.000000	65.260958  
2622.000000	65.264582  
2621.000000	65.268063  
2620.000000	65.270304  
2619.000000	65.269994  
2618.000000	65.266203  
2617.000000	65.258717  
2616.000000	65.248680  
2615.000000	65.238142  
2614.000000	65.229964  
2613.000000	65.227174  
2612.000000	65.232014  
2611.000000	65.245556  
2610.000000	65.267133  
2609.000000	65.294384  
2608.000000	65.323376  
2607.000000	65.349650  
2606.000000	65.368866  
2605.000000	65.377783  
2604.000000	65.374684  
2603.000000	65.359783  
2602.000000	65.335106  
2601.000000	65.304160  
2600.000000	65.271067  
2599.000000	65.240025  
2598.000000	65.214467  
2597.000000	65.196657  
2596.000000	65.187215  
2595.000000	65.185546  
2594.000000	65.189719  
2593.000000	65.197563  
2592.000000	65.207052  
2591.000000	65.216898  
2590.000000	65.226459  
2589.000000	65.236091  
2588.000000	65.246582  
2587.000000	65.258789  
2586.000000	65.273118  
2585.000000	65.289115  
2584.000000	65.305685  
2583.000000	65.321087  
2582.000000	65.333461  
2581.000000	65.341377  
2580.000000	65.344214  
2579.000000	65.342450  
2578.000000	65.337610  
2577.000000	65.331912  
2576.000000	65.327525  
2575.000000	65.326285  
2574.000000	65.329217  
2573.000000	65.336513  
2572.000000	65.347242  
2571.000000	65.359926  
2570.000000	65.372562  
2569.000000	65.383100  
2568.000000	65.389823  
2567.000000	65.391421  
2566.000000	65.387368  
2565.000000	65.377879  
2564.000000	65.363979  
2563.000000	65.347218  
2562.000000	65.329527  
2561.000000	65.313100  
2560.000000	65.299773  
2559.000000	65.290808  
2558.000000	65.286684  
2557.000000	65.287065  
2556.000000	65.291309  
2555.000000	65.298295  
2554.000000	65.307497  
2553.000000	65.318918  
2552.000000	65.333390  
2551.000000	65.351986  
2550.000000	65.375638  
2549.000000	65.404295  
2548.000000	65.436649  
2547.000000	65.469598  
2546.000000	65.499067  
2545.000000	65.520358  
2544.000000	65.529465  
2543.000000	65.523862  
2542.000000	65.503311  
2541.000000	65.469670  
2540.000000	65.427017  
2539.000000	65.380120  
2538.000000	65.333938  
2537.000000	65.292406  
2536.000000	65.257835  
2535.000000	65.231156  
2534.000000	65.212011  
2533.000000	65.199804  
2532.000000	65.193915  
2531.000000	65.194439  
2530.000000	65.201807  
2529.000000	65.216636  
2528.000000	65.239000  
2527.000000	65.268182  
2526.000000	65.301942  
2525.000000	65.337157  
2524.000000	65.370011  
2523.000000	65.396714  
2522.000000	65.414118  
2521.000000	65.420651  
2520.000000	65.416216  
2519.000000	65.402317  
2518.000000	65.381360  
2517.000000	65.356373  
2516.000000	65.329980  
2515.000000	65.304374  
2514.000000	65.280866  
2513.000000	65.260171  
2512.000000	65.242433  
2511.000000	65.227603  
2510.000000	65.215659  
2509.000000	65.206813  
2508.000000	65.201640  
2507.000000	65.200614  
2506.000000	65.204167  
2505.000000	65.212392  
2504.000000	65.225052  
2503.000000	65.241193  
2502.000000	65.259766  
2501.000000	65.279507  
2500.000000	65.299797  
2499.000000	65.320706  
2498.000000	65.342855  
2497.000000	65.367126  
2496.000000	65.394163  
2495.000000	65.424013  
2494.000000	65.455436  
2493.000000	65.485930  
2492.000000	65.512228  
2491.000000	65.530991  
2490.000000	65.539669  
2489.000000	65.537238  
2488.000000	65.524673  
2487.000000	65.504789  
2486.000000	65.482020  
2485.000000	65.461087  
2484.000000	65.446138  
2483.000000	65.439701  
2482.000000	65.442585  
2481.000000	65.453433  
2480.000000	65.469598  
2479.000000	65.487551  
2478.000000	65.504145  
2477.000000	65.516543  
2476.000000	65.522933  
2475.000000	65.522098  
2474.000000	65.513467  
2473.000000	65.497016  
2472.000000	65.473198  
2471.000000	65.442943  
2470.000000	65.407562  
2469.000000	65.369153  
2468.000000	65.330696  
2467.000000	65.295553  
2466.000000	65.267181  
2465.000000	65.248870  
2464.000000	65.243077  
2463.000000	65.250873  
2462.000000	65.271615  
2461.000000	65.303063  
2460.000000	65.341544  
2459.000000	65.382409  
2458.000000	65.421032  
2457.000000	65.452933  
2456.000000	65.475153  
2455.000000	65.486288  
2454.000000	65.486741  
2453.000000	65.478253  
2452.000000	65.463447  
2451.000000	65.445661  
2450.000000	65.427350  
2449.000000	65.410065  
2448.000000	65.393877  
2447.000000	65.377569  
2446.000000	65.359330  
2445.000000	65.337514  
2444.000000	65.311193  
2443.000000	65.280914  
2442.000000	65.248870  
2441.000000	65.218782  
2440.000000	65.194964  
2439.000000	65.181446  
2438.000000	65.180826  
2437.000000	65.193772  
2436.000000	65.218615  
2435.000000	65.252017  
2434.000000	65.289330  
2433.000000	65.326237  
2432.000000	65.359234  
2431.000000	65.386962  
2430.000000	65.409946  
2429.000000	65.430331  
2428.000000	65.450954  
2427.000000	65.474176  
2426.000000	65.501189  
2425.000000	65.530896  
2424.000000	65.560460  
2423.000000	65.585160  
2422.000000	65.599918  
2421.000000	65.600109  
2420.000000	65.583229  
2419.000000	65.549063  
2418.000000	65.500187  
2417.000000	65.441346  
2416.000000	65.378856  
2415.000000	65.319395  
2414.000000	65.268850  
2413.000000	65.231513  
2412.000000	65.209627  
2411.000000	65.202760  
2410.000000	65.208649  
2409.000000	65.223455  
2408.000000	65.243101  
2407.000000	65.263748  
2406.000000	65.282869  
2405.000000	65.298891  
2404.000000	65.311622  
2403.000000	65.321373  
2402.000000	65.328979  
2401.000000	65.334773  
2400.000000	65.338945  
2399.000000	65.341591  
2398.000000	65.342760  
2397.000000	65.342855  
2396.000000	65.342164  
2395.000000	65.341114  
2394.000000	65.339636  
2393.000000	65.337276  
2392.000000	65.333151  
2391.000000	65.326166  
2390.000000	65.315485  
2389.000000	65.300941  
2388.000000	65.283274  
2387.000000	65.264248  
2386.000000	65.246438  
2385.000000	65.232443  
2384.000000	65.224123  
2383.000000	65.222001  
2382.000000	65.225148  
2381.000000	65.231561  
2380.000000	65.238380  
2379.000000	65.243220  
2378.000000	65.244507  
2377.000000	65.242505  
2376.000000	65.238642  
2375.000000	65.235686  
2374.000000	65.236306  
2373.000000	65.242791  
2372.000000	65.256118  
2371.000000	65.275883  
2370.000000	65.300130  
2369.000000	65.326070  
2368.000000	65.350651  
2367.000000	65.371274  
2366.000000	65.386319  
2365.000000	65.395307  
2364.000000	65.398645  
2363.000000	65.397453  
2362.000000	65.392971  
2361.000000	65.386128  
2360.000000	65.377330  
2359.000000	65.366506  
2358.000000	65.353655  
2357.000000	65.338802  
2356.000000	65.322828  
2355.000000	65.307307  
2354.000000	65.294504  
2353.000000	65.286684  
2352.000000	65.285706  
2351.000000	65.292525  
2350.000000	65.306615  
2349.000000	65.325975  
2348.000000	65.347456  
2347.000000	65.367221  
2346.000000	65.381717  
2345.000000	65.388607  
2344.000000	65.387153  
2343.000000	65.378236  
2342.000000	65.364265  
2341.000000	65.348482  
2340.000000	65.334248  
2339.000000	65.324044  
2338.000000	65.319347  
2337.000000	65.320396  
2336.000000	65.326094  
2335.000000	65.334630  
2334.000000	65.343689  
2333.000000	65.351176  
2332.000000	65.355348  
2331.000000	65.355539  
2330.000000	65.351963  
2329.000000	65.345954  
2328.000000	65.339684  
2327.000000	65.335702  
2326.000000	65.336441  
2325.000000	65.343546  
2324.000000	65.357804  
2323.000000	65.378117  
2322.000000	65.402126  
2321.000000	65.426015  
2320.000000	65.445637  
2319.000000	65.456819  
2318.000000	65.456557  
2317.000000	65.443277  
2316.000000	65.417504  
2315.000000	65.381622  
2314.000000	65.339446  
2313.000000	65.295529  
2312.000000	65.254426  
2311.000000	65.220117  
2310.000000	65.195369  
2309.000000	65.181708  
2308.000000	65.179157  
2307.000000	65.186429  
2306.000000	65.201282  
2305.000000	65.220618  
2304.000000	65.241312  
2303.000000	65.260338  
2302.000000	65.275526  
2301.000000	65.285491  
2300.000000	65.289974  
2299.000000	65.289711  
2298.000000	65.286087  
2297.000000	65.281009  
2296.000000	65.276288  
2295.000000	65.273451  
2294.000000	65.273404  
2293.000000	65.276527  
2292.000000	65.282487  
2291.000000	65.290737  
2290.000000	65.300488  
2289.000000	65.311050  
2288.000000	65.321803  
2287.000000	65.332317  
2286.000000	65.342354  
2285.000000	65.351724  
2284.000000	65.360116  
2283.000000	65.367245  
2282.000000	65.372943  
2281.000000	65.377163  
2280.000000	65.379810  
2279.000000	65.380787  
2278.000000	65.380215  
2277.000000	65.378093  
2276.000000	65.374732  
2275.000000	65.370488  
2274.000000	65.365600  
2273.000000	65.360522  
2272.000000	65.355896  
2271.000000	65.352654  
2270.000000	65.351533  
2269.000000	65.352988  
2268.000000	65.357422  
2267.000000	65.364646  
2266.000000	65.373969  
2265.000000	65.384149  
2264.000000	65.393590  
2263.000000	65.400481  
2262.000000	65.403318  
2261.000000	65.401101  
2260.000000	65.393495  
2259.000000	65.381193  
2258.000000	65.365624  
2257.000000	65.348982  
2256.000000	65.333819  
2255.000000	65.322661  
2254.000000	65.317344  
2253.000000	65.318822  
2252.000000	65.326690  
2251.000000	65.339469  
2250.000000	65.354561  
2249.000000	65.368700  
2248.000000	65.378618  
2247.000000	65.381526  
2246.000000	65.375757  
2245.000000	65.360879  
2244.000000	65.338087  
2243.000000	65.309619  
2242.000000	65.278744  
2241.000000	65.249109  
2240.000000	65.224170  
2239.000000	65.206766  
2238.000000	65.198636  
2237.000000	65.200376  
2236.000000	65.211272  
2235.000000	65.229487  
2234.000000	65.252399  
2233.000000	65.276885  
2232.000000	65.299820  
2231.000000	65.318465  
2230.000000	65.331029  
2229.000000	65.336871  
2228.000000	65.336728  
2227.000000	65.332341  
2226.000000	65.326189  
2225.000000	65.320754  
2224.000000	65.318298  
2223.000000	65.320205  
2222.000000	65.326690  
2221.000000	65.336751  
2220.000000	65.348458  
2219.000000	65.359282  
2218.000000	65.366744  
2217.000000	65.368843  
2216.000000	65.364313  
2215.000000	65.353131  
2214.000000	65.336346  
2213.000000	65.316057  
2212.000000	65.294933  
2211.000000	65.275812  
2210.000000	65.261054  
2209.000000	65.252399  
2208.000000	65.250658  
2207.000000	65.255546  
2206.000000	65.265727  
2205.000000	65.279483  
2204.000000	65.294766  
2203.000000	65.309810  
2202.000000	65.323185  
2201.000000	65.334081  
2200.000000	65.342259  
2199.000000	65.348029  
2198.000000	65.351653  
2197.000000	65.353369  
2196.000000	65.353107  
2195.000000	65.350317  
2194.000000	65.344357  
2193.000000	65.334701  
2192.000000	65.321397  
2191.000000	65.305209  
2190.000000	65.287923  
2189.000000	65.271854  
2188.000000	65.259480  
2187.000000	65.252852  
2186.000000	65.253043  
2185.000000	65.259599  
2184.000000	65.270876  
2183.000000	65.284276  
2182.000000	65.296936  
2181.000000	65.306401  
2180.000000	65.311694  
2179.000000	65.313434  
2178.000000	65.313792  
2177.000000	65.315842  
2176.000000	65.322303  
2175.000000	65.334820  
2174.000000	65.353417  
2173.000000	65.376424  
2172.000000	65.401148  
2171.000000	65.424537  
2170.000000	65.444302  
2169.000000	65.459275  
2168.000000	65.469455  
2167.000000	65.475583  
2166.000000	65.478920  
2165.000000	65.480327  
2164.000000	65.480327  
2163.000000	65.478539  
2162.000000	65.474843  
2161.000000	65.468502  
2160.000000	65.459489  
2159.000000	65.447378  
2158.000000	65.432310  
2157.000000	65.413856  
2156.000000	65.391159  
2155.000000	65.363073  
2154.000000	65.328454  
2153.000000	65.287303  
2152.000000	65.241456  
2151.000000	65.194845  
2150.000000	65.153145  
2149.000000	65.122675  
2148.000000	65.109014  
2147.000000	65.115284  
2146.000000	65.141248  
2145.000000	65.183329  
2144.000000	65.235400  
2143.000000	65.290164  
2142.000000	65.340852  
2141.000000	65.382313  
2140.000000	65.412259  
2139.000000	65.430665  
2138.000000	65.439677  
2137.000000	65.442752  
2136.000000	65.443086  
2135.000000	65.443229  
2134.000000	65.443778  
2133.000000	65.444397  
2132.000000	65.443325  
2131.000000	65.438985  
2130.000000	65.430021  
2129.000000	65.416216  
2128.000000	65.398454  
2127.000000	65.378665  
2126.000000	65.359449  
2125.000000	65.343117  
2124.000000	65.331578  
2123.000000	65.325903  
2122.000000	65.326213  
2121.000000	65.331721  
2120.000000	65.341234  
2119.000000	65.353536  
2118.000000	65.367865  
2117.000000	65.383815  
2116.000000	65.401554  
2115.000000	65.421032  
2114.000000	65.441799  
2113.000000	65.462398  
2112.000000	65.480303  
2111.000000	65.492463  
2110.000000	65.496039  
2109.000000	65.488982  
2108.000000	65.470838  
2107.000000	65.442728  
2106.000000	65.407443  
2105.000000	65.368866  
2104.000000	65.331125  
2103.000000	65.298128  
2102.000000	65.272784  
2101.000000	65.256953  
2100.000000	65.251493  
2099.000000	65.256047  
2098.000000	65.269446  
2097.000000	65.289735  
2096.000000	65.314626  
2095.000000	65.341806  
2094.000000	65.368914  
2093.000000	65.393877  
2092.000000	65.414834  
2091.000000	65.430784  
2090.000000	65.441441  
2089.000000	65.447258  
2088.000000	65.449309  
2087.000000	65.449166  
2086.000000	65.448307  
2085.000000	65.447950  
2084.000000	65.448617  
2083.000000	65.449881  
2082.000000	65.450716  
2081.000000	65.449810  
2080.000000	65.446472  
2079.000000	65.440225  
2078.000000	65.431952  
2077.000000	65.423703  
2076.000000	65.418672  
2075.000000	65.420460  
2074.000000	65.432190  
2073.000000	65.455889  
2072.000000	65.490937  
2071.000000	65.534067  
2070.000000	65.579175  
2069.000000	65.618777  
2068.000000	65.644860  
2067.000000	65.650987  
2066.000000	65.633225  
2065.000000	65.591263  
2064.000000	65.528202  
2063.000000	65.450000  
2062.000000	65.364074  
2061.000000	65.278267  
2060.000000	65.199756  
2059.000000	65.134501  
2058.000000	65.086579  
2057.000000	65.058469  
2056.000000	65.051150  
2055.000000	65.064430  
2054.000000	65.096759  
2053.000000	65.145659  
2052.000000	65.207052  
2051.000000	65.276241  
2050.000000	65.347266  
2049.000000	65.414309  
2048.000000	65.471839  
2047.000000	65.515613  
2046.000000	65.543222  
2045.000000	65.553855  
2044.000000	65.548586  
2043.000000	65.529608  
2042.000000	65.500283  
2041.000000	65.464353  
2040.000000	65.425848  
2039.000000	65.388393  
2038.000000	65.355205  
2037.000000	65.328526  
2036.000000	65.309405  
2035.000000	65.297555  
2034.000000	65.291595  
2033.000000	65.289235  
2032.000000	65.288352  
2031.000000	65.287184  
2030.000000	65.285277  
2029.000000	65.283226  
2028.000000	65.282750  
2027.000000	65.286278  
2026.000000	65.296220  
2025.000000	65.313768  
2024.000000	65.338659  
2023.000000	65.368866  
2022.000000	65.401053  
2021.000000	65.431547  
2020.000000	65.456867  
2019.000000	65.474724  
2018.000000	65.484428  
2017.000000	65.486955  
2016.000000	65.484452  
2015.000000	65.479469  
2014.000000	65.474271  
2013.000000	65.470361  
2012.000000	65.467977  
2011.000000	65.466308  
2010.000000	65.463423  
2009.000000	65.457010  
2008.000000	65.445041  
2007.000000	65.426540  
2006.000000	65.401673  
2005.000000	65.372180  
2004.000000	65.341091  
2003.000000	65.312409  
2002.000000	65.290164  
2001.000000	65.278053  
2000.000000	65.278387  
1999.000000	65.291714  
1998.000000	65.316629  
1997.000000	65.350008  
1996.000000	65.387463  
1995.000000	65.424633  
1994.000000	65.457844  
1993.000000	65.484976  
1992.000000	65.505337  
1991.000000	65.519618  
1990.000000	65.529322  
1989.000000	65.535974  
1988.000000	65.540361  
1987.000000	65.542435  
1986.000000	65.541291  
1985.000000	65.535879  
1984.000000	65.525412  
1983.000000	65.509653  
1982.000000	65.489339  
1981.000000	65.465879  
1980.000000	65.441346  
1979.000000	65.417885  
1978.000000	65.397524  
1977.000000	65.381669  
1976.000000	65.371155  
1975.000000	65.366339  
1974.000000	65.367269  
1973.000000	65.373778  
1972.000000	65.385341  
1971.000000	65.400791  
1970.000000	65.418362  
1969.000000	65.435552  
1968.000000	65.449571  
1967.000000	65.457487  
1966.000000	65.456938  
1965.000000	65.446710  
1964.000000	65.427207  
1963.000000	65.400481  
1962.000000	65.369963  
1961.000000	65.339612  
1960.000000	65.313148  
1959.000000	65.293407  
1958.000000	65.281629  
1957.000000	65.277385  
1956.000000	65.278720  
1955.000000	65.282678  
1954.000000	65.286326  
1953.000000	65.287303  
1952.000000	65.284204  
1951.000000	65.277004  
1950.000000	65.266680  
1949.000000	65.255117  
1948.000000	65.244293  
1947.000000	65.236139  
1946.000000	65.232062  
1945.000000	65.232753  
1944.000000	65.238451  
1943.000000	65.248799  
1942.000000	65.263175  
1941.000000	65.280675  
1940.000000	65.300345  
1939.000000	65.320944  
1938.000000	65.341138  
1937.000000	65.359449  
1936.000000	65.374493  
1935.000000	65.385127  
1934.000000	65.390610  
1933.000000	65.390801  
1932.000000	65.386056  
1931.000000	65.377473  
1930.000000	65.366601  
1929.000000	65.355157  
1928.000000	65.344667  
1927.000000	65.336465  
1926.000000	65.331339  
1925.000000	65.329599  
1924.000000	65.330958  
1923.000000	65.334749  
1922.000000	65.339875  
1921.000000	65.344929  
1920.000000	65.348482  
1919.000000	65.349006  
1918.000000	65.345454  
1917.000000	65.337133  
1916.000000	65.324068  
1915.000000	65.306925  
1914.000000	65.287137  
1913.000000	65.266370  
1912.000000	65.246558  
1911.000000	65.229225  
1910.000000	65.215682  
1909.000000	65.206694  
1908.000000	65.202569  
1907.000000	65.203166  
1906.000000	65.208196  
1905.000000	65.217304  
1904.000000	65.230083  
1903.000000	65.245938  
1902.000000	65.263962  
1901.000000	65.282917  
1900.000000	65.301179  
1899.000000	65.317130  
1898.000000	65.329432  
1897.000000	65.337347  
1896.000000	65.340971  
1895.000000	65.341234  
1894.000000	65.339493  
1893.000000	65.337133  
1892.000000	65.335226  
1891.000000	65.334224  
1890.000000	65.333843  
1889.000000	65.333271  
1888.000000	65.331411  
1887.000000	65.327572  
1886.000000	65.321397  
1885.000000	65.313363  
1884.000000	65.304708  
1883.000000	65.297055  
1882.000000	65.292072  
1881.000000	65.291166  
1880.000000	65.295124  
1879.000000	65.303993  
1878.000000	65.317058  
1877.000000	65.332984  
1876.000000	65.350103  
1875.000000	65.366387  
1874.000000	65.379858  
1873.000000	65.388727  
1872.000000	65.391755  
1871.000000	65.388560  
1870.000000	65.380001  
1869.000000	65.367817  
1868.000000	65.354371  
1867.000000	65.342354  
1866.000000	65.333867  
1865.000000	65.330004  
1864.000000	65.330743  
1863.000000	65.334820  
1862.000000	65.340185  
1861.000000	65.344619  
1860.000000	65.346264  
1859.000000	65.344071  
1858.000000	65.337991  
1857.000000	65.328907  
1856.000000	65.318322  
1855.000000	65.307784  
1854.000000	65.298557  
1853.000000	65.291428  
1852.000000	65.286588  
1851.000000	65.284061  
1850.000000	65.283799  
1849.000000	65.285873  
1848.000000	65.290594  
1847.000000	65.298318  
1846.000000	65.309047  
1845.000000	65.322589  
1844.000000	65.338230  
1843.000000	65.355229  
1842.000000	65.372490  
1841.000000	65.389108  
1840.000000	65.404438  
1839.000000	65.418076  
1838.000000	65.429997  
1837.000000	65.440416  
1836.000000	65.449452  
1835.000000	65.457034  
1834.000000	65.463042  
1833.000000	65.467095  
1832.000000	65.468859  
1831.000000	65.468049  
1830.000000	65.464735  
1829.000000	65.459251  
1828.000000	65.452575  
1827.000000	65.445709  
1826.000000	65.439772  
1825.000000	65.435624  
1824.000000	65.433788  
1823.000000	65.434217  
1822.000000	65.436244  
1821.000000	65.438652  
1820.000000	65.439820  
1819.000000	65.438055  
1818.000000	65.431952  
1817.000000	65.420770  
1816.000000	65.404653  
1815.000000	65.384578  
1814.000000	65.362477  
1813.000000	65.340781  
1812.000000	65.322089  
1811.000000	65.308475  
1810.000000	65.301394  
1809.000000	65.301418  
1808.000000	65.308094  
1807.000000	65.320110  
1806.000000	65.335488  
1805.000000	65.351915  
1804.000000	65.367221  
1803.000000	65.379452  
1802.000000	65.387248  
1801.000000	65.390014  
1800.000000	65.387845  
1799.000000	65.381383  
1798.000000	65.371751  
1797.000000	65.360236  
1796.000000	65.348243  
1795.000000	65.337014  
1794.000000	65.327477  
1793.000000	65.320301  
1792.000000	65.315628  
1791.000000	65.313434  
1790.000000	65.313291  
1789.000000	65.314507  
1788.000000	65.316152  
1787.000000	65.317201  
1786.000000	65.316772  
1785.000000	65.314269  
1784.000000	65.309476  
1783.000000	65.302801  
1782.000000	65.295243  
1781.000000	65.288329  
1780.000000	65.283775  
1779.000000	65.283060  
1778.000000	65.286993  
1777.000000	65.295314  
1776.000000	65.306830  
1775.000000	65.319395  
1774.000000	65.330457  
1773.000000	65.337657  
1772.000000	65.339303  
1771.000000	65.334892  
1770.000000	65.325188  
1769.000000	65.312099  
1768.000000	65.297889  
1767.000000	65.284729  
1766.000000	65.274095  
1765.000000	65.266442  
1764.000000	65.260958  
1763.000000	65.256023  
1762.000000	65.249586  
1761.000000	65.239977  
1760.000000	65.226316  
1759.000000	65.208721  
1758.000000	65.188598  
1757.000000	65.168213  
1756.000000	65.150189  
1755.000000	65.137100  
1754.000000	65.130877  
1753.000000	65.132451  
1752.000000	65.141487  
1751.000000	65.156412  
1750.000000	65.174674  
1749.000000	65.193104  
1748.000000	65.208435  
1747.000000	65.217781  
1746.000000	65.219068  
1745.000000	65.211296  
1744.000000	65.194559  
1743.000000	65.169858  
1742.000000	65.139055  
1741.000000	65.104556  
1740.000000	65.068769  
1739.000000	65.034103  
1738.000000	65.002655  
1737.000000	64.976406  
1736.000000	64.956760  
1735.000000	64.944887  
1734.000000	64.941310  
1733.000000	64.946198  
1732.000000	64.959073  
1731.000000	64.979028  
1730.000000	65.004467  
1729.000000	65.033364  
1728.000000	65.063428  
1727.000000	65.092587  
1726.000000	65.118837  
1725.000000	65.140771  
1724.000000	65.157461  
1723.000000	65.168476  
1722.000000	65.174078  
1721.000000	65.174937  
1720.000000	65.171980  
1719.000000	65.166711  
1718.000000	65.160822  
1717.000000	65.156507  
1716.000000	65.156006  
1715.000000	65.161514  
1714.000000	65.174722  
1713.000000	65.196275  
1712.000000	65.225362  
1711.000000	65.259814  
1710.000000	65.296006  
1709.000000	65.329360  
1708.000000	65.355134  
1707.000000	65.369415  
1706.000000	65.369868  
1705.000000	65.356373  
1704.000000	65.330886  
1703.000000	65.297317  
1702.000000	65.260505  
1701.000000	65.225434  
1700.000000	65.196228  
1699.000000	65.175604  
1698.000000	65.164542  
1697.000000	65.162706  
1696.000000	65.168642  
1695.000000	65.180468  
1694.000000	65.196204  
1693.000000	65.214133  
1692.000000	65.232992  
1691.000000	65.251660  
1690.000000	65.269374  
1689.000000	65.285420  
1688.000000	65.299248  
1687.000000	65.310311  
1686.000000	65.318179  
1685.000000	65.322685  
1684.000000	65.323781  
1683.000000	65.321421  
1682.000000	65.315437  
1681.000000	65.305757  
1680.000000	65.292263  
1679.000000	65.275216  
1678.000000	65.255355  
1677.000000	65.234065  
1676.000000	65.213370  
1675.000000	65.195560  
1674.000000	65.182662  
1673.000000	65.175962  
1672.000000	65.175604  
1671.000000	65.180850  
1670.000000	65.189957  
1669.000000	65.200948  
1668.000000	65.212011  
1667.000000	65.221977  
1666.000000	65.230441  
1665.000000	65.237522  
1664.000000	65.243506  
1663.000000	65.248489  
1662.000000	65.252208  
1661.000000	65.253615  
1660.000000	65.251326  
1659.000000	65.244269  
1658.000000	65.232133  
1657.000000	65.215826  
1656.000000	65.197587  
1655.000000	65.180540  
1654.000000	65.168380  
1653.000000	65.164351  
1652.000000	65.170502  
1651.000000	65.187287  
1650.000000	65.213179  
1649.000000	65.245366  
1648.000000	65.279793  
1647.000000	65.312337  
1646.000000	65.339040  
1645.000000	65.356945  
1644.000000	65.364408  
1643.000000	65.361142  
1642.000000	65.347933  
1641.000000	65.326523  
1640.000000	65.299224  
1639.000000	65.268683  
1638.000000	65.237402  
1637.000000	65.207695  
1636.000000	65.181183  
1635.000000	65.158820  
1634.000000	65.140700  
1633.000000	65.126442  
1632.000000	65.115404  
1631.000000	65.107035  
1630.000000	65.101146  
1629.000000	65.098237  
1628.000000	65.099239  
1627.000000	65.105462  
1626.000000	65.117931  
1625.000000	65.137124  
1624.000000	65.162682  
1623.000000	65.192914  
1622.000000	65.225148  
1621.000000	65.255665  
1620.000000	65.280580  
1619.000000	65.295958  
1618.000000	65.299034  
1617.000000	65.288376  
1616.000000	65.264606  
1615.000000	65.230274  
1614.000000	65.189504  
1613.000000	65.147376  
1612.000000	65.109157  
1611.000000	65.079402  
1610.000000	65.061402  
1609.000000	65.056586  
1608.000000	65.064358  
1607.000000	65.082645  
1606.000000	65.108060  
1605.000000	65.136837  
1604.000000	65.165066  
1603.000000	65.189433  
1602.000000	65.207529  
1601.000000	65.217852  
1600.000000	65.220069  
1599.000000	65.214729  
1598.000000	65.203094  
1597.000000	65.187168  
1596.000000	65.169143  
1595.000000	65.151357  
1594.000000	65.135860  
1593.000000	65.124297  
1592.000000	65.117335  
1591.000000	65.114855  
1590.000000	65.115904  
1589.000000	65.119171  
1588.000000	65.123152  
1587.000000	65.126585  
1586.000000	65.128827  
1585.000000	65.129828  
1584.000000	65.130138  
1583.000000	65.130782  
1582.000000	65.132427  
1581.000000	65.134811  
1580.000000	65.137028  
1579.000000	65.137743  
1578.000000	65.135359  
1577.000000	65.128612  
1576.000000	65.117216  
1575.000000	65.101981  
1574.000000	65.084695  
1573.000000	65.067768  
1572.000000	65.053439  
1571.000000	65.043306  
1570.000000	65.037870  
1569.000000	65.036511  
1568.000000	65.037584  
1567.000000	65.038847  
1566.000000	65.038132  
1565.000000	65.033674  
1564.000000	65.024590  
1563.000000	65.011310  
1562.000000	64.995217  
1561.000000	64.978981  
1560.000000	64.965486  
1559.000000	64.957928  
1558.000000	64.959263  
1557.000000	64.971613  
1556.000000	64.995908  
1555.000000	65.031433  
1554.000000	65.075874  
1553.000000	65.125441  
1552.000000	65.175366  
1551.000000	65.220713  
1550.000000	65.257143  
1549.000000	65.281677  
1548.000000	65.293145  
1547.000000	65.292358  
1546.000000	65.281724  
1545.000000	65.264749  
1544.000000	65.245342  
1543.000000	65.227198  
1542.000000	65.212965  
1541.000000	65.204620  
1540.000000	65.202569  
1539.000000	65.206098  
1538.000000	65.213322  
1537.000000	65.222001  
1536.000000	65.229654  
1535.000000	65.233898  
1534.000000	65.233063  
1533.000000	65.226244  
1532.000000	65.213608  
1531.000000	65.196371  
1530.000000	65.176606  
1529.000000	65.157127  
1528.000000	65.140867  
1527.000000	65.130424  
1526.000000	65.127468  
1525.000000	65.132379  
1524.000000	65.144228  
1523.000000	65.160965  
1522.000000	65.179443  
1521.000000	65.196061  
1520.000000	65.208005  
1519.000000	65.213704  
1518.000000	65.212750  
1517.000000	65.206432  
1516.000000	65.197396  
1515.000000	65.189123  
1514.000000	65.185141  
1513.000000	65.188217  
1512.000000	65.199708  
1511.000000	65.219426  
1510.000000	65.245628  
1509.000000	65.275382  
1508.000000	65.305089  
1507.000000	65.331315  
1506.000000	65.351438  
1505.000000	65.364336  
1504.000000	65.370392  
1503.000000	65.371227  
1502.000000	65.369224  
1501.000000	65.366506  
1500.000000	65.364122  
1499.000000	65.361833  
1498.000000	65.358018  
1497.000000	65.349984  
1496.000000	65.334773  
1495.000000	65.310072  
1494.000000	65.275168  
1493.000000	65.231251  
1492.000000	65.181469  
1491.000000	65.130281  
1490.000000	65.082788  
1489.000000	65.043711  
1488.000000	65.016508  
1487.000000	65.002608  
1486.000000	65.001559  
1485.000000	65.011405  
1484.000000	65.028977  
1483.000000	65.050649  
1482.000000	65.072965  
1481.000000	65.092921  
1480.000000	65.108609  
1479.000000	65.118694  
1478.000000	65.123152  
1477.000000	65.122652  
1476.000000	65.118718  
1475.000000	65.113329  
1474.000000	65.108346  
1473.000000	65.105152  
1472.000000	65.104293  
1471.000000	65.105748  
1470.000000	65.108799  
1469.000000	65.112495  
1468.000000	65.116047  
1467.000000	65.119028  
1466.000000	65.121531  
1465.000000	65.123867  
1464.000000	65.126466  
1463.000000	65.129327  
1462.000000	65.132117  
1461.000000	65.133619  
1460.000000	65.132355  
1459.000000	65.126752  
1458.000000	65.115284  
1457.000000	65.097427  
1456.000000	65.073680  
1455.000000	65.046310  
1454.000000	65.018630  
1453.000000	64.995217  
1452.000000	64.980483  
1451.000000	64.978384  
1450.000000	64.991450  
1449.000000	65.020108  
1448.000000	65.062403  
1447.000000	65.114331  
1446.000000	65.170383  
1445.000000	65.224432  
1444.000000	65.270662  
1443.000000	65.304279  
1442.000000	65.322136  
1441.000000	65.323042  
1440.000000	65.307927  
1439.000000	65.279126  
1438.000000	65.240216  
1437.000000	65.195488  
1436.000000	65.149211  
1435.000000	65.105390  
1434.000000	65.067291  
1433.000000	65.037226  
1432.000000	65.016460  
1431.000000	65.005445  
1430.000000	65.003800  
1429.000000	65.010261  
1428.000000	65.023112  
1427.000000	65.039992  
1426.000000	65.058588  
1425.000000	65.076422  
1424.000000	65.091490  
1423.000000	65.102291  
1422.000000	65.108180  
1421.000000	65.109395  
1420.000000	65.107131  
1419.000000	65.103197  
1418.000000	65.099883  
1417.000000	65.099525  
1416.000000	65.104031  
1415.000000	65.114498  
1414.000000	65.131092  
1413.000000	65.152764  
1412.000000	65.177583  
1411.000000	65.202713  
1410.000000	65.225076  
1409.000000	65.241360  
1408.000000	65.248632  
1407.000000	65.244770  
1406.000000	65.228939  
1405.000000	65.201735  
1404.000000	65.165090  
1403.000000	65.122246  
1402.000000	65.077519  
1401.000000	65.035581  
1400.000000	65.000653  
1399.000000	64.976024  
1398.000000	64.963483  
1397.000000	64.963102  
1396.000000	64.973235  
1395.000000	64.991044  
1394.000000	65.013027  
1393.000000	65.036177  
1392.000000	65.058517  
1391.000000	65.079307  
1390.000000	65.098881  
1389.000000	65.118145  
1388.000000	65.137815  
1387.000000	65.158009  
1386.000000	65.177822  
1385.000000	65.195369  
1384.000000	65.208482  
1383.000000	65.215420  
1382.000000	65.215063  
1381.000000	65.207576  
1380.000000	65.193986  
1379.000000	65.176463  
1378.000000	65.157294  
1377.000000	65.138483  
1376.000000	65.121531  
1375.000000	65.107083  
1374.000000	65.095067  
1373.000000	65.085029  
1372.000000	65.076279  
1371.000000	65.068316  
1370.000000	65.060687  
1369.000000	65.053105  
1368.000000	65.045261  
1367.000000	65.036845  
1366.000000	65.027666  
1365.000000	65.017843  
1364.000000	65.007853  
1363.000000	64.998340  
1362.000000	64.990091  
1361.000000	64.983844  
1360.000000	64.980030  
1359.000000	64.978861  
1358.000000	64.980626  
1357.000000	64.985775  
1356.000000	64.995098  
1355.000000	65.009641  
1354.000000	65.030288  
1353.000000	65.057373  
1352.000000	65.090298  
1351.000000	65.127182  
1350.000000	65.164971  
1349.000000	65.199613  
1348.000000	65.226864  
1347.000000	65.242934  
1346.000000	65.245437  
1345.000000	65.233540  
1344.000000	65.208506  
1343.000000	65.172934  
1342.000000	65.130376  
1341.000000	65.084600  
1340.000000	65.039134  
1339.000000	64.996743  
1338.000000	64.959430  
1337.000000	64.928650  
1336.000000	64.905548  
1335.000000	64.890742  
1334.000000	64.884519  
1333.000000	64.886832  
1332.000000	64.897227  
1331.000000	64.914751  
1330.000000	64.938092  
1329.000000	64.965701  
1328.000000	64.995670  
1327.000000	65.025997  
1326.000000	65.054345  
1325.000000	65.078425  
1324.000000	65.095686  
1323.000000	65.103840  
1322.000000	65.100860  
1321.000000	65.085387  
1320.000000	65.057158  
1319.000000	65.017533  
1318.000000	64.969205  
1317.000000	64.916229  
1316.000000	64.863514  
1315.000000	64.816141  
1314.000000	64.778709  
1313.000000	64.754390  
1312.000000	64.744973  
1311.000000	64.750432  
1310.000000	64.769458  
1309.000000	64.799785  
1308.000000	64.838504  
1307.000000	64.882588  
1306.000000	64.929175  
1305.000000	64.975881  
1304.000000	65.020775  
1303.000000	65.062475  
1302.000000	65.099930  
1301.000000	65.132236  
1300.000000	65.158867  
1299.000000	65.179276  
1298.000000	65.193247  
1297.000000	65.200376  
1296.000000	65.200901  
1295.000000	65.194940  
1294.000000	65.183210  
1293.000000	65.166354  
1292.000000	65.145373  
1291.000000	65.121197  
1290.000000	65.095067  
1289.000000	65.068221  
1288.000000	65.041971  
1287.000000	65.017747  
1286.000000	64.996910  
1285.000000	64.980649  
1284.000000	64.969873  
1283.000000	64.964938  
1282.000000	64.965581  
1281.000000	64.970803  
1280.000000	64.978957  
1279.000000	64.987802  
1278.000000	64.994859  
1277.000000	64.998054  
1276.000000	64.995884  
1275.000000	64.987564  
1274.000000	64.973235  
1273.000000	64.953899  
1272.000000	64.931297  
1271.000000	64.907407  
1270.000000	64.884257  
1269.000000	64.863991  
1268.000000	64.848518  
1267.000000	64.839243  
1266.000000	64.837193  
1265.000000	64.843010  
1264.000000	64.856553  
1263.000000	64.876866  
1262.000000	64.902162  
1261.000000	64.929962  
1260.000000	64.957356  
1259.000000	64.981269  
1258.000000	64.999151  
1257.000000	65.009140  
1256.000000	65.010738  
1255.000000	65.004754  
1254.000000	64.992952  
1253.000000	64.977812  
1252.000000	64.962196  
1251.000000	64.948940  
1250.000000	64.940404  
1249.000000	64.938116  
1248.000000	64.943099  
1247.000000	64.955282  
1246.000000	64.973950  
1245.000000	64.997434  
1244.000000	65.023326  
1243.000000	65.048646  
1242.000000	65.070128  
1241.000000	65.084624  
1240.000000	65.089535  
1239.000000	65.083336  
1238.000000	65.065693  
1237.000000	65.037703  
1236.000000	65.001678  
1235.000000	64.960718  
1234.000000	64.918303  
1233.000000	64.877653  
1232.000000	64.841532  
1231.000000	64.812231  
1230.000000	64.791393  
1229.000000	64.780282  
1228.000000	64.779758  
1227.000000	64.790320  
1226.000000	64.811873  
1225.000000	64.843273  
1224.000000	64.882302  
1223.000000	64.925456  
1222.000000	64.968252  
1221.000000	65.005755  
1220.000000	65.033555  
1219.000000	65.048360  
1218.000000	65.048742  
1217.000000	65.035820  
1216.000000	65.012621  
1215.000000	64.983534  
1214.000000	64.953446  
1213.000000	64.926838  
1212.000000	64.906764  
1211.000000	64.894700  
1210.000000	64.890527  
1209.000000	64.892959  
1208.000000	64.900064  
1207.000000	64.909744  
1206.000000	64.920425  
1205.000000	64.931130  
1204.000000	64.941573  
1203.000000	64.951920  
1202.000000	64.962530  
1201.000000	64.973592  
1200.000000	64.984774  
1199.000000	64.995336  
1198.000000	65.004158  
1197.000000	65.010142  
1196.000000	65.012669  
1195.000000	65.011835  
1194.000000	65.008401  
1193.000000	65.003585  
1192.000000	64.998555  
1191.000000	64.994382  
1190.000000	64.991402  
1189.000000	64.989471  
1188.000000	64.988207  
1187.000000	64.987325  
1186.000000	64.986872  
1185.000000	64.987158  
1184.000000	64.988994  
1183.000000	64.993071  
1182.000000	64.999628  
1181.000000	65.008163  
1180.000000	65.017366  
1179.000000	65.025353  
1178.000000	65.030193  
1177.000000	65.030193  
1176.000000	65.024662  
1175.000000	65.014004  
1174.000000	64.999437  
1173.000000	64.982700  
1172.000000	64.965534  
1171.000000	64.949131  
1170.000000	64.933991  
1169.000000	64.920186  
1168.000000	64.907670  
1167.000000	64.896655  
1166.000000	64.887905  
1165.000000	64.882969  
1164.000000	64.883399  
1163.000000	64.890456  
1162.000000	64.904093  
1161.000000	64.922714  
1160.000000	64.943122  
1159.000000	64.961028  
1158.000000	64.971971  
1157.000000	64.972448  
1156.000000	64.960956  
1155.000000	64.938497  
1154.000000	64.908504  
1153.000000	64.875936  
1152.000000	64.846038  
1151.000000	64.823246  
1150.000000	64.810252  
1149.000000	64.807462  
1148.000000	64.813280  
1147.000000	64.824604  
1146.000000	64.837670  
1145.000000	64.849066  
1144.000000	64.856338  
1143.000000	64.858269  
1142.000000	64.854717  
1141.000000	64.846444  
1140.000000	64.834451  
1139.000000	64.819860  
1138.000000	64.803433  
1137.000000	64.786124  
1136.000000	64.768719  
1135.000000	64.752459  
1134.000000	64.739012  
1133.000000	64.730715  
1132.000000	64.729595  
1131.000000	64.737462  
1130.000000	64.755058  
1129.000000	64.781808  
1128.000000	64.815688  
1127.000000	64.853310  
1126.000000	64.890432  
1125.000000	64.922666  
1124.000000	64.946436  
1123.000000	64.959549  
1122.000000	64.961552  
1121.000000	64.953875  
1120.000000	64.939498  
1119.000000	64.922213  
1118.000000	64.905810  
1117.000000	64.893531  
1116.000000	64.887070  
1115.000000	64.886832  
1114.000000	64.891552  
1113.000000	64.899039  
1112.000000	64.906215  
1111.000000	64.910149  
1110.000000	64.908409  
1109.000000	64.899539  
1108.000000	64.883422  
1107.000000	64.860820  
1106.000000	64.833855  
1105.000000	64.805173  
1104.000000	64.778137  
1103.000000	64.756131  
1102.000000	64.742231  
1101.000000	64.738917  
1100.000000	64.747452  
1099.000000	64.767932  
1098.000000	64.798831  
1097.000000	64.837050  
1096.000000	64.878106  
1095.000000	64.916849  
1094.000000	64.947652  
1093.000000	64.965558  
1092.000000	64.967107  
1091.000000	64.951062  
1090.000000	64.918589  
1089.000000	64.873099  
1088.000000	64.819884  
1087.000000	64.765238  
1086.000000	64.715600  
1085.000000	64.676427  
1084.000000	64.651679  
1083.000000	64.642930  
1082.000000	64.649868  
1081.000000	64.669990  
1080.000000	64.699029  
1079.000000	64.732027  
1078.000000	64.763617  
1077.000000	64.789605  
1076.000000	64.806842  
1075.000000	64.814376  
1074.000000	64.813041  
1073.000000	64.805054  
1072.000000	64.793300  
1071.000000	64.780545  
1070.000000	64.768767  
1069.000000	64.758515  
1068.000000	64.748978  
1067.000000	64.738225  
1066.000000	64.724302  
1065.000000	64.705801  
1064.000000	64.682650  
1063.000000	64.656233  
1062.000000	64.629435  
1061.000000	64.605712  
1060.000000	64.588665  
1059.000000	64.580726  
1058.000000	64.582920  
1057.000000	64.594340  
1056.000000	64.612698  
1055.000000	64.635109  
1054.000000	64.658522  
1053.000000	64.680361  
1052.000000	64.699053  
1051.000000	64.713883  
1050.000000	64.724969  
1049.000000	64.733123  
1048.000000	64.739274  
1047.000000	64.743757  
1046.000000	64.747071  
1045.000000	64.749789  
1044.000000	64.752721  
1043.000000	64.756894  
1042.000000	64.763593  
1041.000000	64.774370  
1040.000000	64.790225  
1039.000000	64.811468  
1038.000000	64.837312  
1037.000000	64.865994  
1036.000000	64.894795  
1035.000000	64.921069  
1034.000000	64.942431  
1033.000000	64.957761  
1032.000000	64.967489  
1031.000000	64.973616  
1030.000000	64.979386  
1029.000000	64.987826  
1028.000000	65.001749  
1027.000000	65.021419  
1026.000000	65.044879  
1025.000000	65.067028  
1024.000000	65.081405  
1023.000000	65.080618  
1022.000000	65.058803  
1021.000000	65.012621  
1020.000000	64.942598  
1019.000000	64.853358  
1018.000000	64.752936  
1017.000000	64.651131  
1016.000000	64.557671  
1015.000000	64.480566  
1014.000000	64.424872  
1013.000000	64.392185  
1012.000000	64.380788  
1011.000000	64.386677  
1010.000000	64.405226  
1009.000000	64.431786  
1008.000000	64.462876  
1007.000000	64.496564  
1006.000000	64.532589  
1005.000000	64.570593  
1004.000000	64.610338  
1003.000000	64.650869  
1002.000000	64.690637  
1001.000000	64.727449  
1000.000000	64.759063  
999.000000	 64.784049  
998.000000	 64.801764  
997.000000	 64.813137  
996.000000	 64.819335  
995.000000	 64.822196  
994.000000	 64.822554  
993.000000	 64.820837  
992.000000	 64.816164  
991.000000	 64.806866  
990.000000	 64.791393  
989.000000	 64.769291  
988.000000	 64.741539  
987.000000	 64.710879  
986.000000	 64.681220  
985.000000	 64.656782  
984.000000	 64.640307  
983.000000	 64.632225  
982.000000	 64.630198  
981.000000	 64.629697  
980.000000	 64.625239  
979.000000	 64.612078  
978.000000	 64.587616  
977.000000	 64.552474  
976.000000	 64.510560  
975.000000	 64.468050  
974.000000	 64.431524  
973.000000	 64.406490  
972.000000	 64.395666  
971.000000	 64.398980  
970.000000	 64.413332  
969.000000	 64.434361  
968.000000	 64.458012  
967.000000	 64.481520  
966.000000	 64.504170  
965.000000	 64.526724  
964.000000	 64.550304  
963.000000	 64.575290  
962.000000	 64.600467  
961.000000	 64.622688  
960.000000	 64.637422  
959.000000	 64.640545  
958.000000	 64.629793  
957.000000	 64.605355  
956.000000	 64.569950  
955.000000	 64.529085  
954.000000	 64.489507  
953.000000	 64.457106  
952.000000	 64.435601  
951.000000	 64.426279  
950.000000	 64.427852  
949.000000	 64.437437  
948.000000	 64.451503  
947.000000	 64.466762  
946.000000	 64.481282  
945.000000	 64.494943  
944.000000	 64.508914  
943.000000	 64.523863  
942.000000	 64.540338  
941.000000	 64.557743  
940.000000	 64.575219  
939.000000	 64.591193  
938.000000	 64.605307  
937.000000	 64.618587  
936.000000	 64.633822  
935.000000	 64.654684  
934.000000	 64.685678  
933.000000	 64.730978  
932.000000	 64.793181  
931.000000	 64.872503  
930.000000	 64.967608  
929.000000	 65.075659  
928.000000	 65.193533  
927.000000	 65.317511  
926.000000	 65.443706  
925.000000	 65.566587  
924.000000	 65.680170  
923.000000	 65.775752  
922.000000	 65.843200  
921.000000	 65.870928  
920.000000	 65.849661  
919.000000	 65.773653  
918.000000	 65.643692  
917.000000	 65.467691  
916.000000	 65.261769  
915.000000	 65.046453  
914.000000	 64.844441  
913.000000	 64.675021  
912.000000	 64.551401  
911.000000	 64.477062  
910.000000	 64.446210  
909.000000	 64.444947  
908.000000	 64.455223  
907.000000	 64.459872  
906.000000	 64.446926  
905.000000	 64.412117  
904.000000	 64.359068  
903.000000	 64.299011  
902.000000	 64.247298  
901.000000	 64.218592  
900.000000	 64.223170  
899.000000	 64.264893  
898.000000	 64.339804  
897.000000	 64.437294  
896.000000	 64.542579  
895.000000	 64.640617  
894.000000	 64.719080  
893.000000	 64.770126  
892.000000	 64.792418  
891.000000	 64.789748  
890.000000	 64.770674  
889.000000	 64.745187  
888.000000	 64.723110  
887.000000	 64.711880  
886.000000	 64.715099  
885.000000	 64.733672  
884.000000	 64.763879  
883.000000	 64.799404  
882.000000	 64.832019  
881.000000	 64.854431  
880.000000	 64.860606  
879.000000	 64.847016  
878.000000	 64.813637  
877.000000	 64.763712  
876.000000	 64.703416  
875.000000	 64.640212  
874.000000	 64.581799  
873.000000	 64.534282  
872.000000	 64.501500  
871.000000	 64.484071  
870.000000	 64.480113  
869.000000	 64.485573  
868.000000	 64.495611  
867.000000	 64.505696  
866.000000	 64.512300  
865.000000	 64.513659  
864.000000	 64.509916  
863.000000	 64.502501  
862.000000	 64.493131  
861.000000	 64.483380  
860.000000	 64.474177  
859.000000	 64.465546  
858.000000	 64.456820  
857.000000	 64.446592  
856.000000	 64.433383  
855.000000	 64.415931  
854.000000	 64.393877  
853.000000	 64.367580  
852.000000	 64.338374  
851.000000	 64.308285  
850.000000	 64.279770  
849.000000	 64.255428  
848.000000	 64.237403  
847.000000	 64.227128  
846.000000	 64.224743  
845.000000	 64.229011  
844.000000	 64.237308  
843.000000	 64.246249  
842.000000	 64.252448  
841.000000	 64.252781  
840.000000	 64.245772  
839.000000	 64.231777  
838.000000	 64.213347  
837.000000	 64.194941  
836.000000	 64.181733  
835.000000	 64.178562  
834.000000	 64.188504  
833.000000	 64.212203  
832.000000	 64.247417  
831.000000	 64.289355  
830.000000	 64.332079  
829.000000	 64.369869  
828.000000	 64.398717  
827.000000	 64.417171  
826.000000	 64.426136  
825.000000	 64.428329  
824.000000	 64.427137  
823.000000	 64.425373  
822.000000	 64.424562  
821.000000	 64.424562  
820.000000	 64.424014  
819.000000	 64.420676  
818.000000	 64.412617  
817.000000	 64.398646  
816.000000	 64.378929  
815.000000	 64.354634  
814.000000	 64.327740  
813.000000	 64.300179  
812.000000	 64.273285  
811.000000	 64.247345  
810.000000	 64.221477  
809.000000	 64.194107  
808.000000	 64.163517  
807.000000	 64.128828  
806.000000	 64.089965  
805.000000	 64.048600  
804.000000	 64.007496  
803.000000	 63.970685  
802.000000	 63.942313  
801.000000	 63.925933  
800.000000	 63.923358  
799.000000	 63.934063  
798.000000	 63.954997  
797.000000	 63.980698  
796.000000	 64.004206  
795.000000	 64.018774  
794.000000	 64.019155  
793.000000	 64.002370  
792.000000	 63.968420  
791.000000	 63.919949  
790.000000	 63.861870  
789.000000	 63.799738  
788.000000	 63.739514  
787.000000	 63.686180  
786.000000	 63.643622  
785.000000	 63.614511  
784.000000	 63.600206  
783.000000	 63.601112  
782.000000	 63.616609  
781.000000	 63.644719  
780.000000	 63.682508  
779.000000	 63.725590  
778.000000	 63.769245  
777.000000	 63.808226  
776.000000	 63.838696  
775.000000	 63.858032  
774.000000	 63.866090  
773.000000	 63.864970  
772.000000	 63.858127  
771.000000	 63.849425  
770.000000	 63.841414  
769.000000	 63.834643  
768.000000	 63.827466  
767.000000	 63.816809  
766.000000	 63.798999  
765.000000	 63.771271  
764.000000	 63.733744  
763.000000	 63.689517  
762.000000	 63.644504  
761.000000	 63.605737  
760.000000	 63.579130  
759.000000	 63.567781  
758.000000	 63.570785  
757.000000	 63.583946  
756.000000	 63.600039  
755.000000	 63.612270  
754.000000	 63.615465  
753.000000	 63.608574  
752.000000	 63.594770  
751.000000	 63.580846  
750.000000	 63.574695  
749.000000	 63.583040  
748.000000	 63.609218  
747.000000	 63.651108  
746.000000	 63.701677  
745.000000	 63.749718  
744.000000	 63.782691  
743.000000	 63.789296  
742.000000	 63.762378  
741.000000	 63.700294  
740.000000	 63.607645  
739.000000	 63.494300  
738.000000	 63.373947  
737.000000	 63.261389  
736.000000	 63.170075  
735.000000	 63.110661  
734.000000	 63.088536  
733.000000	 63.103604  
732.000000	 63.149929  
731.000000	 63.217329  
730.000000	 63.293170  
729.000000	 63.364362  
728.000000	 63.419985  
727.000000	 63.452076  
726.000000	 63.457918  
725.000000	 63.439178  
724.000000	 63.401937  
723.000000	 63.354372  
722.000000	 63.305282  
721.000000	 63.262486  
720.000000	 63.230752  
719.000000	 63.211941  
718.000000	 63.204288  
717.000000	 63.203787  
716.000000	 63.205480  
715.000000	 63.205265  
714.000000	 63.200736  
713.000000	 63.192319  
712.000000	 63.182950  
711.000000	 63.177537  
710.000000	 63.181567  
709.000000	 63.199687  
708.000000	 63.234591  
707.000000	 63.285708  
706.000000	 63.348865  
705.000000	 63.416361  
704.000000	 63.479399  
703.000000	 63.528585  
702.000000	 63.556003  
701.000000	 63.556647  
700.000000	 63.529157  
699.000000	 63.476347  
698.000000	 63.405132  
697.000000	 63.324713  
696.000000	 63.244819  
695.000000	 63.174128  
694.000000	 63.118958  
693.000000	 63.082432  
692.000000	 63.064551  
691.000000	 63.063240  
690.000000	 63.075447  
689.000000	 63.098025  
688.000000	 63.128542  
687.000000	 63.165211  
686.000000	 63.206720  
685.000000	 63.251376  
684.000000	 63.296937  
683.000000	 63.340806  
682.000000	 63.380193  
681.000000	 63.412880  
680.000000	 63.437128  
679.000000	 63.452768  
678.000000	 63.459682  
677.000000	 63.458871  
676.000000	 63.449954  
675.000000	 63.431477  
674.000000	 63.400626  
673.000000	 63.354468  
672.000000	 63.291239  
671.000000	 63.212132  
670.000000	 63.121461  
669.000000	 63.027405  
668.000000	 62.939333  
667.000000	 62.866139  
666.000000	 62.813305  
665.000000	 62.781834  
664.000000	 62.767887  
663.000000	 62.763643  
662.000000	 62.760066  
661.000000	 62.749242  
660.000000	 62.726473  
659.000000	 62.691354  
658.000000	 62.647128  
657.000000	 62.599682  
656.000000	 62.555170  
655.000000	 62.519025  
654.000000	 62.493777  
653.000000	 62.479805  
652.000000	 62.476062  
651.000000	 62.481164  
650.000000	 62.494587  
649.000000	 62.516736  
648.000000	 62.548995  
647.000000	 62.592339  
646.000000	 62.645959  
645.000000	 62.707018  
644.000000	 62.770032  
643.000000	 62.828326  
642.000000	 62.875390  
641.000000	 62.906002  
640.000000	 62.917470  
639.000000	 62.910199  
638.000000	 62.888050  
637.000000	 62.856197  
636.000000	 62.819981  
635.000000	 62.783837  
634.000000	 62.750649  
633.000000	 62.721467  
632.000000	 62.695860  
631.000000	 62.672996  
630.000000	 62.652397  
629.000000	 62.634801  
628.000000	 62.621903  
627.000000	 62.615513  
626.000000	 62.616610  
625.000000	 62.624645  
624.000000	 62.637281  
623.000000	 62.650060  
622.000000	 62.657999  
621.000000	 62.656378  
620.000000	 62.642598  
619.000000	 62.616181  
618.000000	 62.580132  
617.000000	 62.540102  
616.000000	 62.503528  
615.000000	 62.477183  
614.000000	 62.466597  
613.000000	 62.474751  
612.000000	 62.501597  
611.000000	 62.544417  
610.000000	 62.597680  
609.000000	 62.654423  
608.000000	 62.707233  
607.000000	 62.749338  
606.000000	 62.774896  
605.000000	 62.779498  
604.000000	 62.760734  
603.000000	 62.718510  
602.000000	 62.654256  
601.000000	 62.571191  
600.000000	 62.474536  
599.000000	 62.370657  
598.000000	 62.267351  
597.000000	 62.171697  
596.000000	 62.090349  
595.000000	 62.026691  
594.000000	 61.980390  
593.000000	 61.947369  
592.000000	 61.920166  
591.000000	 61.891150  
590.000000	 61.853432  
589.000000	 61.805129  
588.000000	 61.748766  
587.000000	 61.693215  
586.000000	 61.650323  
585.000000	 61.633777  
584.000000	 61.654472  
583.000000	 61.718606  
582.000000	 61.825299  
581.000000	 61.966633  
580.000000	 62.128686  
579.000000	 62.294554  
578.000000	 62.447357  
577.000000	 62.572741  
576.000000	 62.661004  
575.000000	 62.708401  
574.000000	 62.716865  
573.000000	 62.692356  
572.000000	 62.643408  
571.000000	 62.580156  
570.000000	 62.512230  
569.000000	 62.448930  
568.000000	 62.397170  
567.000000	 62.361907  
566.000000	 62.345004  
565.000000	 62.346529  
564.000000	 62.364435  
563.000000	 62.395143  
562.000000	 62.434363  
561.000000	 62.477612  
560.000000	 62.520909  
559.000000	 62.560772  
558.000000	 62.594866  
557.000000	 62.621665  
556.000000	 62.639880  
555.000000	 62.647962  
554.000000	 62.644076  
553.000000	 62.626385  
552.000000	 62.592625  
551.000000	 62.540507  
550.000000	 62.468338  
549.000000	 62.375378  
548.000000	 62.263011  
547.000000	 62.134671  
546.000000	 61.995100  
545.000000	 61.850690  
544.000000	 61.709928  
543.000000	 61.581802  
542.000000	 61.474466  
541.000000	 61.393833  
540.000000	 61.342239  
539.000000	 61.318445  
538.000000	 61.316442  
537.000000	 61.328601  
536.000000	 61.345958  
535.000000	 61.362171  
534.000000	 61.372828  
533.000000	 61.379027  
532.000000	 61.385822  
531.000000	 61.401820  
530.000000	 61.435580  
529.000000	 61.493921  
528.000000	 61.579084  
527.000000	 61.687922  
526.000000	 61.811709  
525.000000	 61.937403  
524.000000	 62.049531  
523.000000	 62.134170  
522.000000	 62.180876  
521.000000	 62.183094  
520.000000	 62.139225  
519.000000	 62.053799  
518.000000	 61.936187  
517.000000	 61.799335  
516.000000	 61.657190  
515.000000	 61.524510  
514.000000	 61.412024  
513.000000	 61.326956  
512.000000	 61.269688  
511.000000	 61.234664  
510.000000	 61.211562  
509.000000	 61.188435  
508.000000	 61.154723  
507.000000	 61.102175  
506.000000	 61.029815  
505.000000	 60.943651  
504.000000	 60.855770  
503.000000	 60.779953  
502.000000	 60.729813  
501.000000	 60.714888  
500.000000	 60.739207  
499.000000	 60.800433  
498.000000	 60.893535  
497.000000	 61.012315  
496.000000	 61.151647  
495.000000	 61.307358  
494.000000	 61.475992  
493.000000	 61.651968  
492.000000	 61.826753  
491.000000	 61.986660  
490.000000	 62.114334  
489.000000	 62.189412  
488.000000	 62.196588  
487.000000	 62.124204  
486.000000	 61.970138  
485.000000	 61.738729  
484.000000	 61.445307  
483.000000	 61.108350  
482.000000	 60.747766  
481.000000	 60.381698  
480.000000	 60.024785  
479.000000	 59.689903  
478.000000	 59.390163  
477.000000	 59.138011  
476.000000	 58.944892  
475.000000	 58.818387  
474.000000	 58.760285  
473.000000	 58.762454  
472.000000	 58.807206  
471.000000	 58.872056  
470.000000	 58.935022  
469.000000	 58.979892  
468.000000	 59.001088  
467.000000	 59.002208  
466.000000	 58.996796  
465.000000	 59.002757  
464.000000	 59.039449  
463.000000	 59.121584  
462.000000	 59.256029  
461.000000	 59.441781  
460.000000	 59.666585  
459.000000	 59.911751  
458.000000	 60.150980  
457.000000	 60.358071  
456.000000	 60.506725  
455.000000	 60.577535  
454.000000	 60.557484  
453.000000	 60.443949  
452.000000	 60.242462  
451.000000	 59.967350  
450.000000	 59.638381  
449.000000	 59.280180  
448.000000	 58.915948  
447.000000	 58.566403  
446.000000	 58.248186  
445.000000	 57.975101  
444.000000	 57.762479  
443.000000	 57.628488  
442.000000	 57.591891  
441.000000	 57.669639  
440.000000	 57.870769  
439.000000	 58.193111  
438.000000	 58.616232  
437.000000	 59.105777  
436.000000	 59.616351  
435.000000	 60.098791  
434.000000	 60.516023  
433.000000	 60.839152  
432.000000	 61.043643  
431.000000	 61.115336  
430.000000	 61.060118  
429.000000	 60.891413  
428.000000	 60.628747  
427.000000	 60.294055  
426.000000	 59.908938  
425.000000	 59.498977  
424.000000	 59.104943  
423.000000	 58.757853  
422.000000	 58.474063  
421.000000	 58.255624  
420.000000	 58.095026  
419.000000	 57.962226  
418.000000	 57.811164  
417.000000	 57.613134  
416.000000	 57.363915  
415.000000	 57.073473  
414.000000	 56.769204  
413.000000	 56.465649  
412.000000	 56.181073  
411.000000	 55.942368  
410.000000	 55.808520  
409.000000	 55.807542  
408.000000	 55.998277  
407.000000	 56.519126  
406.000000	 57.524561  
405.000000	 59.093952  
404.000000	 61.217021  
403.000000	 63.882303  
402.000000	 66.894531  
401.000000	 69.884538  
400.000000	 72.343158  
399.000000	 73.668050  
398.000000	 73.409962  
397.000000	 71.453452  
396.000000	 67.990279  
395.000000	 63.546538  
394.000000	 58.681130  
393.000000	 53.877449  
392.000000	 49.284148  
391.000000	 44.714760  
390.000000	 40.062665  
389.000000	 35.419416  
388.000000	 31.268286  
387.000000	 28.403997  
386.000000	 27.399134  
385.000000	 28.718256  
384.000000	 32.077908  
383.000000	 37.157702  
382.000000	 43.982791  
381.000000	 53.029847  
380.000000	 65.643119  
379.000000	 82.974171  
378.000000	 105.290055 
377.000000	 131.549930 
376.000000	 158.855938 
375.000000	 183.545184 
374.000000	 199.999976 
373.000000	 199.999976 
372.000000	 199.999976 
371.000000	 199.999976 
370.000000	 195.955729 

