PE IR       SPECTRUM    SPECTRUM    ASCII       PEDS        1.60        
  -1
C-39CF~1.ASC
17/03/27
18:08:11.00
17/03/27
18:08:11.00
tln
$C-4040-8_e0124$<ebV0>[-23.3,12.1,10.0,0.0,27,1,0]
370.000000
64









2002,4.07    
MIRTGS : RIGHTBACK : INTERNAL 2
MIR : ON : INTERNAL 2
OPTKBR

0.200000
8
8.000000
FILLER
SINGLE
SPECTRUM
UNLOCKED 256

DOUBLE

COMBINED
1
0
0


1.000000
BACKG


1
0
TRUE
51149
0
LEFT NOT FITTED RIGHT NOT FITTED 0
NONE
NONE
15600
12.000000
4.427000
51148
TRUE
1 0 8 72 0 0 0 0 

15798.010000






#HDR
-1
-1
#GR
CM-1
EGY
0.00002384185791015625
0.0
5000.000000
-1.000000
4631
8
2.460765
0.007486
#DATA
5000.000000	0.766897 
4999.000000	0.767087 
4998.000000	0.767350 
4997.000000	0.767707 
4996.000000	0.768208 
4995.000000	0.768804 
4994.000000	0.769448 
4993.000000	0.770044 
4992.000000	0.770497 
4991.000000	0.770783 
4990.000000	0.770831 
4989.000000	0.770735 
4988.000000	0.770545 
4987.000000	0.770401 
4986.000000	0.770425 
4985.000000	0.770711 
4984.000000	0.771284 
4983.000000	0.772213 
4982.000000	0.773429 
4981.000000	0.774836 
4980.000000	0.776267 
4979.000000	0.777649 
4978.000000	0.778818 
4977.000000	0.779724 
4976.000000	0.780296 
4975.000000	0.780582 
4974.000000	0.780630 
4973.000000	0.780510 
4972.000000	0.780320 
4971.000000	0.780129 
4970.000000	0.780081 
4969.000000	0.780129 
4968.000000	0.780320 
4967.000000	0.780558 
4966.000000	0.780773 
4965.000000	0.780987 
4964.000000	0.781130 
4963.000000	0.781178 
4962.000000	0.781202 
4961.000000	0.781273 
4960.000000	0.781488 
4959.000000	0.781846 
4958.000000	0.782394 
4957.000000	0.783133 
4956.000000	0.784063 
4955.000000	0.785040 
4954.000000	0.786042 
4953.000000	0.786900 
4952.000000	0.787615 
4951.000000	0.788140 
4950.000000	0.788426 
4949.000000	0.788640 
4948.000000	0.788617 
4947.000000	0.788545 
4946.000000	0.788354 
4945.000000	0.788164 
4944.000000	0.787901 
4943.000000	0.787687 
4942.000000	0.787544 
4941.000000	0.787520 
4940.000000	0.787734 
4939.000000	0.788187 
4938.000000	0.788879 
4937.000000	0.789856 
4936.000000	0.790977 
4935.000000	0.792193 
4934.000000	0.793361 
4933.000000	0.794434 
4932.000000	0.795245 
4931.000000	0.795722 
4930.000000	0.795888 
4929.000000	0.795817 
4928.000000	0.795555 
4927.000000	0.795269 
4926.000000	0.795006 
4925.000000	0.794935 
4924.000000	0.795125 
4923.000000	0.795555 
4922.000000	0.796222 
4921.000000	0.797057 
4920.000000	0.797915 
4919.000000	0.798749 
4918.000000	0.799465 
4917.000000	0.800037 
4916.000000	0.800466 
4915.000000	0.800824 
4914.000000	0.801086 
4913.000000	0.801301 
4912.000000	0.801515 
4911.000000	0.801706 
4910.000000	0.801801 
4909.000000	0.801801 
4908.000000	0.801706 
4907.000000	0.801563 
4906.000000	0.801444 
4905.000000	0.801420 
4904.000000	0.801610 
4903.000000	0.802040 
4902.000000	0.802803 
4901.000000	0.803828 
4900.000000	0.804996 
4899.000000	0.806212 
4898.000000	0.807261 
4897.000000	0.808119 
4896.000000	0.808668 
4895.000000	0.808978 
4894.000000	0.809073 
4893.000000	0.809168 
4892.000000	0.809407 
4891.000000	0.809955 
4890.000000	0.810909 
4889.000000	0.812268 
4888.000000	0.813961 
4887.000000	0.815796 
4886.000000	0.817656 
4885.000000	0.819325 
4884.000000	0.820660 
4883.000000	0.821614 
4882.000000	0.822186 
4881.000000	0.822448 
4880.000000	0.822424 
4879.000000	0.822329 
4878.000000	0.822210 
4877.000000	0.822138 
4876.000000	0.822162 
4875.000000	0.822281 
4874.000000	0.822472 
4873.000000	0.822687 
4872.000000	0.822973 
4871.000000	0.823283 
4870.000000	0.823640 
4869.000000	0.824093 
4868.000000	0.824642 
4867.000000	0.825285 
4866.000000	0.826001 
4865.000000	0.826787 
4864.000000	0.827622 
4863.000000	0.828456 
4862.000000	0.829243 
4861.000000	0.829982 
4860.000000	0.830602 
4859.000000	0.831079 
4858.000000	0.831389 
4857.000000	0.831532 
4856.000000	0.831508 
4855.000000	0.831341 
4854.000000	0.831055 
4853.000000	0.830698 
4852.000000	0.830364 
4851.000000	0.830125 
4850.000000	0.830054 
4849.000000	0.830197 
4848.000000	0.830674 
4847.000000	0.831365 
4846.000000	0.832343 
4845.000000	0.833535 
4844.000000	0.834846 
4843.000000	0.836157 
4842.000000	0.837397 
4841.000000	0.838470 
4840.000000	0.839328 
4839.000000	0.839948 
4838.000000	0.840425 
4837.000000	0.840759 
4836.000000	0.841045 
4835.000000	0.841355 
4834.000000	0.841784 
4833.000000	0.842308 
4832.000000	0.843024 
4831.000000	0.843858 
4830.000000	0.844788 
4829.000000	0.845766 
4828.000000	0.846719 
4827.000000	0.847649 
4826.000000	0.848460 
4825.000000	0.849199 
4824.000000	0.849866 
4823.000000	0.850486 
4822.000000	0.851058 
4821.000000	0.851607 
4820.000000	0.852131 
4819.000000	0.852656 
4818.000000	0.853157 
4817.000000	0.853633 
4816.000000	0.854158 
4815.000000	0.854706 
4814.000000	0.855302 
4813.000000	0.855922 
4812.000000	0.856637 
4811.000000	0.857377 
4810.000000	0.858044 
4809.000000	0.858688 
4808.000000	0.859284 
4807.000000	0.859808 
4806.000000	0.860238 
4805.000000	0.860643 
4804.000000	0.861096 
4803.000000	0.861549 
4802.000000	0.862097 
4801.000000	0.862741 
4800.000000	0.863432 
4799.000000	0.864171 
4798.000000	0.864911 
4797.000000	0.865650 
4796.000000	0.866365 
4795.000000	0.867009 
4794.000000	0.867581 
4793.000000	0.868105 
4792.000000	0.868582 
4791.000000	0.869035 
4790.000000	0.869464 
4789.000000	0.869846 
4788.000000	0.870227 
4787.000000	0.870585 
4786.000000	0.870943 
4785.000000	0.871253 
4784.000000	0.871610 
4783.000000	0.872063 
4782.000000	0.872588 
4781.000000	0.873208 
4780.000000	0.874018 
4779.000000	0.874948 
4778.000000	0.876092 
4777.000000	0.877308 
4776.000000	0.878620 
4775.000000	0.879955 
4774.000000	0.881242 
4773.000000	0.882411 
4772.000000	0.883412 
4771.000000	0.884175 
4770.000000	0.884747 
4769.000000	0.885152 
4768.000000	0.885438 
4767.000000	0.885701 
4766.000000	0.886034 
4765.000000	0.886464 
4764.000000	0.887012 
4763.000000	0.887656 
4762.000000	0.888395 
4761.000000	0.889134 
4760.000000	0.889778 
4759.000000	0.890326 
4758.000000	0.890755 
4757.000000	0.891041 
4756.000000	0.891232 
4755.000000	0.891399 
4754.000000	0.891613 
4753.000000	0.891947 
4752.000000	0.892424 
4751.000000	0.893044 
4750.000000	0.893807 
4749.000000	0.894618 
4748.000000	0.895452 
4747.000000	0.896191 
4746.000000	0.896859 
4745.000000	0.897431 
4744.000000	0.897908 
4743.000000	0.898337 
4742.000000	0.898718 
4741.000000	0.899076 
4740.000000	0.899410 
4739.000000	0.899744 
4738.000000	0.900053 
4737.000000	0.900316 
4736.000000	0.900530 
4735.000000	0.900721 
4734.000000	0.900864 
4733.000000	0.901007 
4732.000000	0.901126 
4731.000000	0.901222 
4730.000000	0.901341 
4729.000000	0.901484 
4728.000000	0.901556 
4727.000000	0.901603 
4726.000000	0.901579 
4725.000000	0.901484 
4724.000000	0.901317 
4723.000000	0.901174 
4722.000000	0.901007 
4721.000000	0.900864 
4720.000000	0.900745 
4719.000000	0.900697 
4718.000000	0.900721 
4717.000000	0.900793 
4716.000000	0.900888 
4715.000000	0.900959 
4714.000000	0.900983 
4713.000000	0.900959 
4712.000000	0.900912 
4711.000000	0.900793 
4710.000000	0.900673 
4709.000000	0.900578 
4708.000000	0.900578 
4707.000000	0.900697 
4706.000000	0.900959 
4705.000000	0.901365 
4704.000000	0.901961 
4703.000000	0.902581 
4702.000000	0.903224 
4701.000000	0.903820 
4700.000000	0.904321 
4699.000000	0.904703 
4698.000000	0.904941 
4697.000000	0.905036 
4696.000000	0.905036 
4695.000000	0.905013 
4694.000000	0.904989 
4693.000000	0.904989 
4692.000000	0.905060 
4691.000000	0.905179 
4690.000000	0.905323 
4689.000000	0.905442 
4688.000000	0.905537 
4687.000000	0.905609 
4686.000000	0.905680 
4685.000000	0.905728 
4684.000000	0.905799 
4683.000000	0.905942 
4682.000000	0.906181 
4681.000000	0.906562 
4680.000000	0.906944 
4679.000000	0.907444 
4678.000000	0.907969 
4677.000000	0.908541 
4676.000000	0.909066 
4675.000000	0.909590 
4674.000000	0.910067 
4673.000000	0.910592 
4672.000000	0.911116 
4671.000000	0.911569 
4670.000000	0.912022 
4669.000000	0.912380 
4668.000000	0.912666 
4667.000000	0.912809 
4666.000000	0.912833 
4665.000000	0.912785 
4664.000000	0.912690 
4663.000000	0.912570 
4662.000000	0.912523 
4661.000000	0.912499 
4660.000000	0.912594 
4659.000000	0.912809 
4658.000000	0.913071 
4657.000000	0.913381 
4656.000000	0.913715 
4655.000000	0.914049 
4654.000000	0.914382 
4653.000000	0.914669 
4652.000000	0.914788 
4651.000000	0.914812 
4650.000000	0.914716 
4649.000000	0.914502 
4648.000000	0.914216 
4647.000000	0.913906 
4646.000000	0.913643 
4645.000000	0.913476 
4644.000000	0.913500 
4643.000000	0.913691 
4642.000000	0.914025 
4641.000000	0.914502 
4640.000000	0.915074 
4639.000000	0.915718 
4638.000000	0.916385 
4637.000000	0.917005 
4636.000000	0.917625 
4635.000000	0.918197 
4634.000000	0.918722 
4633.000000	0.919198 
4632.000000	0.919628 
4631.000000	0.920009 
4630.000000	0.920343 
4629.000000	0.920701 
4628.000000	0.921058 
4627.000000	0.921440 
4626.000000	0.921940 
4625.000000	0.922536 
4624.000000	0.923180 
4623.000000	0.923943 
4622.000000	0.924730 
4621.000000	0.925564 
4620.000000	0.926351 
4619.000000	0.927090 
4618.000000	0.927782 
4617.000000	0.928425 
4616.000000	0.929021 
4615.000000	0.929546 
4614.000000	0.930118 
4613.000000	0.930690 
4612.000000	0.931334 
4611.000000	0.931978 
4610.000000	0.932669 
4609.000000	0.933337 
4608.000000	0.933909 
4607.000000	0.934386 
4606.000000	0.934743 
4605.000000	0.934958 
4604.000000	0.935029 
4603.000000	0.935053 
4602.000000	0.935077 
4601.000000	0.935125 
4600.000000	0.935316 
4599.000000	0.935649 
4598.000000	0.936222 
4597.000000	0.936985 
4596.000000	0.938010 
4595.000000	0.939226 
4594.000000	0.940513 
4593.000000	0.941848 
4592.000000	0.943136 
4591.000000	0.944280 
4590.000000	0.945234 
4589.000000	0.945925 
4588.000000	0.946331 
4587.000000	0.946474 
4586.000000	0.946450 
4585.000000	0.946307 
4584.000000	0.946187 
4583.000000	0.946164 
4582.000000	0.946354 
4581.000000	0.946760 
4580.000000	0.947403 
4579.000000	0.948238 
4578.000000	0.949263 
4577.000000	0.950312 
4576.000000	0.951385 
4575.000000	0.952458 
4574.000000	0.953507 
4573.000000	0.954556 
4572.000000	0.955605 
4571.000000	0.956726 
4570.000000	0.957870 
4569.000000	0.959014 
4568.000000	0.960135 
4567.000000	0.961184 
4566.000000	0.962090 
4565.000000	0.962853 
4564.000000	0.963497 
4563.000000	0.963997 
4562.000000	0.964474 
4561.000000	0.964999 
4560.000000	0.965642 
4559.000000	0.966477 
4558.000000	0.967478 
4557.000000	0.968647 
4556.000000	0.969910 
4555.000000	0.971221 
4554.000000	0.972509 
4553.000000	0.973725 
4552.000000	0.974845 
4551.000000	0.975799 
4550.000000	0.976610 
4549.000000	0.977301 
4548.000000	0.977873 
4547.000000	0.978374 
4546.000000	0.978851 
4545.000000	0.979351 
4544.000000	0.979852 
4543.000000	0.980424 
4542.000000	0.981044 
4541.000000	0.981712 
4540.000000	0.982427 
4539.000000	0.983166 
4538.000000	0.983858 
4537.000000	0.984501 
4536.000000	0.985002 
4535.000000	0.985455 
4534.000000	0.985741 
4533.000000	0.985980 
4532.000000	0.986146 
4531.000000	0.986337 
4530.000000	0.986528 
4529.000000	0.986814 
4528.000000	0.987195 
4527.000000	0.987625 
4526.000000	0.988101 
4525.000000	0.988554 
4524.000000	0.988960 
4523.000000	0.989294 
4522.000000	0.989556 
4521.000000	0.989699 
4520.000000	0.989770 
4519.000000	0.989818 
4518.000000	0.989770 
4517.000000	0.989699 
4516.000000	0.989556 
4515.000000	0.989365 
4514.000000	0.989174 
4513.000000	0.989007 
4512.000000	0.988960 
4511.000000	0.989007 
4510.000000	0.989246 
4509.000000	0.989723 
4508.000000	0.990414 
4507.000000	0.991320 
4506.000000	0.992369 
4505.000000	0.993537 
4504.000000	0.994706 
4503.000000	0.995779 
4502.000000	0.996708 
4501.000000	0.997495 
4500.000000	0.998044 
4499.000000	0.998425 
4498.000000	0.998687 
4497.000000	0.998878 
4496.000000	0.999021 
4495.000000	0.999188 
4494.000000	0.999402 
4493.000000	0.999665 
4492.000000	1.000046 
4491.000000	1.000404 
4490.000000	1.000809 
4489.000000	1.001214 
4488.000000	1.001596 
4487.000000	1.001930 
4486.000000	1.002192 
4485.000000	1.002407 
4484.000000	1.002526 
4483.000000	1.002526 
4482.000000	1.002407 
4481.000000	1.002216 
4480.000000	1.001930 
4479.000000	1.001667 
4478.000000	1.001453 
4477.000000	1.001358 
4476.000000	1.001381 
4475.000000	1.001548 
4474.000000	1.001834 
4473.000000	1.002240 
4472.000000	1.002669 
4471.000000	1.003122 
4470.000000	1.003551 
4469.000000	1.003909 
4468.000000	1.004195 
4467.000000	1.004385 
4466.000000	1.004528 
4465.000000	1.004552 
4464.000000	1.004528 
4463.000000	1.004481 
4462.000000	1.004409 
4461.000000	1.004314 
4460.000000	1.004242 
4459.000000	1.004171 
4458.000000	1.004099 
4457.000000	1.004099 
4456.000000	1.004099 
4455.000000	1.004123 
4454.000000	1.004219 
4453.000000	1.004409 
4452.000000	1.004672 
4451.000000	1.005029 
4450.000000	1.005411 
4449.000000	1.005792 
4448.000000	1.006054 
4447.000000	1.006174 
4446.000000	1.006150 
4445.000000	1.005983 
4444.000000	1.005744 
4443.000000	1.005458 
4442.000000	1.005172 
4441.000000	1.004958 
4440.000000	1.004838 
4439.000000	1.004815 
4438.000000	1.004815 
4437.000000	1.004815 
4436.000000	1.004767 
4435.000000	1.004672 
4434.000000	1.004481 
4433.000000	1.004219 
4432.000000	1.003909 
4431.000000	1.003527 
4430.000000	1.003074 
4429.000000	1.002621 
4428.000000	1.002192 
4427.000000	1.001811 
4426.000000	1.001572 
4425.000000	1.001501 
4424.000000	1.001715 
4423.000000	1.002168 
4422.000000	1.002860 
4421.000000	1.003718 
4420.000000	1.004672 
4419.000000	1.005506 
4418.000000	1.006197 
4417.000000	1.006603 
4416.000000	1.006650 
4415.000000	1.006436 
4414.000000	1.005983 
4413.000000	1.005339 
4412.000000	1.004648 
4411.000000	1.004004 
4410.000000	1.003360 
4409.000000	1.002860 
4408.000000	1.002383 
4407.000000	1.002073 
4406.000000	1.001858 
4405.000000	1.001763 
4404.000000	1.001882 
4403.000000	1.002240 
4402.000000	1.002883 
4401.000000	1.003789 
4400.000000	1.004981 
4399.000000	1.006317 
4398.000000	1.007771 
4397.000000	1.009202 
4396.000000	1.010513 
4395.000000	1.011729 
4394.000000	1.012754 
4393.000000	1.013565 
4392.000000	1.014280 
4391.000000	1.014947 
4390.000000	1.015710 
4389.000000	1.016545 
4388.000000	1.017451 
4387.000000	1.018381 
4386.000000	1.019191 
4385.000000	1.019811 
4384.000000	1.020073 
4383.000000	1.019859 
4382.000000	1.019191 
4381.000000	1.018166 
4380.000000	1.017022 
4379.000000	1.015925 
4378.000000	1.015090 
4377.000000	1.014518 
4376.000000	1.014018 
4375.000000	1.013302 
4374.000000	1.011967 
4373.000000	1.009654 
4372.000000	1.006221 
4371.000000	1.001954 
4370.000000	0.997543 
4369.000000	0.994324 
4368.000000	0.993728 
4367.000000	0.997304 
4366.000000	1.006412 
4365.000000	1.021528 
4364.000000	1.042389 
4363.000000	1.067638 
4362.000000	1.094985 
4361.000000	1.121544 
4360.000000	1.144313 
4359.000000	1.160597 
4358.000000	1.168704 
4357.000000	1.168084 
4356.000000	1.159501 
4355.000000	1.144933 
4354.000000	1.127004 
4353.000000	1.108598 
4352.000000	1.092243 
4351.000000	1.079654 
4350.000000	1.071476 
4349.000000	1.067447 
4348.000000	1.066517 
4347.000000	1.067209 
4346.000000	1.068162 
4345.000000	1.068425 
4344.000000	1.067566 
4343.000000	1.065731 
4342.000000	1.063466 
4341.000000	1.061463 
4340.000000	1.060318 
4339.000000	1.060342 
4338.000000	1.061582 
4337.000000	1.063823 
4336.000000	1.066565 
4335.000000	1.069474 
4334.000000	1.072192 
4333.000000	1.074528 
4332.000000	1.076483 
4331.000000	1.078200 
4330.000000	1.079773 
4329.000000	1.081156 
4328.000000	1.082515 
4327.000000	1.083779 
4326.000000	1.084923 
4325.000000	1.085948 
4324.000000	1.086854 
4323.000000	1.087665 
4322.000000	1.088428 
4321.000000	1.089262 
4320.000000	1.090145 
4319.000000	1.091051 
4318.000000	1.092076 
4317.000000	1.093220 
4316.000000	1.094532 
4315.000000	1.095986 
4314.000000	1.097536 
4313.000000	1.099181 
4312.000000	1.100826 
4311.000000	1.102447 
4310.000000	1.103997 
4309.000000	1.105427 
4308.000000	1.106691 
4307.000000	1.107835 
4306.000000	1.108860 
4305.000000	1.109886 
4304.000000	1.110959 
4303.000000	1.112055 
4302.000000	1.113200 
4301.000000	1.114296 
4300.000000	1.115322 
4299.000000	1.116275 
4298.000000	1.117086 
4297.000000	1.117873 
4296.000000	1.118588 
4295.000000	1.119351 
4294.000000	1.120185 
4293.000000	1.121234 
4292.000000	1.122426 
4291.000000	1.123666 
4290.000000	1.124954 
4289.000000	1.126170 
4288.000000	1.127243 
4287.000000	1.128077 
4286.000000	1.128649 
4285.000000	1.128983 
4284.000000	1.129150 
4283.000000	1.129174 
4282.000000	1.129198 
4281.000000	1.129317 
4280.000000	1.129579 
4279.000000	1.130032 
4278.000000	1.130723 
4277.000000	1.131606 
4276.000000	1.132702 
4275.000000	1.133966 
4274.000000	1.135349 
4273.000000	1.136732 
4272.000000	1.138138 
4271.000000	1.139521 
4270.000000	1.140856 
4269.000000	1.142120 
4268.000000	1.143312 
4267.000000	1.144456 
4266.000000	1.145553 
4265.000000	1.146650 
4264.000000	1.147770 
4263.000000	1.148891 
4262.000000	1.149988 
4261.000000	1.151132 
4260.000000	1.152324 
4259.000000	1.153588 
4258.000000	1.154923 
4257.000000	1.156330 
4256.000000	1.157760 
4255.000000	1.159167 
4254.000000	1.160573 
4253.000000	1.161909 
4252.000000	1.163125 
4251.000000	1.164245 
4250.000000	1.165270 
4249.000000	1.166152 
4248.000000	1.166963 
4247.000000	1.167583 
4246.000000	1.168203 
4245.000000	1.168751 
4244.000000	1.169300 
4243.000000	1.169776 
4242.000000	1.170277 
4241.000000	1.170825 
4240.000000	1.171374 
4239.000000	1.171898 
4238.000000	1.172399 
4237.000000	1.172924 
4236.000000	1.173424 
4235.000000	1.173901 
4234.000000	1.174426 
4233.000000	1.174998 
4232.000000	1.175594 
4231.000000	1.176214 
4230.000000	1.176881 
4229.000000	1.177525 
4228.000000	1.178121 
4227.000000	1.178622 
4226.000000	1.179051 
4225.000000	1.179361 
4224.000000	1.179552 
4223.000000	1.179695 
4222.000000	1.179814 
4221.000000	1.179885 
4220.000000	1.179981 
4219.000000	1.180076 
4218.000000	1.180338 
4217.000000	1.180696 
4216.000000	1.181244 
4215.000000	1.181936 
4214.000000	1.182794 
4213.000000	1.183724 
4212.000000	1.184749 
4211.000000	1.185703 
4210.000000	1.186585 
4209.000000	1.187300 
4208.000000	1.187920 
4207.000000	1.188421 
4206.000000	1.188874 
4205.000000	1.189303 
4204.000000	1.189780 
4203.000000	1.190328 
4202.000000	1.190972 
4201.000000	1.191687 
4200.000000	1.192498 
4199.000000	1.193284 
4198.000000	1.194024 
4197.000000	1.194596 
4196.000000	1.195001 
4195.000000	1.195216 
4194.000000	1.195240 
4193.000000	1.195120 
4192.000000	1.195025 
4191.000000	1.195096 
4190.000000	1.195478 
4189.000000	1.196312 
4188.000000	1.197719 
4187.000000	1.199507 
4186.000000	1.201677 
4185.000000	1.204037 
4184.000000	1.206254 
4183.000000	1.208209 
4182.000000	1.209688 
4181.000000	1.210570 
4180.000000	1.210856 
4179.000000	1.210737 
4178.000000	1.210308 
4177.000000	1.209759 
4176.000000	1.209211 
4175.000000	1.208734 
4174.000000	1.208448 
4173.000000	1.208281 
4172.000000	1.208257 
4171.000000	1.208281 
4170.000000	1.208329 
4169.000000	1.208376 
4168.000000	1.208424 
4167.000000	1.208424 
4166.000000	1.208376 
4165.000000	1.208281 
4164.000000	1.208138 
4163.000000	1.208019 
4162.000000	1.207947 
4161.000000	1.208043 
4160.000000	1.208281 
4159.000000	1.208734 
4158.000000	1.209425 
4157.000000	1.210308 
4156.000000	1.211333 
4155.000000	1.212453 
4154.000000	1.213526 
4153.000000	1.214551 
4152.000000	1.215434 
4151.000000	1.216149 
4150.000000	1.216745 
4149.000000	1.217246 
4148.000000	1.217651 
4147.000000	1.218032 
4146.000000	1.218414 
4145.000000	1.218795 
4144.000000	1.219248 
4143.000000	1.219773 
4142.000000	1.220393 
4141.000000	1.221156 
4140.000000	1.222038 
4139.000000	1.223015 
4138.000000	1.224160 
4137.000000	1.225376 
4136.000000	1.226687 
4135.000000	1.228070 
4134.000000	1.229453 
4133.000000	1.230788 
4132.000000	1.232051 
4131.000000	1.233196 
4130.000000	1.234197 
4129.000000	1.235055 
4128.000000	1.235747 
4127.000000	1.236319 
4126.000000	1.236820 
4125.000000	1.237392 
4124.000000	1.238012 
4123.000000	1.238775 
4122.000000	1.239681 
4121.000000	1.240730 
4120.000000	1.241898 
4119.000000	1.243185 
4118.000000	1.244497 
4117.000000	1.245784 
4116.000000	1.247048 
4115.000000	1.248288 
4114.000000	1.249456 
4113.000000	1.250576 
4112.000000	1.251554 
4111.000000	1.252484 
4110.000000	1.253318 
4109.000000	1.254081 
4108.000000	1.254820 
4107.000000	1.255512 
4106.000000	1.256203 
4105.000000	1.256966 
4104.000000	1.257848 
4103.000000	1.258778 
4102.000000	1.259779 
4101.000000	1.260876 
4100.000000	1.261973 
4099.000000	1.263070 
4098.000000	1.264142 
4097.000000	1.265192 
4096.000000	1.266288 
4095.000000	1.267385 
4094.000000	1.268506 
4093.000000	1.269698 
4092.000000	1.270985 
4091.000000	1.272273 
4090.000000	1.273560 
4089.000000	1.274871 
4088.000000	1.276159 
4087.000000	1.277446 
4086.000000	1.278734 
4085.000000	1.279997 
4084.000000	1.281261 
4083.000000	1.282548 
4082.000000	1.283812 
4081.000000	1.285052 
4080.000000	1.286268 
4079.000000	1.287436 
4078.000000	1.288580 
4077.000000	1.289749 
4076.000000	1.290941 
4075.000000	1.292181 
4074.000000	1.293516 
4073.000000	1.294970 
4072.000000	1.296567 
4071.000000	1.298284 
4070.000000	1.300168 
4069.000000	1.302170 
4068.000000	1.304292 
4067.000000	1.306486 
4066.000000	1.308655 
4065.000000	1.310753 
4064.000000	1.312708 
4063.000000	1.314520 
4062.000000	1.316094 
4061.000000	1.317477 
4060.000000	1.318693 
4059.000000	1.319742 
4058.000000	1.320767 
4057.000000	1.321744 
4056.000000	1.322698 
4055.000000	1.323676 
4054.000000	1.324677 
4053.000000	1.325678 
4052.000000	1.326727 
4051.000000	1.327753 
4050.000000	1.328849 
4049.000000	1.329970 
4048.000000	1.331210 
4047.000000	1.332521 
4046.000000	1.333880 
4045.000000	1.335358 
4044.000000	1.336860 
4043.000000	1.338386 
4042.000000	1.339888 
4041.000000	1.341390 
4040.000000	1.342844 
4039.000000	1.344227 
4038.000000	1.345562 
4037.000000	1.346874 
4036.000000	1.348209 
4035.000000	1.349568 
4034.000000	1.350998 
4033.000000	1.352477 
4032.000000	1.354002 
4031.000000	1.355552 
4030.000000	1.357078 
4029.000000	1.358532 
4028.000000	1.359891 
4027.000000	1.360988 
4026.000000	1.361918 
4025.000000	1.362609 
4024.000000	1.363086 
4023.000000	1.363396 
4022.000000	1.363635 
4021.000000	1.363825 
4020.000000	1.364088 
4019.000000	1.364421 
4018.000000	1.364946 
4017.000000	1.365733 
4016.000000	1.366710 
4015.000000	1.367902 
4014.000000	1.369261 
4013.000000	1.370787 
4012.000000	1.372408 
4011.000000	1.374125 
4010.000000	1.375818 
4009.000000	1.377487 
4008.000000	1.379108 
4007.000000	1.380610 
4006.000000	1.381969 
4005.000000	1.383185 
4004.000000	1.384210 
4003.000000	1.385092 
4002.000000	1.385807 
4001.000000	1.386427 
4000.000000	1.387000 
3999.000000	1.387548 
3998.000000	1.388096 
3997.000000	1.388669 
3996.000000	1.389312 
3995.000000	1.390004 
3994.000000	1.390743 
3993.000000	1.391530 
3992.000000	1.392340 
3991.000000	1.393198 
3990.000000	1.394081 
3989.000000	1.395010 
3988.000000	1.395988 
3987.000000	1.396942 
3986.000000	1.397895 
3985.000000	1.398754 
3984.000000	1.399517 
3983.000000	1.400184 
3982.000000	1.400709 
3981.000000	1.401138 
3980.000000	1.401519 
3979.000000	1.401877 
3978.000000	1.402258 
3977.000000	1.402735 
3976.000000	1.403284 
3975.000000	1.403927 
3974.000000	1.404643 
3973.000000	1.405382 
3972.000000	1.406145 
3971.000000	1.406812 
3970.000000	1.407456 
3969.000000	1.407957 
3968.000000	1.408433 
3967.000000	1.408791 
3966.000000	1.409101 
3965.000000	1.409411 
3964.000000	1.409697 
3963.000000	1.409935 
3962.000000	1.410222 
3961.000000	1.410484 
3960.000000	1.410770 
3959.000000	1.411080 
3958.000000	1.411390 
3957.000000	1.411700 
3956.000000	1.412010 
3955.000000	1.412272 
3954.000000	1.412510 
3953.000000	1.412701 
3952.000000	1.412820 
3951.000000	1.412940 
3950.000000	1.413035 
3949.000000	1.413106 
3948.000000	1.413178 
3947.000000	1.413273 
3946.000000	1.413416 
3945.000000	1.413655 
3944.000000	1.413917 
3943.000000	1.414251 
3942.000000	1.414656 
3941.000000	1.415109 
3940.000000	1.415538 
3939.000000	1.415967 
3938.000000	1.416301 
3937.000000	1.416563 
3936.000000	1.416754 
3935.000000	1.416921 
3934.000000	1.417112 
3933.000000	1.417350 
3932.000000	1.417756 
3931.000000	1.418375 
3930.000000	1.419210 
3929.000000	1.420259 
3928.000000	1.421403 
3927.000000	1.422643 
3926.000000	1.423835 
3925.000000	1.424884 
3924.000000	1.425695 
3923.000000	1.426315 
3922.000000	1.426672 
3921.000000	1.426792 
3920.000000	1.426768 
3919.000000	1.426625 
3918.000000	1.426410 
3917.000000	1.426196 
3916.000000	1.425981 
3915.000000	1.425743 
3914.000000	1.425552 
3913.000000	1.425313 
3912.000000	1.425075 
3911.000000	1.424837 
3910.000000	1.424598 
3909.000000	1.424407 
3908.000000	1.424241 
3907.000000	1.424145 
3906.000000	1.424121 
3905.000000	1.424193 
3904.000000	1.424384 
3903.000000	1.424646 
3902.000000	1.425004 
3901.000000	1.425457 
3900.000000	1.425933 
3899.000000	1.426410 
3898.000000	1.426887 
3897.000000	1.427340 
3896.000000	1.427817 
3895.000000	1.428246 
3894.000000	1.428651 
3893.000000	1.429080 
3892.000000	1.429462 
3891.000000	1.429820 
3890.000000	1.430201 
3889.000000	1.430559 
3888.000000	1.430988 
3887.000000	1.431488 
3886.000000	1.432180 
3885.000000	1.433062 
3884.000000	1.434135 
3883.000000	1.435351 
3882.000000	1.436638 
3881.000000	1.437926 
3880.000000	1.438999 
3879.000000	1.439762 
3878.000000	1.440095 
3877.000000	1.440000 
3876.000000	1.439523 
3875.000000	1.438736 
3874.000000	1.437830 
3873.000000	1.436996 
3872.000000	1.436400 
3871.000000	1.436185 
3870.000000	1.436424 
3869.000000	1.437163 
3868.000000	1.438403 
3867.000000	1.440048 
3866.000000	1.441979 
3865.000000	1.444053 
3864.000000	1.446056 
3863.000000	1.447820 
3862.000000	1.449108 
3861.000000	1.449751 
3860.000000	1.449680 
3859.000000	1.448941 
3858.000000	1.447701 
3857.000000	1.446223 
3856.000000	1.444888 
3855.000000	1.444101 
3854.000000	1.444077 
3853.000000	1.445055 
3852.000000	1.446962 
3851.000000	1.449632 
3850.000000	1.452803 
3849.000000	1.456117 
3848.000000	1.459193 
3847.000000	1.461791 
3846.000000	1.463747 
3845.000000	1.465010 
3844.000000	1.465702 
3843.000000	1.465988 
3842.000000	1.466155 
3841.000000	1.466321 
3840.000000	1.466774 
3839.000000	1.467609 
3838.000000	1.468944 
3837.000000	1.470804 
3836.000000	1.473093 
3835.000000	1.475739 
3834.000000	1.478552 
3833.000000	1.481389 
3832.000000	1.484036 
3831.000000	1.486349 
3830.000000	1.488184 
3829.000000	1.489472 
3828.000000	1.490163 
3827.000000	1.490354 
3826.000000	1.490116 
3825.000000	1.489615 
3824.000000	1.489019 
3823.000000	1.488494 
3822.000000	1.488137 
3821.000000	1.488137 
3820.000000	1.488542 
3819.000000	1.489329 
3818.000000	1.490545 
3817.000000	1.492023 
3816.000000	1.493716 
3815.000000	1.495456 
3814.000000	1.497173 
3813.000000	1.498675 
3812.000000	1.500010 
3811.000000	1.501035 
3810.000000	1.501846 
3809.000000	1.502442 
3808.000000	1.502895 
3807.000000	1.503348 
3806.000000	1.503825 
3805.000000	1.504492 
3804.000000	1.505398 
3803.000000	1.506662 
3802.000000	1.508235 
3801.000000	1.510119 
3800.000000	1.512241 
3799.000000	1.514506 
3798.000000	1.516795 
3797.000000	1.518964 
3796.000000	1.520943 
3795.000000	1.522636 
3794.000000	1.524043 
3793.000000	1.525211 
3792.000000	1.526212 
3791.000000	1.527118 
3790.000000	1.528000 
3789.000000	1.528930 
3788.000000	1.529884 
3787.000000	1.530861 
3786.000000	1.531887 
3785.000000	1.532936 
3784.000000	1.533913 
3783.000000	1.534819 
3782.000000	1.535749 
3781.000000	1.536655 
3780.000000	1.537561 
3779.000000	1.538538 
3778.000000	1.539540 
3777.000000	1.540613 
3776.000000	1.541709 
3775.000000	1.542806 
3774.000000	1.543855 
3773.000000	1.544880 
3772.000000	1.545858 
3771.000000	1.546764 
3770.000000	1.547622 
3769.000000	1.548385 
3768.000000	1.549077 
3767.000000	1.549720 
3766.000000	1.550340 
3765.000000	1.550912 
3764.000000	1.551485 
3763.000000	1.552033 
3762.000000	1.552510 
3761.000000	1.552963 
3760.000000	1.553249 
3759.000000	1.553344 
3758.000000	1.553153 
3757.000000	1.552629 
3756.000000	1.551723 
3755.000000	1.550531 
3754.000000	1.549124 
3753.000000	1.547598 
3752.000000	1.546072 
3751.000000	1.544761 
3750.000000	1.543736 
3749.000000	1.543068 
3748.000000	1.542878 
3747.000000	1.543188 
3746.000000	1.543951 
3745.000000	1.545095 
3744.000000	1.546597 
3743.000000	1.548337 
3742.000000	1.550221 
3741.000000	1.552057 
3740.000000	1.553797 
3739.000000	1.555275 
3738.000000	1.556468 
3737.000000	1.557374 
3736.000000	1.558065 
3735.000000	1.558589 
3734.000000	1.559090 
3733.000000	1.559638 
3732.000000	1.560330 
3731.000000	1.561164 
3730.000000	1.562118 
3729.000000	1.563143 
3728.000000	1.564192 
3727.000000	1.565217 
3726.000000	1.566171 
3725.000000	1.567125 
3724.000000	1.567959 
3723.000000	1.568722 
3722.000000	1.569461 
3721.000000	1.570105 
3720.000000	1.570582 
3719.000000	1.570868 
3718.000000	1.570987 
3717.000000	1.570868 
3716.000000	1.570534 
3715.000000	1.570057 
3714.000000	1.569509 
3713.000000	1.569008 
3712.000000	1.568627 
3711.000000	1.568531 
3710.000000	1.568746 
3709.000000	1.569271 
3708.000000	1.570105 
3707.000000	1.571130 
3706.000000	1.572322 
3705.000000	1.573514 
3704.000000	1.574659 
3703.000000	1.575708 
3702.000000	1.576519 
3701.000000	1.577091 
3700.000000	1.577305 
3699.000000	1.577186 
3698.000000	1.576662 
3697.000000	1.575779 
3696.000000	1.574540 
3695.000000	1.573038 
3694.000000	1.571369 
3693.000000	1.569700 
3692.000000	1.568222 
3691.000000	1.567029 
3690.000000	1.566267 
3689.000000	1.566004 
3688.000000	1.566195 
3687.000000	1.566791 
3686.000000	1.567649 
3685.000000	1.568531 
3684.000000	1.569271 
3683.000000	1.569700 
3682.000000	1.569724 
3681.000000	1.569271 
3680.000000	1.568412 
3679.000000	1.567244 
3678.000000	1.565861 
3677.000000	1.564502 
3676.000000	1.563286 
3675.000000	1.562476 
3674.000000	1.562070 
3673.000000	1.562190 
3672.000000	1.562881 
3671.000000	1.564097 
3670.000000	1.565718 
3669.000000	1.567625 
3668.000000	1.569652 
3667.000000	1.571655 
3666.000000	1.573419 
3665.000000	1.574850 
3664.000000	1.575851 
3663.000000	1.576375 
3662.000000	1.576399 
3661.000000	1.575994 
3660.000000	1.575183 
3659.000000	1.574087 
3658.000000	1.572847 
3657.000000	1.571440 
3656.000000	1.569986 
3655.000000	1.568627 
3654.000000	1.567411 
3653.000000	1.566410 
3652.000000	1.565766 
3651.000000	1.565527 
3650.000000	1.565814 
3649.000000	1.566529 
3648.000000	1.567721 
3647.000000	1.569223 
3646.000000	1.570963 
3645.000000	1.572680 
3644.000000	1.574301 
3643.000000	1.575708 
3642.000000	1.576757 
3641.000000	1.577472 
3640.000000	1.577830 
3639.000000	1.577877 
3638.000000	1.577663 
3637.000000	1.577186 
3636.000000	1.576590 
3635.000000	1.575899 
3634.000000	1.575231 
3633.000000	1.574659 
3632.000000	1.574301 
3631.000000	1.574277 
3630.000000	1.574563 
3629.000000	1.575136 
3628.000000	1.575994 
3627.000000	1.576972 
3626.000000	1.577949 
3625.000000	1.578807 
3624.000000	1.579451 
3623.000000	1.579928 
3622.000000	1.580214 
3621.000000	1.580405 
3620.000000	1.580548 
3619.000000	1.580739 
3618.000000	1.581025 
3617.000000	1.581382 
3616.000000	1.581788 
3615.000000	1.582217 
3614.000000	1.582598 
3613.000000	1.583003 
3612.000000	1.583385 
3611.000000	1.583862 
3610.000000	1.584482 
3609.000000	1.585292 
3608.000000	1.586294 
3607.000000	1.587462 
3606.000000	1.588726 
3605.000000	1.589941 
3604.000000	1.591014 
3603.000000	1.591944 
3602.000000	1.592612 
3601.000000	1.593089 
3600.000000	1.593422 
3599.000000	1.593732 
3598.000000	1.594042 
3597.000000	1.594424 
3596.000000	1.594877 
3595.000000	1.595354 
3594.000000	1.595878 
3593.000000	1.596355 
3592.000000	1.596784 
3591.000000	1.597213 
3590.000000	1.597642 
3589.000000	1.598024 
3588.000000	1.598548 
3587.000000	1.599121 
3586.000000	1.599764 
3585.000000	1.600384 
3584.000000	1.600980 
3583.000000	1.601433 
3582.000000	1.601743 
3581.000000	1.601910 
3580.000000	1.601982 
3579.000000	1.602053 
3578.000000	1.602125 
3577.000000	1.602315 
3576.000000	1.602625 
3575.000000	1.603078 
3574.000000	1.603651 
3573.000000	1.604294 
3572.000000	1.605033 
3571.000000	1.605796 
3570.000000	1.606583 
3569.000000	1.607370 
3568.000000	1.608204 
3567.000000	1.609086 
3566.000000	1.609992 
3565.000000	1.610946 
3564.000000	1.611852 
3563.000000	1.612782 
3562.000000	1.613664 
3561.000000	1.614522 
3560.000000	1.615357 
3559.000000	1.616168 
3558.000000	1.616978 
3557.000000	1.617765 
3556.000000	1.618480 
3555.000000	1.619076 
3554.000000	1.619601 
3553.000000	1.620006 
3552.000000	1.620292 
3551.000000	1.620459 
3550.000000	1.620602 
3549.000000	1.620745 
3548.000000	1.620960 
3547.000000	1.621246 
3546.000000	1.621651 
3545.000000	1.622176 
3544.000000	1.622724 
3543.000000	1.623320 
3542.000000	1.623845 
3541.000000	1.624298 
3540.000000	1.624584 
3539.000000	1.624703 
3538.000000	1.624655 
3537.000000	1.624512 
3536.000000	1.624274 
3535.000000	1.623940 
3534.000000	1.623678 
3533.000000	1.623439 
3532.000000	1.623320 
3531.000000	1.623225 
3530.000000	1.623249 
3529.000000	1.623368 
3528.000000	1.623582 
3527.000000	1.623845 
3526.000000	1.624202 
3525.000000	1.624655 
3524.000000	1.625227 
3523.000000	1.625919 
3522.000000	1.626658 
3521.000000	1.627445 
3520.000000	1.628255 
3519.000000	1.628994 
3518.000000	1.629590 
3517.000000	1.630020 
3516.000000	1.630210 
3515.000000	1.630139 
3514.000000	1.629853 
3513.000000	1.629376 
3512.000000	1.628708 
3511.000000	1.627945 
3510.000000	1.627087 
3509.000000	1.626229 
3508.000000	1.625418 
3507.000000	1.624655 
3506.000000	1.624011 
3505.000000	1.623463 
3504.000000	1.623058 
3503.000000	1.622772 
3502.000000	1.622653 
3501.000000	1.622653 
3500.000000	1.622796 
3499.000000	1.623034 
3498.000000	1.623392 
3497.000000	1.623773 
3496.000000	1.624155 
3495.000000	1.624488 
3494.000000	1.624679 
3493.000000	1.624679 
3492.000000	1.624393 
3491.000000	1.623845 
3490.000000	1.623034 
3489.000000	1.621937 
3488.000000	1.620697 
3487.000000	1.619338 
3486.000000	1.617980 
3485.000000	1.616644 
3484.000000	1.615405 
3483.000000	1.614332 
3482.000000	1.613354 
3481.000000	1.612520 
3480.000000	1.611781 
3479.000000	1.611161 
3478.000000	1.610660 
3477.000000	1.610183 
3476.000000	1.609802 
3475.000000	1.609373 
3474.000000	1.608967 
3473.000000	1.608443 
3472.000000	1.607847 
3471.000000	1.607179 
3470.000000	1.606464 
3469.000000	1.605725 
3468.000000	1.605081 
3467.000000	1.604557 
3466.000000	1.604199 
3465.000000	1.603984 
3464.000000	1.603865 
3463.000000	1.603746 
3462.000000	1.603531 
3461.000000	1.603221 
3460.000000	1.602625 
3459.000000	1.601839 
3458.000000	1.600909 
3457.000000	1.599860 
3456.000000	1.598811 
3455.000000	1.597833 
3454.000000	1.596975 
3453.000000	1.596283 
3452.000000	1.595711 
3451.000000	1.595258 
3450.000000	1.594901 
3449.000000	1.594567 
3448.000000	1.594209 
3447.000000	1.593780 
3446.000000	1.593232 
3445.000000	1.592588 
3444.000000	1.591801 
3443.000000	1.590919 
3442.000000	1.589894 
3441.000000	1.588821 
3440.000000	1.587724 
3439.000000	1.586627 
3438.000000	1.585602 
3437.000000	1.584720 
3436.000000	1.583981 
3435.000000	1.583433 
3434.000000	1.583051 
3433.000000	1.582908 
3432.000000	1.582860 
3431.000000	1.582980 
3430.000000	1.583099 
3429.000000	1.583218 
3428.000000	1.583313 
3427.000000	1.583337 
3426.000000	1.583313 
3425.000000	1.583290 
3424.000000	1.583242 
3423.000000	1.583313 
3422.000000	1.583480 
3421.000000	1.583790 
3420.000000	1.584219 
3419.000000	1.584792 
3418.000000	1.585435 
3417.000000	1.586127 
3416.000000	1.586818 
3415.000000	1.587462 
3414.000000	1.588058 
3413.000000	1.588630 
3412.000000	1.589131 
3411.000000	1.589608 
3410.000000	1.590061 
3409.000000	1.590514 
3408.000000	1.590991 
3407.000000	1.591491 
3406.000000	1.592016 
3405.000000	1.592540 
3404.000000	1.593089 
3403.000000	1.593589 
3402.000000	1.594090 
3401.000000	1.594567 
3400.000000	1.594972 
3399.000000	1.595425 
3398.000000	1.595878 
3397.000000	1.596379 
3396.000000	1.596975 
3395.000000	1.597642 
3394.000000	1.598334 
3393.000000	1.599073 
3392.000000	1.599860 
3391.000000	1.600623 
3390.000000	1.601386 
3389.000000	1.602101 
3388.000000	1.602840 
3387.000000	1.603603 
3386.000000	1.604366 
3385.000000	1.605176 
3384.000000	1.605987 
3383.000000	1.606822 
3382.000000	1.607656 
3381.000000	1.608490 
3380.000000	1.609325 
3379.000000	1.610159 
3378.000000	1.611042 
3377.000000	1.611971 
3376.000000	1.612973 
3375.000000	1.614093 
3374.000000	1.615214 
3373.000000	1.616382 
3372.000000	1.617527 
3371.000000	1.618647 
3370.000000	1.619720 
3369.000000	1.620745 
3368.000000	1.621723 
3367.000000	1.622700 
3366.000000	1.623702 
3365.000000	1.624798 
3364.000000	1.625990 
3363.000000	1.627349 
3362.000000	1.628828 
3361.000000	1.630449 
3360.000000	1.632142 
3359.000000	1.633930 
3358.000000	1.635766 
3357.000000	1.637625 
3356.000000	1.639437 
3355.000000	1.641273 
3354.000000	1.643061 
3353.000000	1.644873 
3352.000000	1.646637 
3351.000000	1.648402 
3350.000000	1.650142 
3349.000000	1.651811 
3348.000000	1.653432 
3347.000000	1.654887 
3346.000000	1.656246 
3345.000000	1.657414 
3344.000000	1.658463 
3343.000000	1.659393 
3342.000000	1.660275 
3341.000000	1.661181 
3340.000000	1.662135 
3339.000000	1.663231 
3338.000000	1.664519 
3337.000000	1.665925 
3336.000000	1.667475 
3335.000000	1.669096 
3334.000000	1.670694 
3333.000000	1.672315 
3332.000000	1.673889 
3331.000000	1.675343 
3330.000000	1.676726 
3329.000000	1.678109 
3328.000000	1.679468 
3327.000000	1.680803 
3326.000000	1.682186 
3325.000000	1.683568 
3324.000000	1.684951 
3323.000000	1.686334 
3322.000000	1.687717 
3321.000000	1.689076 
3320.000000	1.690459 
3319.000000	1.691889 
3318.000000	1.693367 
3317.000000	1.694941 
3316.000000	1.696658 
3315.000000	1.698493 
3314.000000	1.700425 
3313.000000	1.702451 
3312.000000	1.704478 
3311.000000	1.706528 
3310.000000	1.708459 
3309.000000	1.710295 
3308.000000	1.711988 
3307.000000	1.713538 
3306.000000	1.715040 
3305.000000	1.716470 
3304.000000	1.717853 
3303.000000	1.719188 
3302.000000	1.720523 
3301.000000	1.721811 
3300.000000	1.723051 
3299.000000	1.724171 
3298.000000	1.725244 
3297.000000	1.726269 
3296.000000	1.727271 
3295.000000	1.728343 
3294.000000	1.729536 
3293.000000	1.730918 
3292.000000	1.732516 
3291.000000	1.734304 
3290.000000	1.736211 
3289.000000	1.738166 
3288.000000	1.740074 
3287.000000	1.741790 
3286.000000	1.743340 
3285.000000	1.744627 
3284.000000	1.745676 
3283.000000	1.746559 
3282.000000	1.747369 
3281.000000	1.748156 
3280.000000	1.748991 
3279.000000	1.749897 
3278.000000	1.750826 
3277.000000	1.751828 
3276.000000	1.752829 
3275.000000	1.753735 
3274.000000	1.754546 
3273.000000	1.755261 
3272.000000	1.755833 
3271.000000	1.756310 
3270.000000	1.756763 
3269.000000	1.757287 
3268.000000	1.757836 
3267.000000	1.758551 
3266.000000	1.759338 
3265.000000	1.760220 
3264.000000	1.761102 
3263.000000	1.761984 
3262.000000	1.762747 
3261.000000	1.763439 
3260.000000	1.764011 
3259.000000	1.764464 
3258.000000	1.764917 
3257.000000	1.765441 
3256.000000	1.766037 
3255.000000	1.766753 
3254.000000	1.767683 
3253.000000	1.768755 
3252.000000	1.769948 
3251.000000	1.771235 
3250.000000	1.772546 
3249.000000	1.773881 
3248.000000	1.775169 
3247.000000	1.776456 
3246.000000	1.777696 
3245.000000	1.778864 
3244.000000	1.779985 
3243.000000	1.781034 
3242.000000	1.781964 
3241.000000	1.782727 
3240.000000	1.783299 
3239.000000	1.783633 
3238.000000	1.783704 
3237.000000	1.783490 
3236.000000	1.783013 
3235.000000	1.782393 
3234.000000	1.781654 
3233.000000	1.780962 
3232.000000	1.780438 
3231.000000	1.780200 
3230.000000	1.780319 
3229.000000	1.780843 
3228.000000	1.781725 
3227.000000	1.782917 
3226.000000	1.784300 
3225.000000	1.785707 
3224.000000	1.787066 
3223.000000	1.788187 
3222.000000	1.789021 
3221.000000	1.789522 
3220.000000	1.789760 
3219.000000	1.789784 
3218.000000	1.789641 
3217.000000	1.789474 
3216.000000	1.789307 
3215.000000	1.789259 
3214.000000	1.789307 
3213.000000	1.789379 
3212.000000	1.789546 
3211.000000	1.789736 
3210.000000	1.789951 
3209.000000	1.790189 
3208.000000	1.790428 
3207.000000	1.790714 
3206.000000	1.791024 
3205.000000	1.791310 
3204.000000	1.791596 
3203.000000	1.791810 
3202.000000	1.791954 
3201.000000	1.792025 
3200.000000	1.792097 
3199.000000	1.792120 
3198.000000	1.792240 
3197.000000	1.792502 
3196.000000	1.792907 
3195.000000	1.793408 
3194.000000	1.794004 
3193.000000	1.794600 
3192.000000	1.795125 
3191.000000	1.795458 
3190.000000	1.795601 
3189.000000	1.795554 
3188.000000	1.795339 
3187.000000	1.795029 
3186.000000	1.794695 
3185.000000	1.794385 
3184.000000	1.794123 
3183.000000	1.793932 
3182.000000	1.793789 
3181.000000	1.793646 
3180.000000	1.793575 
3179.000000	1.793479 
3178.000000	1.793432 
3177.000000	1.793408 
3176.000000	1.793408 
3175.000000	1.793456 
3174.000000	1.793551 
3173.000000	1.793766 
3172.000000	1.794052 
3171.000000	1.794505 
3170.000000	1.795077 
3169.000000	1.795840 
3168.000000	1.796746 
3167.000000	1.797819 
3166.000000	1.799011 
3165.000000	1.800227 
3164.000000	1.801443 
3163.000000	1.802563 
3162.000000	1.803517 
3161.000000	1.804304 
3160.000000	1.804876 
3159.000000	1.805305 
3158.000000	1.805591 
3157.000000	1.805806 
3156.000000	1.806092 
3155.000000	1.806497 
3154.000000	1.807022 
3153.000000	1.807761 
3152.000000	1.808714 
3151.000000	1.809835 
3150.000000	1.811122 
3149.000000	1.812529 
3148.000000	1.814055 
3147.000000	1.815652 
3146.000000	1.817321 
3145.000000	1.819038 
3144.000000	1.820755 
3143.000000	1.822423 
3142.000000	1.823925 
3141.000000	1.825237 
3140.000000	1.826190 
3139.000000	1.826834 
3138.000000	1.827120 
3137.000000	1.827096 
3136.000000	1.826953 
3135.000000	1.826763 
3134.000000	1.826763 
3133.000000	1.827073 
3132.000000	1.827812 
3131.000000	1.829075 
3130.000000	1.830816 
3129.000000	1.832962 
3128.000000	1.835465 
3127.000000	1.838088 
3126.000000	1.840758 
3125.000000	1.843333 
3124.000000	1.845622 
3123.000000	1.847696 
3122.000000	1.849436 
3121.000000	1.850867 
3120.000000	1.852035 
3119.000000	1.852965 
3118.000000	1.853728 
3117.000000	1.854419 
3116.000000	1.855111 
3115.000000	1.855826 
3114.000000	1.856684 
3113.000000	1.857686 
3112.000000	1.858782 
3111.000000	1.859951 
3110.000000	1.861166 
3109.000000	1.862335 
3108.000000	1.863503 
3107.000000	1.864624 
3106.000000	1.865744 
3105.000000	1.866912 
3104.000000	1.868200 
3103.000000	1.869654 
3102.000000	1.871299 
3101.000000	1.873111 
3100.000000	1.875066 
3099.000000	1.877140 
3098.000000	1.879239 
3097.000000	1.881265 
3096.000000	1.883172 
3095.000000	1.884937 
3094.000000	1.886582 
3093.000000	1.888132 
3092.000000	1.889610 
3091.000000	1.891112 
3090.000000	1.892757 
3089.000000	1.894569 
3088.000000	1.896643 
3087.000000	1.898980 
3086.000000	1.901531 
3085.000000	1.904225 
3084.000000	1.907014 
3083.000000	1.909732 
3082.000000	1.912331 
3081.000000	1.914691 
3080.000000	1.916790 
3079.000000	1.918578 
3078.000000	1.920104 
3077.000000	1.921391 
3076.000000	1.922559 
3075.000000	1.923584 
3074.000000	1.924586 
3073.000000	1.925563 
3072.000000	1.926589 
3071.000000	1.927638 
3070.000000	1.928710 
3069.000000	1.929783 
3068.000000	1.930928 
3067.000000	1.932072 
3066.000000	1.933264 
3065.000000	1.934528 
3064.000000	1.935839 
3063.000000	1.937246 
3062.000000	1.938724 
3061.000000	1.940321 
3060.000000	1.941967 
3059.000000	1.943635 
3058.000000	1.945352 
3057.000000	1.947045 
3056.000000	1.948714 
3055.000000	1.950359 
3054.000000	1.952004 
3053.000000	1.953673 
3052.000000	1.955318 
3051.000000	1.957082 
3050.000000	1.958847 
3049.000000	1.960730 
3048.000000	1.962661 
3047.000000	1.964592 
3046.000000	1.966500 
3045.000000	1.968407 
3044.000000	1.970195 
3043.000000	1.971817 
3042.000000	1.973223 
3041.000000	1.974415 
3040.000000	1.975393 
3039.000000	1.976132 
3038.000000	1.976680 
3037.000000	1.977133 
3036.000000	1.977491 
3035.000000	1.977825 
3034.000000	1.978087 
3033.000000	1.978254 
3032.000000	1.978230 
3031.000000	1.977896 
3030.000000	1.977205 
3029.000000	1.976084 
3028.000000	1.974511 
3027.000000	1.972484 
3026.000000	1.970124 
3025.000000	1.967525 
3024.000000	1.964926 
3023.000000	1.962471 
3022.000000	1.960372 
3021.000000	1.958847 
3020.000000	1.957988 
3019.000000	1.958036 
3018.000000	1.958966 
3017.000000	1.960873 
3016.000000	1.963734 
3015.000000	1.967430 
3014.000000	1.971817 
3013.000000	1.976728 
3012.000000	1.981997 
3011.000000	1.987409 
3010.000000	1.992797 
3009.000000	1.998019 
3008.000000	2.002954 
3007.000000	2.007579 
3006.000000	2.011704 
3005.000000	2.015352 
3004.000000	2.018475 
3003.000000	2.021074 
3002.000000	2.023053 
3001.000000	2.024579 
3000.000000	2.025651 
2999.000000	2.026367 
2998.000000	2.026796 
2997.000000	2.027106 
2996.000000	2.027344 
2995.000000	2.027606 
2994.000000	2.027964 
2993.000000	2.028369 
2992.000000	2.028822 
2991.000000	2.029228 
2990.000000	2.029514 
2989.000000	2.029585 
2988.000000	2.029395 
2987.000000	2.028870 
2986.000000	2.027988 
2985.000000	2.026772 
2984.000000	2.025198 
2983.000000	2.023363 
2982.000000	2.021288 
2981.000000	2.018976 
2980.000000	2.016472 
2979.000000	2.013778 
2978.000000	2.010750 
2977.000000	2.007436 
2976.000000	2.003717 
2975.000000	1.999449 
2974.000000	1.994657 
2973.000000	1.989293 
2972.000000	1.983404 
2971.000000	1.977014 
2970.000000	1.970338 
2969.000000	1.963567 
2968.000000	1.956892 
2967.000000	1.950478 
2966.000000	1.944518 
2965.000000	1.939225 
2964.000000	1.934623 
2963.000000	1.930785 
2962.000000	1.927638 
2961.000000	1.925206 
2960.000000	1.923370 
2959.000000	1.922035 
2958.000000	1.921153 
2957.000000	1.920557 
2956.000000	1.920104 
2955.000000	1.919698 
2954.000000	1.919150 
2953.000000	1.918315 
2952.000000	1.917099 
2951.000000	1.915359 
2950.000000	1.912951 
2949.000000	1.909828 
2948.000000	1.905965 
2947.000000	1.901292 
2946.000000	1.895737 
2945.000000	1.889324 
2944.000000	1.882243 
2943.000000	1.874446 
2942.000000	1.866054 
2941.000000	1.857328 
2940.000000	1.848411 
2939.000000	1.839423 
2938.000000	1.830577 
2937.000000	1.821994 
2936.000000	1.813864 
2935.000000	1.806116 
2934.000000	1.798820 
2933.000000	1.791977 
2932.000000	1.785635 
2931.000000	1.779794 
2930.000000	1.774573 
2929.000000	1.770162 
2928.000000	1.766824 
2927.000000	1.764798 
2926.000000	1.764369 
2925.000000	1.765799 
2924.000000	1.769232 
2923.000000	1.774740 
2922.000000	1.782226 
2921.000000	1.791548 
2920.000000	1.802349 
2919.000000	1.814174 
2918.000000	1.826691 
2917.000000	1.839351 
2916.000000	1.851820 
2915.000000	1.863694 
2914.000000	1.874804 
2913.000000	1.885008 
2912.000000	1.894283 
2911.000000	1.902604 
2910.000000	1.910114 
2909.000000	1.916933 
2908.000000	1.923179 
2907.000000	1.928901 
2906.000000	1.934218 
2905.000000	1.939225 
2904.000000	1.943969 
2903.000000	1.948404 
2902.000000	1.952695 
2901.000000	1.956796 
2900.000000	1.960778 
2899.000000	1.964592 
2898.000000	1.968264 
2897.000000	1.971817 
2896.000000	1.975178 
2895.000000	1.978397 
2894.000000	1.981353 
2893.000000	1.984047 
2892.000000	1.986575 
2891.000000	1.988863 
2890.000000	1.990962 
2889.000000	1.992964 
2888.000000	1.994919 
2887.000000	1.996779 
2886.000000	1.998639 
2885.000000	2.000403 
2884.000000	2.002048 
2883.000000	2.003526 
2882.000000	2.004742 
2881.000000	2.005577 
2880.000000	2.005934 
2879.000000	2.005791 
2878.000000	2.004957 
2877.000000	2.003359 
2876.000000	2.000975 
2875.000000	1.997733 
2874.000000	1.993608 
2873.000000	1.988554 
2872.000000	1.982593 
2871.000000	1.975774 
2870.000000	1.968097 
2869.000000	1.959753 
2868.000000	1.950955 
2867.000000	1.941967 
2866.000000	1.933217 
2865.000000	1.925110 
2864.000000	1.918029 
2863.000000	1.912498 
2862.000000	1.908779 
2861.000000	1.907157 
2860.000000	1.907682 
2859.000000	1.910376 
2858.000000	1.914954 
2857.000000	1.921200 
2856.000000	1.928758 
2855.000000	1.937365 
2854.000000	1.946568 
2853.000000	1.956200 
2852.000000	1.966071 
2851.000000	1.975989 
2850.000000	1.985883 
2849.000000	1.995635 
2848.000000	2.005195 
2847.000000	2.014541 
2846.000000	2.023601 
2845.000000	2.032303 
2844.000000	2.040553 
2843.000000	2.048397 
2842.000000	2.055788 
2841.000000	2.062654 
2840.000000	2.069115 
2839.000000	2.075123 
2838.000000	2.080702 
2837.000000	2.085852 
2836.000000	2.090668 
2835.000000	2.095198 
2834.000000	2.099394 
2833.000000	2.103328 
2832.000000	2.107095 
2831.000000	2.110648 
2830.000000	2.114057 
2829.000000	2.117323 
2828.000000	2.120447 
2827.000000	2.123427 
2826.000000	2.126216 
2825.000000	2.128839 
2824.000000	2.131247 
2823.000000	2.133464 
2822.000000	2.135562 
2821.000000	2.137613 
2820.000000	2.139639 
2819.000000	2.141690 
2818.000000	2.143859 
2817.000000	2.146196 
2816.000000	2.148699 
2815.000000	2.151298 
2814.000000	2.153944 
2813.000000	2.156591 
2812.000000	2.159118 
2811.000000	2.161502 
2810.000000	2.163696 
2809.000000	2.165675 
2808.000000	2.167463 
2807.000000	2.169156 
2806.000000	2.170777 
2805.000000	2.172350 
2804.000000	2.174067 
2803.000000	2.175807 
2802.000000	2.177643 
2801.000000	2.179551 
2800.000000	2.181553 
2799.000000	2.183556 
2798.000000	2.185535 
2797.000000	2.187514 
2796.000000	2.189397 
2795.000000	2.191209 
2794.000000	2.192950 
2793.000000	2.194643 
2792.000000	2.196335 
2791.000000	2.198052 
2790.000000	2.199792 
2789.000000	2.201628 
2788.000000	2.203536 
2787.000000	2.205562 
2786.000000	2.207636 
2785.000000	2.209758 
2784.000000	2.211904 
2783.000000	2.213978 
2782.000000	2.215957 
2781.000000	2.217817 
2780.000000	2.219581 
2779.000000	2.221179 
2778.000000	2.222633 
2777.000000	2.224016 
2776.000000	2.225327 
2775.000000	2.226591 
2774.000000	2.227854 
2773.000000	2.229094 
2772.000000	2.230381 
2771.000000	2.231693 
2770.000000	2.232980 
2769.000000	2.234196 
2768.000000	2.235364 
2767.000000	2.236485 
2766.000000	2.237582 
2765.000000	2.238631 
2764.000000	2.239704 
2763.000000	2.240777 
2762.000000	2.241992 
2761.000000	2.243208 
2760.000000	2.244544 
2759.000000	2.245855 
2758.000000	2.247118 
2757.000000	2.248263 
2756.000000	2.249288 
2755.000000	2.250123 
2754.000000	2.250719 
2753.000000	2.251124 
2752.000000	2.251410 
2751.000000	2.251553 
2750.000000	2.251672 
2749.000000	2.251791 
2748.000000	2.251935 
2747.000000	2.252125 
2746.000000	2.252388 
2745.000000	2.252697 
2744.000000	2.253103 
2743.000000	2.253532 
2742.000000	2.253937 
2741.000000	2.254366 
2740.000000	2.254748 
2739.000000	2.255105 
2738.000000	2.255415 
2737.000000	2.255678 
2736.000000	2.255892 
2735.000000	2.256059 
2734.000000	2.256178 
2733.000000	2.256298 
2732.000000	2.256417 
2731.000000	2.256512 
2730.000000	2.256584 
2729.000000	2.256608 
2728.000000	2.256631 
2727.000000	2.256560 
2726.000000	2.256488 
2725.000000	2.256369 
2724.000000	2.256250 
2723.000000	2.256202 
2722.000000	2.256178 
2721.000000	2.256250 
2720.000000	2.256345 
2719.000000	2.256417 
2718.000000	2.256464 
2717.000000	2.256369 
2716.000000	2.256131 
2715.000000	2.255678 
2714.000000	2.255034 
2713.000000	2.254247 
2712.000000	2.253317 
2711.000000	2.252340 
2710.000000	2.251362 
2709.000000	2.250361 
2708.000000	2.249479 
2707.000000	2.248668 
2706.000000	2.248001 
2705.000000	2.247381 
2704.000000	2.246856 
2703.000000	2.246427 
2702.000000	2.246093 
2701.000000	2.245831 
2700.000000	2.245640 
2699.000000	2.245450 
2698.000000	2.245306 
2697.000000	2.245163 
2696.000000	2.245020 
2695.000000	2.244830 
2694.000000	2.244663 
2693.000000	2.244472 
2692.000000	2.244257 
2691.000000	2.243971 
2690.000000	2.243638 
2689.000000	2.243208 
2688.000000	2.242708 
2687.000000	2.242040 
2686.000000	2.241230 
2685.000000	2.240347 
2684.000000	2.239370 
2683.000000	2.238368 
2682.000000	2.237391 
2681.000000	2.236437 
2680.000000	2.235531 
2679.000000	2.234673 
2678.000000	2.233862 
2677.000000	2.233052 
2676.000000	2.232217 
2675.000000	2.231359 
2674.000000	2.230453 
2673.000000	2.229523 
2672.000000	2.228593 
2671.000000	2.227711 
2670.000000	2.226877 
2669.000000	2.226066 
2668.000000	2.225351 
2667.000000	2.224683 
2666.000000	2.223968 
2665.000000	2.223253 
2664.000000	2.222466 
2663.000000	2.221584 
2662.000000	2.220726 
2661.000000	2.219891 
2660.000000	2.219128 
2659.000000	2.218484 
2658.000000	2.217960 
2657.000000	2.217555 
2656.000000	2.217245 
2655.000000	2.217030 
2654.000000	2.216839 
2653.000000	2.216649 
2652.000000	2.216482 
2651.000000	2.216339 
2650.000000	2.216196 
2649.000000	2.216053 
2648.000000	2.215981 
2647.000000	2.215957 
2646.000000	2.215957 
2645.000000	2.215957 
2644.000000	2.215933 
2643.000000	2.215838 
2642.000000	2.215719 
2641.000000	2.215528 
2640.000000	2.215361 
2639.000000	2.215194 
2638.000000	2.215099 
2637.000000	2.215075 
2636.000000	2.215170 
2635.000000	2.215385 
2634.000000	2.215671 
2633.000000	2.216029 
2632.000000	2.216386 
2631.000000	2.216720 
2630.000000	2.217006 
2629.000000	2.217221 
2628.000000	2.217340 
2627.000000	2.217316 
2626.000000	2.217221 
2625.000000	2.217125 
2624.000000	2.217006 
2623.000000	2.216958 
2622.000000	2.217006 
2621.000000	2.217149 
2620.000000	2.217364 
2619.000000	2.217602 
2618.000000	2.217888 
2617.000000	2.218103 
2616.000000	2.218198 
2615.000000	2.218222 
2614.000000	2.218151 
2613.000000	2.218031 
2612.000000	2.217936 
2611.000000	2.217960 
2610.000000	2.218127 
2609.000000	2.218484 
2608.000000	2.219080 
2607.000000	2.219843 
2606.000000	2.220678 
2605.000000	2.221560 
2604.000000	2.222418 
2603.000000	2.223229 
2602.000000	2.223873 
2601.000000	2.224373 
2600.000000	2.224779 
2599.000000	2.225065 
2598.000000	2.225279 
2597.000000	2.225542 
2596.000000	2.225828 
2595.000000	2.226209 
2594.000000	2.226758 
2593.000000	2.227473 
2592.000000	2.228426 
2591.000000	2.229547 
2590.000000	2.230811 
2589.000000	2.232193 
2588.000000	2.233624 
2587.000000	2.235054 
2586.000000	2.236485 
2585.000000	2.237892 
2584.000000	2.239322 
2583.000000	2.240800 
2582.000000	2.242350 
2581.000000	2.243971 
2580.000000	2.245664 
2579.000000	2.247452 
2578.000000	2.249288 
2577.000000	2.251124 
2576.000000	2.252936 
2575.000000	2.254676 
2574.000000	2.256345 
2573.000000	2.257943 
2572.000000	2.259397 
2571.000000	2.260804 
2570.000000	2.262163 
2569.000000	2.263498 
2568.000000	2.264833 
2567.000000	2.266144 
2566.000000	2.267456 
2565.000000	2.268719 
2564.000000	2.269935 
2563.000000	2.271032 
2562.000000	2.272057 
2561.000000	2.273011 
2560.000000	2.273893 
2559.000000	2.274751 
2558.000000	2.275586 
2557.000000	2.276396 
2556.000000	2.277255 
2555.000000	2.278137 
2554.000000	2.279114 
2553.000000	2.280163 
2552.000000	2.281332 
2551.000000	2.282571 
2550.000000	2.283930 
2549.000000	2.285408 
2548.000000	2.286911 
2547.000000	2.288436 
2546.000000	2.289938 
2545.000000	2.291369 
2544.000000	2.292799 
2543.000000	2.294158 
2542.000000	2.295494 
2541.000000	2.296876 
2540.000000	2.298235 
2539.000000	2.299690 
2538.000000	2.301216 
2537.000000	2.302765 
2536.000000	2.304387 
2535.000000	2.306008 
2534.000000	2.307605 
2533.000000	2.309179 
2532.000000	2.310657 
2531.000000	2.312064 
2530.000000	2.313423 
2529.000000	2.314662 
2528.000000	2.315807 
2527.000000	2.316761 
2526.000000	2.317547 
2525.000000	2.318120 
2524.000000	2.318477 
2523.000000	2.318596 
2522.000000	2.318572 
2521.000000	2.318429 
2520.000000	2.318263 
2519.000000	2.318120 
2518.000000	2.318120 
2517.000000	2.318263 
2516.000000	2.318549 
2515.000000	2.318930 
2514.000000	2.319431 
2513.000000	2.319931 
2512.000000	2.320432 
2511.000000	2.320909 
2510.000000	2.321386 
2509.000000	2.321839 
2508.000000	2.322411 
2507.000000	2.323055 
2506.000000	2.323842 
2505.000000	2.324795 
2504.000000	2.325844 
2503.000000	2.326989 
2502.000000	2.328133 
2501.000000	2.329182 
2500.000000	2.330064 
2499.000000	2.330732 
2498.000000	2.331161 
2497.000000	2.331423 
2496.000000	2.331471 
2495.000000	2.331376 
2494.000000	2.331233 
2493.000000	2.331042 
2492.000000	2.330780 
2491.000000	2.330470 
2490.000000	2.330088 
2489.000000	2.329516 
2488.000000	2.328872 
2487.000000	2.328062 
2486.000000	2.327132 
2485.000000	2.326130 
2484.000000	2.325129 
2483.000000	2.324175 
2482.000000	2.323341 
2481.000000	2.322649 
2480.000000	2.322053 
2479.000000	2.321577 
2478.000000	2.321243 
2477.000000	2.320957 
2476.000000	2.320718 
2475.000000	2.320456 
2474.000000	2.320194 
2473.000000	2.319860 
2472.000000	2.319478 
2471.000000	2.319025 
2470.000000	2.318477 
2469.000000	2.317833 
2468.000000	2.317070 
2467.000000	2.316188 
2466.000000	2.315187 
2465.000000	2.314066 
2464.000000	2.312803 
2463.000000	2.311515 
2462.000000	2.310204 
2461.000000	2.308917 
2460.000000	2.307748 
2459.000000	2.306675 
2458.000000	2.305746 
2457.000000	2.304863 
2456.000000	2.304029 
2455.000000	2.303171 
2454.000000	2.302217 
2453.000000	2.301120 
2452.000000	2.299904 
2451.000000	2.298569 
2450.000000	2.297186 
2449.000000	2.295756 
2448.000000	2.294373 
2447.000000	2.293086 
2446.000000	2.291846 
2445.000000	2.290725 
2444.000000	2.289676 
2443.000000	2.288722 
2442.000000	2.287817 
2441.000000	2.286934 
2440.000000	2.286124 
2439.000000	2.285313 
2438.000000	2.284455 
2437.000000	2.283501 
2436.000000	2.282500 
2435.000000	2.281308 
2434.000000	2.279877 
2433.000000	2.278304 
2432.000000	2.276563 
2431.000000	2.274775 
2430.000000	2.272868 
2429.000000	2.270984 
2428.000000	2.269172 
2427.000000	2.267432 
2426.000000	2.265882 
2425.000000	2.264523 
2424.000000	2.263450 
2423.000000	2.262687 
2422.000000	2.262282 
2421.000000	2.262234 
2420.000000	2.262568 
2419.000000	2.263116 
2418.000000	2.263832 
2417.000000	2.264523 
2416.000000	2.265024 
2415.000000	2.265262 
2414.000000	2.265167 
2413.000000	2.264666 
2412.000000	2.263832 
2411.000000	2.262663 
2410.000000	2.261304 
2409.000000	2.259778 
2408.000000	2.258205 
2407.000000	2.256608 
2406.000000	2.255010 
2405.000000	2.253580 
2404.000000	2.252292 
2403.000000	2.251219 
2402.000000	2.250385 
2401.000000	2.249717 
2400.000000	2.249264 
2399.000000	2.249002 
2398.000000	2.248811 
2397.000000	2.248692 
2396.000000	2.248597 
2395.000000	2.248501 
2394.000000	2.248430 
2393.000000	2.248430 
2392.000000	2.248430 
2391.000000	2.248501 
2390.000000	2.248573 
2389.000000	2.248620 
2388.000000	2.248620 
2387.000000	2.248525 
2386.000000	2.248287 
2385.000000	2.247881 
2384.000000	2.247357 
2383.000000	2.246737 
2382.000000	2.246069 
2381.000000	2.245354 
2380.000000	2.244687 
2379.000000	2.244043 
2378.000000	2.243447 
2377.000000	2.242875 
2376.000000	2.242326 
2375.000000	2.241730 
2374.000000	2.241063 
2373.000000	2.240300 
2372.000000	2.239441 
2371.000000	2.238488 
2370.000000	2.237558 
2369.000000	2.236628 
2368.000000	2.235722 
2367.000000	2.234959 
2366.000000	2.234363 
2365.000000	2.233982 
2364.000000	2.233815 
2363.000000	2.233934 
2362.000000	2.234363 
2361.000000	2.235150 
2360.000000	2.236294 
2359.000000	2.237820 
2358.000000	2.239680 
2357.000000	2.241897 
2356.000000	2.244329 
2355.000000	2.246952 
2354.000000	2.249622 
2353.000000	2.252268 
2352.000000	2.254748 
2351.000000	2.256989 
2350.000000	2.258944 
2349.000000	2.260565 
2348.000000	2.261829 
2347.000000	2.262783 
2346.000000	2.263426 
2345.000000	2.263903 
2344.000000	2.264237 
2343.000000	2.264595 
2342.000000	2.265048 
2341.000000	2.265620 
2340.000000	2.266383 
2339.000000	2.267313 
2338.000000	2.268433 
2337.000000	2.269697 
2336.000000	2.271056 
2335.000000	2.272462 
2334.000000	2.273893 
2333.000000	2.275371 
2332.000000	2.276921 
2331.000000	2.278566 
2330.000000	2.280378 
2329.000000	2.282333 
2328.000000	2.284431 
2327.000000	2.286696 
2326.000000	2.289056 
2325.000000	2.291536 
2324.000000	2.294087 
2323.000000	2.296710 
2322.000000	2.299356 
2321.000000	2.302002 
2320.000000	2.304649 
2319.000000	2.307224 
2318.000000	2.309703 
2317.000000	2.312040 
2316.000000	2.314209 
2315.000000	2.316188 
2314.000000	2.317976 
2313.000000	2.319550 
2312.000000	2.321004 
2311.000000	2.322340 
2310.000000	2.323555 
2309.000000	2.324676 
2308.000000	2.325797 
2307.000000	2.326893 
2306.000000	2.328038 
2305.000000	2.329206 
2304.000000	2.330470 
2303.000000	2.331852 
2302.000000	2.333354 
2301.000000	2.334928 
2300.000000	2.336597 
2299.000000	2.338290 
2298.000000	2.340006 
2297.000000	2.341699 
2296.000000	2.343297 
2295.000000	2.344846 
2294.000000	2.346324 
2293.000000	2.347755 
2292.000000	2.349090 
2291.000000	2.350425 
2290.000000	2.351713 
2289.000000	2.352976 
2288.000000	2.354240 
2287.000000	2.355527 
2286.000000	2.356863 
2285.000000	2.358293 
2284.000000	2.359771 
2283.000000	2.361273 
2282.000000	2.362847 
2281.000000	2.364397 
2280.000000	2.365803 
2279.000000	2.367067 
2278.000000	2.368116 
2277.000000	2.368974 
2276.000000	2.369642 
2275.000000	2.370166 
2274.000000	2.370572 
2273.000000	2.370977 
2272.000000	2.371406 
2271.000000	2.371907 
2270.000000	2.372527 
2269.000000	2.373194 
2268.000000	2.373933 
2267.000000	2.374696 
2266.000000	2.375459 
2265.000000	2.376198 
2264.000000	2.376890 
2263.000000	2.377462 
2262.000000	2.377986 
2261.000000	2.378368 
2260.000000	2.378654 
2259.000000	2.378773 
2258.000000	2.378726 
2257.000000	2.378559 
2256.000000	2.378320 
2255.000000	2.377986 
2254.000000	2.377629 
2253.000000	2.377295 
2252.000000	2.377009 
2251.000000	2.376842 
2250.000000	2.376794 
2249.000000	2.376866 
2248.000000	2.377104 
2247.000000	2.377486 
2246.000000	2.377963 
2245.000000	2.378535 
2244.000000	2.379179 
2243.000000	2.379822 
2242.000000	2.380394 
2241.000000	2.380871 
2240.000000	2.381157 
2239.000000	2.381229 
2238.000000	2.381134 
2237.000000	2.380824 
2236.000000	2.380394 
2235.000000	2.379822 
2234.000000	2.379179 
2233.000000	2.378535 
2232.000000	2.377915 
2231.000000	2.377390 
2230.000000	2.376937 
2229.000000	2.376604 
2228.000000	2.376437 
2227.000000	2.376389 
2226.000000	2.376461 
2225.000000	2.376556 
2224.000000	2.376627 
2223.000000	2.376580 
2222.000000	2.376365 
2221.000000	2.375960 
2220.000000	2.375364 
2219.000000	2.374529 
2218.000000	2.373600 
2217.000000	2.372646 
2216.000000	2.371716 
2215.000000	2.370905 
2214.000000	2.370214 
2213.000000	2.369689 
2212.000000	2.369284 
2211.000000	2.368974 
2210.000000	2.368688 
2209.000000	2.368378 
2208.000000	2.368021 
2207.000000	2.367544 
2206.000000	2.366971 
2205.000000	2.366328 
2204.000000	2.365612 
2203.000000	2.364850 
2202.000000	2.364015 
2201.000000	2.363204 
2200.000000	2.362370 
2199.000000	2.361488 
2198.000000	2.360558 
2197.000000	2.359580 
2196.000000	2.358508 
2195.000000	2.357363 
2194.000000	2.356195 
2193.000000	2.354979 
2192.000000	2.353787 
2191.000000	2.352666 
2190.000000	2.351617 
2189.000000	2.350711 
2188.000000	2.349925 
2187.000000	2.349209 
2186.000000	2.348566 
2185.000000	2.347970 
2184.000000	2.347373 
2183.000000	2.346730 
2182.000000	2.346062 
2181.000000	2.345347 
2180.000000	2.344632 
2179.000000	2.343893 
2178.000000	2.343225 
2177.000000	2.342605 
2176.000000	2.342033 
2175.000000	2.341508 
2174.000000	2.341055 
2173.000000	2.340626 
2172.000000	2.340221 
2171.000000	2.339792 
2170.000000	2.339363 
2169.000000	2.338910 
2168.000000	2.338385 
2167.000000	2.337741 
2166.000000	2.337026 
2165.000000	2.336096 
2164.000000	2.335119 
2163.000000	2.334070 
2162.000000	2.333068 
2161.000000	2.332186 
2160.000000	2.331495 
2159.000000	2.331089 
2158.000000	2.330970 
2157.000000	2.331137 
2156.000000	2.331495 
2155.000000	2.331948 
2154.000000	2.332329 
2153.000000	2.332592 
2152.000000	2.332735 
2151.000000	2.332735 
2150.000000	2.332639 
2149.000000	2.332592 
2148.000000	2.332615 
2147.000000	2.332854 
2146.000000	2.333235 
2145.000000	2.333784 
2144.000000	2.334308 
2143.000000	2.334785 
2142.000000	2.335095 
2141.000000	2.335166 
2140.000000	2.335047 
2139.000000	2.334737 
2138.000000	2.334332 
2137.000000	2.333927 
2136.000000	2.333593 
2135.000000	2.333378 
2134.000000	2.333331 
2133.000000	2.333402 
2132.000000	2.333569 
2131.000000	2.333807 
2130.000000	2.334094 
2129.000000	2.334380 
2128.000000	2.334642 
2127.000000	2.334952 
2126.000000	2.335262 
2125.000000	2.335548 
2124.000000	2.335834 
2123.000000	2.336120 
2122.000000	2.336406 
2121.000000	2.336668 
2120.000000	2.336859 
2119.000000	2.337050 
2118.000000	2.337288 
2117.000000	2.337527 
2116.000000	2.337884 
2115.000000	2.338314 
2114.000000	2.338838 
2113.000000	2.339339 
2112.000000	2.339863 
2111.000000	2.340292 
2110.000000	2.340602 
2109.000000	2.340745 
2108.000000	2.340698 
2107.000000	2.340507 
2106.000000	2.340149 
2105.000000	2.339744 
2104.000000	2.339315 
2103.000000	2.338933 
2102.000000	2.338624 
2101.000000	2.338409 
2100.000000	2.338314 
2099.000000	2.338314 
2098.000000	2.338337 
2097.000000	2.338409 
2096.000000	2.338528 
2095.000000	2.338600 
2094.000000	2.338671 
2093.000000	2.338743 
2092.000000	2.338814 
2091.000000	2.338933 
2090.000000	2.339076 
2089.000000	2.339363 
2088.000000	2.339792 
2087.000000	2.340316 
2086.000000	2.341032 
2085.000000	2.341842 
2084.000000	2.342796 
2083.000000	2.343821 
2082.000000	2.344942 
2081.000000	2.346086 
2080.000000	2.347326 
2079.000000	2.348661 
2078.000000	2.350068 
2077.000000	2.351641 
2076.000000	2.353334 
2075.000000	2.355170 
2074.000000	2.357125 
2073.000000	2.359199 
2072.000000	2.361392 
2071.000000	2.363681 
2070.000000	2.366018 
2069.000000	2.368450 
2068.000000	2.370905 
2067.000000	2.373361 
2066.000000	2.375769 
2065.000000	2.378082 
2064.000000	2.380251 
2063.000000	2.382230 
2062.000000	2.384042 
2061.000000	2.385711 
2060.000000	2.387285 
2059.000000	2.388811 
2058.000000	2.390408 
2057.000000	2.392148 
2056.000000	2.394008 
2055.000000	2.395987 
2054.000000	2.398085 
2053.000000	2.400255 
2052.000000	2.402472 
2051.000000	2.404665 
2050.000000	2.406883 
2049.000000	2.409076 
2048.000000	2.411198 
2047.000000	2.413272 
2046.000000	2.415323 
2045.000000	2.417349 
2044.000000	2.419257 
2043.000000	2.421116 
2042.000000	2.422857 
2041.000000	2.424478 
2040.000000	2.425956 
2039.000000	2.427339 
2038.000000	2.428627 
2037.000000	2.429747 
2036.000000	2.430772 
2035.000000	2.431726 
2034.000000	2.432632 
2033.000000	2.433538 
2032.000000	2.434444 
2031.000000	2.435398 
2030.000000	2.436399 
2029.000000	2.437496 
2028.000000	2.438640 
2027.000000	2.439904 
2026.000000	2.441191 
2025.000000	2.442455 
2024.000000	2.443766 
2023.000000	2.445125 
2022.000000	2.446508 
2021.000000	2.447962 
2020.000000	2.449417 
2019.000000	2.450823 
2018.000000	2.452158 
2017.000000	2.453327 
2016.000000	2.454280 
2015.000000	2.454972 
2014.000000	2.455425 
2013.000000	2.455663 
2012.000000	2.455735 
2011.000000	2.455735 
2010.000000	2.455735 
2009.000000	2.455806 
2008.000000	2.455949 
2007.000000	2.456188 
2006.000000	2.456450 
2005.000000	2.456831 
2004.000000	2.457213 
2003.000000	2.457642 
2002.000000	2.458167 
2001.000000	2.458691 
2000.000000	2.459287 
1999.000000	2.459859 
1998.000000	2.460360 
1997.000000	2.460670 
1996.000000	2.460765 
1995.000000	2.460551 
1994.000000	2.460122 
1993.000000	2.459430 
1992.000000	2.458548 
1991.000000	2.457571 
1990.000000	2.456617 
1989.000000	2.455735 
1988.000000	2.454900 
1987.000000	2.454161 
1986.000000	2.453517 
1985.000000	2.452898 
1984.000000	2.452254 
1983.000000	2.451586 
1982.000000	2.450871 
1981.000000	2.450156 
1980.000000	2.449393 
1979.000000	2.448558 
1978.000000	2.447676 
1977.000000	2.446722 
1976.000000	2.445673 
1975.000000	2.444601 
1974.000000	2.443480 
1973.000000	2.442431 
1972.000000	2.441501 
1971.000000	2.440714 
1970.000000	2.440166 
1969.000000	2.439808 
1968.000000	2.439618 
1967.000000	2.439618 
1966.000000	2.439618 
1965.000000	2.439546 
1964.000000	2.439379 
1963.000000	2.439069 
1962.000000	2.438569 
1961.000000	2.437877 
1960.000000	2.437019 
1959.000000	2.436041 
1958.000000	2.434921 
1957.000000	2.433705 
1956.000000	2.432441 
1955.000000	2.431154 
1954.000000	2.429866 
1953.000000	2.428579 
1952.000000	2.427315 
1951.000000	2.426099 
1950.000000	2.424931 
1949.000000	2.423787 
1948.000000	2.422690 
1947.000000	2.421665 
1946.000000	2.420711 
1945.000000	2.419853 
1944.000000	2.419042 
1943.000000	2.418351 
1942.000000	2.417731 
1941.000000	2.417182 
1940.000000	2.416610 
1939.000000	2.415966 
1938.000000	2.415227 
1937.000000	2.414345 
1936.000000	2.413320 
1935.000000	2.412223 
1934.000000	2.411055 
1933.000000	2.409887 
1932.000000	2.408790 
1931.000000	2.407789 
1930.000000	2.406907 
1929.000000	2.406096 
1928.000000	2.405261 
1927.000000	2.404427 
1926.000000	2.403497 
1925.000000	2.402377 
1924.000000	2.401137 
1923.000000	2.399682 
1922.000000	2.398180 
1921.000000	2.396678 
1920.000000	2.395224 
1919.000000	2.393841 
1918.000000	2.392625 
1917.000000	2.391576 
1916.000000	2.390575 
1915.000000	2.389717 
1914.000000	2.388858 
1913.000000	2.388048 
1912.000000	2.387189 
1911.000000	2.386331 
1910.000000	2.385497 
1909.000000	2.384662 
1908.000000	2.383852 
1907.000000	2.383065 
1906.000000	2.382278 
1905.000000	2.381467 
1904.000000	2.380561 
1903.000000	2.379560 
1902.000000	2.378511 
1901.000000	2.377390 
1900.000000	2.376222 
1899.000000	2.375054 
1898.000000	2.373886 
1897.000000	2.372765 
1896.000000	2.371740 
1895.000000	2.370786 
1894.000000	2.370023 
1893.000000	2.369475 
1892.000000	2.369165 
1891.000000	2.369141 
1890.000000	2.369475 
1889.000000	2.370047 
1888.000000	2.370882 
1887.000000	2.371811 
1886.000000	2.372765 
1885.000000	2.373623 
1884.000000	2.374267 
1883.000000	2.374768 
1882.000000	2.375030 
1881.000000	2.375221 
1880.000000	2.375340 
1879.000000	2.375483 
1878.000000	2.375721 
1877.000000	2.376031 
1876.000000	2.376461 
1875.000000	2.376937 
1874.000000	2.377414 
1873.000000	2.377915 
1872.000000	2.378416 
1871.000000	2.378916 
1870.000000	2.379488 
1869.000000	2.380156 
1868.000000	2.380919 
1867.000000	2.381849 
1866.000000	2.382850 
1865.000000	2.383971 
1864.000000	2.385115 
1863.000000	2.386260 
1862.000000	2.387404 
1861.000000	2.388548 
1860.000000	2.389645 
1859.000000	2.390789 
1858.000000	2.391934 
1857.000000	2.393007 
1856.000000	2.394080 
1855.000000	2.395033 
1854.000000	2.395796 
1853.000000	2.396321 
1852.000000	2.396607 
1851.000000	2.396631 
1850.000000	2.396440 
1849.000000	2.396130 
1848.000000	2.395820 
1847.000000	2.395629 
1846.000000	2.395725 
1845.000000	2.396130 
1844.000000	2.396941 
1843.000000	2.398133 
1842.000000	2.399587 
1841.000000	2.401232 
1840.000000	2.402901 
1839.000000	2.404427 
1838.000000	2.405691 
1837.000000	2.406597 
1836.000000	2.407121 
1835.000000	2.407288 
1834.000000	2.407169 
1833.000000	2.406883 
1832.000000	2.406620 
1831.000000	2.406501 
1830.000000	2.406740 
1829.000000	2.407336 
1828.000000	2.408409 
1827.000000	2.409863 
1826.000000	2.411651 
1825.000000	2.413630 
1824.000000	2.415728 
1823.000000	2.417707 
1822.000000	2.419519 
1821.000000	2.421092 
1820.000000	2.422451 
1819.000000	2.423572 
1818.000000	2.424550 
1817.000000	2.425432 
1816.000000	2.426242 
1815.000000	2.427077 
1814.000000	2.427911 
1813.000000	2.428698 
1812.000000	2.429485 
1811.000000	2.430152 
1810.000000	2.430701 
1809.000000	2.431130 
1808.000000	2.431464 
1807.000000	2.431726 
1806.000000	2.431917 
1805.000000	2.432107 
1804.000000	2.432298 
1803.000000	2.432465 
1802.000000	2.432632 
1801.000000	2.432775 
1800.000000	2.432823 
1799.000000	2.432703 
1798.000000	2.432417 
1797.000000	2.432012 
1796.000000	2.431488 
1795.000000	2.430939 
1794.000000	2.430438 
1793.000000	2.430105 
1792.000000	2.430009 
1791.000000	2.430176 
1790.000000	2.430534 
1789.000000	2.431035 
1788.000000	2.431631 
1787.000000	2.432179 
1786.000000	2.432537 
1785.000000	2.432727 
1784.000000	2.432680 
1783.000000	2.432394 
1782.000000	2.431845 
1781.000000	2.431035 
1780.000000	2.429938 
1779.000000	2.428507 
1778.000000	2.426719 
1777.000000	2.424669 
1776.000000	2.422380 
1775.000000	2.420020 
1774.000000	2.417731 
1773.000000	2.415800 
1772.000000	2.414321 
1771.000000	2.413415 
1770.000000	2.413153 
1769.000000	2.413415 
1768.000000	2.414011 
1767.000000	2.414798 
1766.000000	2.415609 
1765.000000	2.416229 
1764.000000	2.416515 
1763.000000	2.416372 
1762.000000	2.415752 
1761.000000	2.414679 
1760.000000	2.413058 
1759.000000	2.410960 
1758.000000	2.408409 
1757.000000	2.405405 
1756.000000	2.402091 
1755.000000	2.398562 
1754.000000	2.394890 
1753.000000	2.391266 
1752.000000	2.387714 
1751.000000	2.384400 
1750.000000	2.381277 
1749.000000	2.378296 
1748.000000	2.375459 
1747.000000	2.372622 
1746.000000	2.369689 
1745.000000	2.366590 
1744.000000	2.363228 
1743.000000	2.359533 
1742.000000	2.355480 
1741.000000	2.351140 
1740.000000	2.346611 
1739.000000	2.342009 
1738.000000	2.337551 
1737.000000	2.333402 
1736.000000	2.329874 
1735.000000	2.327132 
1734.000000	2.325272 
1733.000000	2.324318 
1732.000000	2.324175 
1731.000000	2.324748 
1730.000000	2.325749 
1729.000000	2.326846 
1728.000000	2.327704 
1727.000000	2.328062 
1726.000000	2.327704 
1725.000000	2.326512 
1724.000000	2.324533 
1723.000000	2.321791 
1722.000000	2.318596 
1721.000000	2.315211 
1720.000000	2.311921 
1719.000000	2.309036 
1718.000000	2.306818 
1717.000000	2.305293 
1716.000000	2.304482 
1715.000000	2.304220 
1714.000000	2.304244 
1713.000000	2.304244 
1712.000000	2.303910 
1711.000000	2.302908 
1710.000000	2.301073 
1709.000000	2.298331 
1708.000000	2.294659 
1707.000000	2.290225 
1706.000000	2.285146 
1705.000000	2.279663 
1704.000000	2.274012 
1703.000000	2.268481 
1702.000000	2.263307 
1701.000000	2.258849 
1700.000000	2.255344 
1699.000000	2.252936 
1698.000000	2.251768 
1697.000000	2.251839 
1696.000000	2.252888 
1695.000000	2.254629 
1694.000000	2.256608 
1693.000000	2.258324 
1692.000000	2.259302 
1691.000000	2.259230 
1690.000000	2.258014 
1689.000000	2.255678 
1688.000000	2.252531 
1687.000000	2.249026 
1686.000000	2.245569 
1685.000000	2.242612 
1684.000000	2.240395 
1683.000000	2.239012 
1682.000000	2.238368 
1681.000000	2.238249 
1680.000000	2.238273 
1679.000000	2.238202 
1678.000000	2.237725 
1677.000000	2.236771 
1676.000000	2.235364 
1675.000000	2.233576 
1674.000000	2.231526 
1673.000000	2.229309 
1672.000000	2.227044 
1671.000000	2.224755 
1670.000000	2.222537 
1669.000000	2.220320 
1668.000000	2.218151 
1667.000000	2.216100 
1666.000000	2.214241 
1665.000000	2.212524 
1664.000000	2.210950 
1663.000000	2.209353 
1662.000000	2.207517 
1661.000000	2.205157 
1660.000000	2.202057 
1659.000000	2.198052 
1658.000000	2.193188 
1657.000000	2.187657 
1656.000000	2.181816 
1655.000000	2.176141 
1654.000000	2.171087 
1653.000000	2.167010 
1652.000000	2.164125 
1651.000000	2.162480 
1650.000000	2.161955 
1649.000000	2.162241 
1648.000000	2.163028 
1647.000000	2.163910 
1646.000000	2.164626 
1645.000000	2.164912 
1644.000000	2.164554 
1643.000000	2.163505 
1642.000000	2.161788 
1641.000000	2.159357 
1640.000000	2.156472 
1639.000000	2.153301 
1638.000000	2.150034 
1637.000000	2.146959 
1636.000000	2.144241 
1635.000000	2.141952 
1634.000000	2.140069 
1633.000000	2.138423 
1632.000000	2.136826 
1631.000000	2.134990 
1630.000000	2.132749 
1629.000000	2.129912 
1628.000000	2.126431 
1627.000000	2.122282 
1626.000000	2.117466 
1625.000000	2.112078 
1624.000000	2.106070 
1623.000000	2.099537 
1622.000000	2.092385 
1621.000000	2.084660 
1620.000000	2.076411 
1619.000000	2.067565 
1618.000000	2.058315 
1617.000000	2.048707 
1616.000000	2.038788 
1615.000000	2.028799 
1614.000000	2.018904 
1613.000000	2.009272 
1612.000000	2.000188 
1611.000000	1.991939 
1610.000000	1.984810 
1609.000000	1.979136 
1608.000000	1.975131 
1607.000000	1.972913 
1606.000000	1.972532 
1605.000000	1.973819 
1604.000000	1.976561 
1603.000000	1.980376 
1602.000000	1.984930 
1601.000000	1.989841 
1600.000000	1.994776 
1599.000000	1.999497 
1598.000000	2.003884 
1597.000000	2.007842 
1596.000000	2.011275 
1595.000000	2.014183 
1594.000000	2.016472 
1593.000000	2.018213 
1592.000000	2.019286 
1591.000000	2.019739 
1590.000000	2.019596 
1589.000000	2.018904 
1588.000000	2.017688 
1587.000000	2.016043 
1586.000000	2.013945 
1585.000000	2.011418 
1584.000000	2.008509 
1583.000000	2.005243 
1582.000000	2.001667 
1581.000000	1.997923 
1580.000000	1.994132 
1579.000000	1.990485 
1578.000000	1.987195 
1577.000000	1.984453 
1576.000000	1.982307 
1575.000000	1.980781 
1574.000000	1.979827 
1573.000000	1.979303 
1572.000000	1.978969 
1571.000000	1.978659 
1570.000000	1.977992 
1569.000000	1.976776 
1568.000000	1.974701 
1567.000000	1.971626 
1566.000000	1.967477 
1565.000000	1.962280 
1564.000000	1.956295 
1563.000000	1.949954 
1562.000000	1.943731 
1561.000000	1.938176 
1560.000000	1.933908 
1559.000000	1.931309 
1558.000000	1.930618 
1557.000000	1.931762 
1556.000000	1.934504 
1555.000000	1.938462 
1554.000000	1.943016 
1553.000000	1.947641 
1552.000000	1.951861 
1551.000000	1.955270 
1550.000000	1.957654 
1549.000000	1.958918 
1548.000000	1.959228 
1547.000000	1.958870 
1546.000000	1.958322 
1545.000000	1.958131 
1544.000000	1.958918 
1543.000000	1.961326 
1542.000000	1.965785 
1541.000000	1.972651 
1540.000000	1.981854 
1539.000000	1.993203 
1538.000000	2.006292 
1537.000000	2.020454 
1536.000000	2.034974 
1535.000000	2.049231 
1534.000000	2.062606 
1533.000000	2.074623 
1532.000000	2.084994 
1531.000000	2.093696 
1530.000000	2.100777 
1529.000000	2.106261 
1528.000000	2.110266 
1527.000000	2.113032 
1526.000000	2.114725 
1525.000000	2.115535 
1524.000000	2.115583 
1523.000000	2.115035 
1522.000000	2.114105 
1521.000000	2.112936 
1520.000000	2.111649 
1519.000000	2.110219 
1518.000000	2.108740 
1517.000000	2.107143 
1516.000000	2.105426 
1515.000000	2.103281 
1514.000000	2.100729 
1513.000000	2.097511 
1512.000000	2.093529 
1511.000000	2.088594 
1510.000000	2.082610 
1509.000000	2.075195 
1508.000000	2.065920 
1507.000000	2.054119 
1506.000000	2.038979 
1505.000000	2.019715 
1504.000000	1.995563 
1503.000000	1.966118 
1502.000000	1.931452 
1501.000000	1.892328 
1500.000000	1.850295 
1499.000000	1.807546 
1498.000000	1.766681 
1497.000000	1.730489 
1496.000000	1.701569 
1495.000000	1.681804 
1494.000000	1.672410 
1493.000000	1.673483 
1492.000000	1.684427 
1491.000000	1.703619 
1490.000000	1.729083 
1489.000000	1.758480 
1488.000000	1.789879 
1487.000000	1.821112 
1486.000000	1.850819 
1485.000000	1.877760 
1484.000000	1.901364 
1483.000000	1.921296 
1482.000000	1.937532 
1481.000000	1.950263 
1480.000000	1.959776 
1479.000000	1.966595 
1478.000000	1.971244 
1477.000000	1.974153 
1476.000000	1.975774 
1475.000000	1.976513 
1474.000000	1.976680 
1473.000000	1.976346 
1472.000000	1.975488 
1471.000000	1.974129 
1470.000000	1.972103 
1469.000000	1.969194 
1468.000000	1.965260 
1467.000000	1.960158 
1466.000000	1.953840 
1465.000000	1.946067 
1464.000000	1.936769 
1463.000000	1.925897 
1462.000000	1.913356 
1461.000000	1.899194 
1460.000000	1.883459 
1459.000000	1.866483 
1458.000000	1.848721 
1457.000000	1.830887 
1456.000000	1.813673 
1455.000000	1.798033 
1454.000000	1.784873 
1453.000000	1.775169 
1452.000000	1.769471 
1451.000000	1.768088 
1450.000000	1.770997 
1449.000000	1.777768 
1448.000000	1.787567 
1447.000000	1.799321 
1446.000000	1.811909 
1445.000000	1.824140 
1444.000000	1.835179 
1443.000000	1.844382 
1442.000000	1.851463 
1441.000000	1.856541 
1440.000000	1.859951 
1439.000000	1.862144 
1438.000000	1.863646 
1437.000000	1.864862 
1436.000000	1.866078 
1435.000000	1.867365 
1434.000000	1.868724 
1433.000000	1.870059 
1432.000000	1.871204 
1431.000000	1.872014 
1430.000000	1.872324 
1429.000000	1.872158 
1428.000000	1.871514 
1427.000000	1.870369 
1426.000000	1.868796 
1425.000000	1.866888 
1424.000000	1.864767 
1423.000000	1.862502 
1422.000000	1.860141 
1421.000000	1.857757 
1420.000000	1.855373 
1419.000000	1.852893 
1418.000000	1.850223 
1417.000000	1.847124 
1416.000000	1.843309 
1415.000000	1.838445 
1414.000000	1.832270 
1413.000000	1.824569 
1412.000000	1.815247 
1411.000000	1.804399 
1410.000000	1.792287 
1409.000000	1.779413 
1408.000000	1.766371 
1407.000000	1.753950 
1406.000000	1.742839 
1405.000000	1.733803 
1404.000000	1.727390 
1403.000000	1.723933 
1402.000000	1.723527 
1401.000000	1.725959 
1400.000000	1.730895 
1399.000000	1.737785 
1398.000000	1.745939 
1397.000000	1.754713 
1396.000000	1.763391 
1395.000000	1.771402 
1394.000000	1.778292 
1393.000000	1.783657 
1392.000000	1.787304 
1391.000000	1.789259 
1390.000000	1.789689 
1389.000000	1.788878 
1388.000000	1.787352 
1387.000000	1.785612 
1386.000000	1.784157 
1385.000000	1.783514 
1384.000000	1.783871 
1383.000000	1.785326 
1382.000000	1.787853 
1381.000000	1.791071 
1380.000000	1.794672 
1379.000000	1.798319 
1378.000000	1.801753 
1377.000000	1.804804 
1376.000000	1.807355 
1375.000000	1.809430 
1374.000000	1.811146 
1373.000000	1.812553 
1372.000000	1.813721 
1371.000000	1.814699 
1370.000000	1.815462 
1369.000000	1.815986 
1368.000000	1.816320 
1367.000000	1.816439 
1366.000000	1.816415 
1365.000000	1.816320 
1364.000000	1.816248 
1363.000000	1.816201 
1362.000000	1.816225 
1361.000000	1.816296 
1360.000000	1.816344 
1359.000000	1.816320 
1358.000000	1.816225 
1357.000000	1.816010 
1356.000000	1.815724 
1355.000000	1.815366 
1354.000000	1.815009 
1353.000000	1.814675 
1352.000000	1.814436 
1351.000000	1.814222 
1350.000000	1.814079 
1349.000000	1.813960 
1348.000000	1.813840 
1347.000000	1.813697 
1346.000000	1.813554 
1345.000000	1.813530 
1344.000000	1.813626 
1343.000000	1.813960 
1342.000000	1.814675 
1341.000000	1.815795 
1340.000000	1.817393 
1339.000000	1.819419 
1338.000000	1.821899 
1337.000000	1.824688 
1336.000000	1.827669 
1335.000000	1.830744 
1334.000000	1.833748 
1333.000000	1.836538 
1332.000000	1.839017 
1331.000000	1.841163 
1330.000000	1.842927 
1329.000000	1.844382 
1328.000000	1.845550 
1327.000000	1.846528 
1326.000000	1.847410 
1325.000000	1.848268 
1324.000000	1.849174 
1323.000000	1.850104 
1322.000000	1.851081 
1321.000000	1.852059 
1320.000000	1.852989 
1319.000000	1.853799 
1318.000000	1.854443 
1317.000000	1.854848 
1316.000000	1.855015 
1315.000000	1.854968 
1314.000000	1.854825 
1313.000000	1.854586 
1312.000000	1.854324 
1311.000000	1.854109 
1310.000000	1.854014 
1309.000000	1.854014 
1308.000000	1.854085 
1307.000000	1.854228 
1306.000000	1.854348 
1305.000000	1.854419 
1304.000000	1.854419 
1303.000000	1.854395 
1302.000000	1.854324 
1301.000000	1.854228 
1300.000000	1.854157 
1299.000000	1.854181 
1298.000000	1.854228 
1297.000000	1.854324 
1296.000000	1.854443 
1295.000000	1.854610 
1294.000000	1.854753 
1293.000000	1.854801 
1292.000000	1.854825 
1291.000000	1.854705 
1290.000000	1.854467 
1289.000000	1.854133 
1288.000000	1.853656 
1287.000000	1.853084 
1286.000000	1.852440 
1285.000000	1.851701 
1284.000000	1.850843 
1283.000000	1.849842 
1282.000000	1.848626 
1281.000000	1.847171 
1280.000000	1.845312 
1279.000000	1.842999 
1278.000000	1.840114 
1277.000000	1.836562 
1276.000000	1.832246 
1275.000000	1.827025 
1274.000000	1.820850 
1273.000000	1.813602 
1272.000000	1.805210 
1271.000000	1.795697 
1270.000000	1.785182 
1269.000000	1.773786 
1268.000000	1.761960 
1267.000000	1.750135 
1266.000000	1.739001 
1265.000000	1.729178 
1264.000000	1.721382 
1263.000000	1.716113 
1262.000000	1.713848 
1261.000000	1.714706 
1260.000000	1.718640 
1259.000000	1.725292 
1258.000000	1.734137 
1257.000000	1.744508 
1256.000000	1.755762 
1255.000000	1.767206 
1254.000000	1.778244 
1253.000000	1.788496 
1252.000000	1.797628 
1251.000000	1.805472 
1250.000000	1.812005 
1249.000000	1.817297 
1248.000000	1.821517 
1247.000000	1.824736 
1246.000000	1.827239 
1245.000000	1.829051 
1244.000000	1.830410 
1243.000000	1.831412 
1242.000000	1.832222 
1241.000000	1.832795 
1240.000000	1.833295 
1239.000000	1.833653 
1238.000000	1.833891 
1237.000000	1.833963 
1236.000000	1.833915 
1235.000000	1.833653 
1234.000000	1.833128 
1233.000000	1.832365 
1232.000000	1.831293 
1231.000000	1.829934 
1230.000000	1.828265 
1229.000000	1.826333 
1228.000000	1.824164 
1227.000000	1.821804 
1226.000000	1.819252 
1225.000000	1.816534 
1224.000000	1.813673 
1223.000000	1.810574 
1222.000000	1.807212 
1221.000000	1.803565 
1220.000000	1.799464 
1219.000000	1.794981 
1218.000000	1.790165 
1217.000000	1.784968 
1216.000000	1.779627 
1215.000000	1.774263 
1214.000000	1.769018 
1213.000000	1.764082 
1212.000000	1.759529 
1211.000000	1.755499 
1210.000000	1.752042 
1209.000000	1.749181 
1208.000000	1.746916 
1207.000000	1.745223 
1206.000000	1.744103 
1205.000000	1.743459 
1204.000000	1.743221 
1203.000000	1.743292 
1202.000000	1.743578 
1201.000000	1.743960 
1200.000000	1.744341 
1199.000000	1.744604 
1198.000000	1.744675 
1197.000000	1.744461 
1196.000000	1.743960 
1195.000000	1.743125 
1194.000000	1.741981 
1193.000000	1.740598 
1192.000000	1.738977 
1191.000000	1.737165 
1190.000000	1.735258 
1189.000000	1.733255 
1188.000000	1.731204 
1187.000000	1.729106 
1186.000000	1.726889 
1185.000000	1.724576 
1184.000000	1.722097 
1183.000000	1.719427 
1182.000000	1.716637 
1181.000000	1.713705 
1180.000000	1.710677 
1179.000000	1.707625 
1178.000000	1.704573 
1177.000000	1.701521 
1176.000000	1.698493 
1175.000000	1.695394 
1174.000000	1.692175 
1173.000000	1.688718 
1172.000000	1.684975 
1171.000000	1.680922 
1170.000000	1.676511 
1169.000000	1.671791 
1168.000000	1.666831 
1167.000000	1.661610 
1166.000000	1.656293 
1165.000000	1.650905 
1164.000000	1.645541 
1163.000000	1.640295 
1162.000000	1.635265 
1161.000000	1.630520 
1160.000000	1.626205 
1159.000000	1.622295 
1158.000000	1.618885 
1157.000000	1.616001 
1156.000000	1.613545 
1155.000000	1.611495 
1154.000000	1.609730 
1153.000000	1.608085 
1152.000000	1.606512 
1151.000000	1.604843 
1150.000000	1.603055 
1149.000000	1.601171 
1148.000000	1.599216 
1147.000000	1.597261 
1146.000000	1.595401 
1145.000000	1.593661 
1144.000000	1.592135 
1143.000000	1.590752 
1142.000000	1.589536 
1141.000000	1.588249 
1140.000000	1.586842 
1139.000000	1.585149 
1138.000000	1.583051 
1137.000000	1.580500 
1136.000000	1.577377 
1135.000000	1.573705 
1134.000000	1.569509 
1133.000000	1.564860 
1132.000000	1.559948 
1131.000000	1.554799 
1130.000000	1.549553 
1129.000000	1.544332 
1128.000000	1.539158 
1127.000000	1.534128 
1126.000000	1.529169 
1125.000000	1.524233 
1124.000000	1.519227 
1123.000000	1.514101 
1122.000000	1.508736 
1121.000000	1.503181 
1120.000000	1.497483 
1119.000000	1.491689 
1118.000000	1.485919 
1117.000000	1.480317 
1116.000000	1.474976 
1115.000000	1.470041 
1114.000000	1.465487 
1113.000000	1.461338 
1112.000000	1.457595 
1111.000000	1.454210 
1110.000000	1.451134 
1109.000000	1.448273 
1108.000000	1.445627 
1107.000000	1.443076 
1106.000000	1.440668 
1105.000000	1.438260 
1104.000000	1.435923 
1103.000000	1.433634 
1102.000000	1.431488 
1101.000000	1.429605 
1100.000000	1.428103 
1099.000000	1.427102 
1098.000000	1.426672 
1097.000000	1.426839 
1096.000000	1.427531 
1095.000000	1.428484 
1094.000000	1.429486 
1093.000000	1.430344 
1092.000000	1.430821 
1091.000000	1.430773 
1090.000000	1.430225 
1089.000000	1.429247 
1088.000000	1.427960 
1087.000000	1.426625 
1086.000000	1.425337 
1085.000000	1.424312 
1084.000000	1.423525 
1083.000000	1.423096 
1082.000000	1.422977 
1081.000000	1.423144 
1080.000000	1.423501 
1079.000000	1.424074 
1078.000000	1.424884 
1077.000000	1.425933 
1076.000000	1.427221 
1075.000000	1.428699 
1074.000000	1.430320 
1073.000000	1.432061 
1072.000000	1.433777 
1071.000000	1.435351 
1070.000000	1.436686 
1069.000000	1.437664 
1068.000000	1.438212 
1067.000000	1.438307 
1066.000000	1.437878 
1065.000000	1.436901 
1064.000000	1.435208 
1063.000000	1.432704 
1062.000000	1.429128 
1061.000000	1.424121 
1060.000000	1.417374 
1059.000000	1.408529 
1058.000000	1.397442 
1057.000000	1.384186 
1056.000000	1.369237 
1055.000000	1.353311 
1054.000000	1.337552 
1053.000000	1.323270 
1052.000000	1.311683 
1051.000000	1.303958 
1050.000000	1.300716 
1049.000000	1.302146 
1048.000000	1.307916 
1047.000000	1.317119 
1046.000000	1.328516 
1045.000000	1.340794 
1044.000000	1.352715 
1043.000000	1.363277 
1042.000000	1.371860 
1041.000000	1.378178 
1040.000000	1.382398 
1039.000000	1.384806 
1038.000000	1.385831 
1037.000000	1.385831 
1036.000000	1.385235 
1035.000000	1.384234 
1034.000000	1.382970 
1033.000000	1.381516 
1032.000000	1.379823 
1031.000000	1.377940 
1030.000000	1.375865 
1029.000000	1.373672 
1028.000000	1.371407 
1027.000000	1.369214 
1026.000000	1.367139 
1025.000000	1.365303 
1024.000000	1.363921 
1023.000000	1.362967 
1022.000000	1.362538 
1021.000000	1.362633 
1020.000000	1.363253 
1019.000000	1.364326 
1018.000000	1.365733 
1017.000000	1.367402 
1016.000000	1.369166 
1015.000000	1.370978 
1014.000000	1.372790 
1013.000000	1.374650 
1012.000000	1.376581 
1011.000000	1.378655 
1010.000000	1.380944 
1009.000000	1.383447 
1008.000000	1.386070 
1007.000000	1.388716 
1006.000000	1.391196 
1005.000000	1.393389 
1004.000000	1.395106 
1003.000000	1.396226 
1002.000000	1.396846 
1001.000000	1.396965 
1000.000000	1.396751 
999.000000	 1.396393 
998.000000	 1.395988 
997.000000	 1.395702 
996.000000	 1.395487 
995.000000	 1.395297 
994.000000	 1.395058 
993.000000	 1.394653 
992.000000	 1.393985 
991.000000	 1.393008 
990.000000	 1.391768 
989.000000	 1.390314 
988.000000	 1.388669 
987.000000	 1.386928 
986.000000	 1.385211 
985.000000	 1.383519 
984.000000	 1.381826 
983.000000	 1.380109 
982.000000	 1.378369 
981.000000	 1.376509 
980.000000	 1.374530 
979.000000	 1.372408 
978.000000	 1.370215 
977.000000	 1.367926 
976.000000	 1.365566 
975.000000	 1.363158 
974.000000	 1.360797 
973.000000	 1.358389 
972.000000	 1.355886 
971.000000	 1.353335 
970.000000	 1.350617 
969.000000	 1.347708 
968.000000	 1.344585 
967.000000	 1.341247 
966.000000	 1.337647 
965.000000	 1.333856 
964.000000	 1.329946 
963.000000	 1.325941 
962.000000	 1.321935 
961.000000	 1.317954 
960.000000	 1.314067 
959.000000	 1.310276 
958.000000	 1.306605 
957.000000	 1.303005 
956.000000	 1.299500 
955.000000	 1.296043 
954.000000	 1.292681 
953.000000	 1.289391 
952.000000	 1.286220 
951.000000	 1.283192 
950.000000	 1.280355 
949.000000	 1.277709 
948.000000	 1.275324 
947.000000	 1.273107 
946.000000	 1.271104 
945.000000	 1.269292 
944.000000	 1.267576 
943.000000	 1.265978 
942.000000	 1.264357 
941.000000	 1.262712 
940.000000	 1.260948 
939.000000	 1.259064 
938.000000	 1.257038 
937.000000	 1.254844 
936.000000	 1.252484 
935.000000	 1.250004 
934.000000	 1.247477 
933.000000	 1.244831 
932.000000	 1.242208 
931.000000	 1.239562 
930.000000	 1.237010 
929.000000	 1.234531 
928.000000	 1.232123 
927.000000	 1.229810 
926.000000	 1.227569 
925.000000	 1.225376 
924.000000	 1.223182 
923.000000	 1.220989 
922.000000	 1.218700 
921.000000	 1.216292 
920.000000	 1.213717 
919.000000	 1.210904 
918.000000	 1.207876 
917.000000	 1.204609 
916.000000	 1.201128 
915.000000	 1.197481 
914.000000	 1.193690 
913.000000	 1.189851 
912.000000	 1.186013 
911.000000	 1.182198 
910.000000	 1.178479 
909.000000	 1.174879 
908.000000	 1.171541 
907.000000	 1.168465 
906.000000	 1.165676 
905.000000	 1.163244 
904.000000	 1.161193 
903.000000	 1.159477 
902.000000	 1.158094 
901.000000	 1.156926 
900.000000	 1.155877 
899.000000	 1.154923 
898.000000	 1.153898 
897.000000	 1.152729 
896.000000	 1.151323 
895.000000	 1.149582 
894.000000	 1.147437 
893.000000	 1.144766 
892.000000	 1.141476 
891.000000	 1.137447 
890.000000	 1.132583 
889.000000	 1.126861 
888.000000	 1.120233 
887.000000	 1.112699 
886.000000	 1.104402 
885.000000	 1.095461 
884.000000	 1.086163 
883.000000	 1.076698 
882.000000	 1.067447 
881.000000	 1.058721 
880.000000	 1.050782 
879.000000	 1.043939 
878.000000	 1.038479 
877.000000	 1.034522 
876.000000	 1.032209 
875.000000	 1.031565 
874.000000	 1.032543 
873.000000	 1.034975 
872.000000	 1.038718 
871.000000	 1.043558 
870.000000	 1.049041 
869.000000	 1.055002 
868.000000	 1.061010 
867.000000	 1.066899 
866.000000	 1.072359 
865.000000	 1.077222 
864.000000	 1.081395 
863.000000	 1.084828 
862.000000	 1.087522 
861.000000	 1.089501 
860.000000	 1.090860 
859.000000	 1.091694 
858.000000	 1.092052 
857.000000	 1.091933 
856.000000	 1.091432 
855.000000	 1.090598 
854.000000	 1.089453 
853.000000	 1.088047 
852.000000	 1.086449 
851.000000	 1.084709 
850.000000	 1.082944 
849.000000	 1.081228 
848.000000	 1.079535 
847.000000	 1.077938 
846.000000	 1.076388 
845.000000	 1.074790 
844.000000	 1.073026 
843.000000	 1.070857 
842.000000	 1.068091 
841.000000	 1.064538 
840.000000	 1.059865 
839.000000	 1.054024 
838.000000	 1.046633 
837.000000	 1.037573 
836.000000	 1.026630 
835.000000	 1.013684 
834.000000	 0.998711 
833.000000	 0.981783 
832.000000	 0.963139 
831.000000	 0.943326 
830.000000	 0.923037 
829.000000	 0.903105 
828.000000	 0.884699 
827.000000	 0.868844 
826.000000	 0.856471 
825.000000	 0.848317 
824.000000	 0.844812 
823.000000	 0.845932 
822.000000	 0.851249 
821.000000	 0.860047 
820.000000	 0.871229 
819.000000	 0.883746 
818.000000	 0.896453 
817.000000	 0.908422 
816.000000	 0.918984 
815.000000	 0.927758 
814.000000	 0.934505 
813.000000	 0.939393 
812.000000	 0.942730 
811.000000	 0.944757 
810.000000	 0.945854 
809.000000	 0.946283 
808.000000	 0.946331 
807.000000	 0.946140 
806.000000	 0.945830 
805.000000	 0.945425 
804.000000	 0.945043 
803.000000	 0.944757 
802.000000	 0.944566 
801.000000	 0.944566 
800.000000	 0.944876 
799.000000	 0.945496 
798.000000	 0.946497 
797.000000	 0.947928 
796.000000	 0.949811 
795.000000	 0.952148 
794.000000	 0.954914 
793.000000	 0.957942 
792.000000	 0.961160 
791.000000	 0.964450 
790.000000	 0.967669 
789.000000	 0.970697 
788.000000	 0.973343 
787.000000	 0.975608 
786.000000	 0.977444 
785.000000	 0.978827 
784.000000	 0.979781 
783.000000	 0.980353 
782.000000	 0.980615 
781.000000	 0.980567 
780.000000	 0.980281 
779.000000	 0.979757 
778.000000	 0.979065 
777.000000	 0.978183 
776.000000	 0.977158 
775.000000	 0.976061 
774.000000	 0.974893 
773.000000	 0.973677 
772.000000	 0.972533 
771.000000	 0.971436 
770.000000	 0.970435 
769.000000	 0.969529 
768.000000	 0.968670 
767.000000	 0.967860 
766.000000	 0.967049 
765.000000	 0.966262 
764.000000	 0.965428 
763.000000	 0.964665 
762.000000	 0.963973 
761.000000	 0.963449 
760.000000	 0.962996 
759.000000	 0.962710 
758.000000	 0.962448 
757.000000	 0.962066 
756.000000	 0.961470 
755.000000	 0.960421 
754.000000	 0.958919 
753.000000	 0.956892 
752.000000	 0.954389 
751.000000	 0.951623 
750.000000	 0.948810 
749.000000	 0.946140 
748.000000	 0.943803 
747.000000	 0.941920 
746.000000	 0.940465 
745.000000	 0.939345 
744.000000	 0.938391 
743.000000	 0.937414 
742.000000	 0.936269 
741.000000	 0.934863 
740.000000	 0.933122 
739.000000	 0.931072 
738.000000	 0.928759 
737.000000	 0.926303 
736.000000	 0.923800 
735.000000	 0.921273 
734.000000	 0.918722 
733.000000	 0.916242 
732.000000	 0.913786 
731.000000	 0.911307 
730.000000	 0.908803 
729.000000	 0.906324 
728.000000	 0.903797 
727.000000	 0.901246 
726.000000	 0.898694 
725.000000	 0.896096 
724.000000	 0.893449 
723.000000	 0.890684 
722.000000	 0.887775 
721.000000	 0.884675 
720.000000	 0.881385 
719.000000	 0.877928 
718.000000	 0.874376 
717.000000	 0.870752 
716.000000	 0.867199 
715.000000	 0.863814 
714.000000	 0.860619 
713.000000	 0.857591 
712.000000	 0.854706 
711.000000	 0.851917 
710.000000	 0.849127 
709.000000	 0.846195 
708.000000	 0.843048 
707.000000	 0.839614 
706.000000	 0.835919 
705.000000	 0.831890 
704.000000	 0.827670 
703.000000	 0.823259 
702.000000	 0.818753 
701.000000	 0.814104 
700.000000	 0.809311 
699.000000	 0.804281 
698.000000	 0.798964 
697.000000	 0.793242 
696.000000	 0.786995 
695.000000	 0.780224 
694.000000	 0.773024 
693.000000	 0.765562 
692.000000	 0.758051 
691.000000	 0.750923 
690.000000	 0.744533 
689.000000	 0.739216 
688.000000	 0.735235 
687.000000	 0.732660 
686.000000	 0.731444 
685.000000	 0.731396 
684.000000	 0.732231 
683.000000	 0.733470 
682.000000	 0.734806 
681.000000	 0.735902 
680.000000	 0.736498 
679.000000	 0.736522 
678.000000	 0.735902 
677.000000	 0.734782 
676.000000	 0.733208 
675.000000	 0.731348 
674.000000	 0.729322 
673.000000	 0.727248 
672.000000	 0.725173 
671.000000	 0.723171 
670.000000	 0.721192 
669.000000	 0.719285 
668.000000	 0.717353 
667.000000	 0.715446 
666.000000	 0.713419 
665.000000	 0.711250 
664.000000	 0.708913 
663.000000	 0.706362 
662.000000	 0.703620 
661.000000	 0.700664 
660.000000	 0.697588 
659.000000	 0.694394 
658.000000	 0.691175 
657.000000	 0.687980 
656.000000	 0.684952 
655.000000	 0.682091 
654.000000	 0.679373 
653.000000	 0.676870 
652.000000	 0.674557 
651.000000	 0.672459 
650.000000	 0.670433 
649.000000	 0.668478 
648.000000	 0.666522 
647.000000	 0.664567 
646.000000	 0.662493 
645.000000	 0.660276 
644.000000	 0.657892 
643.000000	 0.655364 
642.000000	 0.652694 
641.000000	 0.649905 
640.000000	 0.647044 
639.000000	 0.644183 
638.000000	 0.641322 
637.000000	 0.638461 
636.000000	 0.635671 
635.000000	 0.632882 
634.000000	 0.630068 
633.000000	 0.627231 
632.000000	 0.624346 
631.000000	 0.621461 
630.000000	 0.618529 
629.000000	 0.615620 
628.000000	 0.612688 
627.000000	 0.609827 
626.000000	 0.606989 
625.000000	 0.604200 
624.000000	 0.601363 
623.000000	 0.598526 
622.000000	 0.595617 
621.000000	 0.592613 
620.000000	 0.589442 
619.000000	 0.586056 
618.000000	 0.582432 
617.000000	 0.578546 
616.000000	 0.574350 
615.000000	 0.569844 
614.000000	 0.565075 
613.000000	 0.560092 
612.000000	 0.554919 
611.000000	 0.549697 
610.000000	 0.544571 
609.000000	 0.539731 
608.000000	 0.535297 
607.000000	 0.531458 
606.000000	 0.528335 
605.000000	 0.525975 
604.000000	 0.524425 
603.000000	 0.523614 
602.000000	 0.523400 
601.000000	 0.523638 
600.000000	 0.524115 
599.000000	 0.524592 
598.000000	 0.524997 
597.000000	 0.525093 
596.000000	 0.524830 
595.000000	 0.524210 
594.000000	 0.523281 
593.000000	 0.522065 
592.000000	 0.520706 
591.000000	 0.519299 
590.000000	 0.517940 
589.000000	 0.516653 
588.000000	 0.515437 
587.000000	 0.514316 
586.000000	 0.513195 
585.000000	 0.512099 
584.000000	 0.510978 
583.000000	 0.509834 
582.000000	 0.508737 
581.000000	 0.507616 
580.000000	 0.506567 
579.000000	 0.505614 
578.000000	 0.504803 
577.000000	 0.504016 
576.000000	 0.503301 
575.000000	 0.502586 
574.000000	 0.501823 
573.000000	 0.500965 
572.000000	 0.499963 
571.000000	 0.498795 
570.000000	 0.497460 
569.000000	 0.495958 
568.000000	 0.494313 
567.000000	 0.492548 
566.000000	 0.490760 
565.000000	 0.488924 
564.000000	 0.487089 
563.000000	 0.485277 
562.000000	 0.483512 
561.000000	 0.481796 
560.000000	 0.480055 
559.000000	 0.478291 
558.000000	 0.476527 
557.000000	 0.474739 
556.000000	 0.472950 
555.000000	 0.471162 
554.000000	 0.469374 
553.000000	 0.467634 
552.000000	 0.465917 
551.000000	 0.464248 
550.000000	 0.462579 
549.000000	 0.460910 
548.000000	 0.459241 
547.000000	 0.457596 
546.000000	 0.456023 
545.000000	 0.454473 
544.000000	 0.452947 
543.000000	 0.451445 
542.000000	 0.449919 
541.000000	 0.448298 
540.000000	 0.446534 
539.000000	 0.444602 
538.000000	 0.442504 
537.000000	 0.440263 
536.000000	 0.437879 
535.000000	 0.435423 
534.000000	 0.432991 
533.000000	 0.430583 
532.000000	 0.428223 
531.000000	 0.425863 
530.000000	 0.423455 
529.000000	 0.421047 
528.000000	 0.418567 
527.000000	 0.416064 
526.000000	 0.413632 
525.000000	 0.411319 
524.000000	 0.409126 
523.000000	 0.407123 
522.000000	 0.405263 
521.000000	 0.403547 
520.000000	 0.401854 
519.000000	 0.400066 
518.000000	 0.398087 
517.000000	 0.395917 
516.000000	 0.393486 
515.000000	 0.390887 
514.000000	 0.388073 
513.000000	 0.385189 
512.000000	 0.382232 
511.000000	 0.379323 
510.000000	 0.376462 
509.000000	 0.373673 
508.000000	 0.370883 
507.000000	 0.368142 
506.000000	 0.365328 
505.000000	 0.362443 
504.000000	 0.359439 
503.000000	 0.356340 
502.000000	 0.353169 
501.000000	 0.349903 
500.000000	 0.346636 
499.000000	 0.343322 
498.000000	 0.340032 
497.000000	 0.336718 
496.000000	 0.333428 
495.000000	 0.330066 
494.000000	 0.326681 
493.000000	 0.323200 
492.000000	 0.319671 
491.000000	 0.316071 
490.000000	 0.312447 
489.000000	 0.308823 
488.000000	 0.305247 
487.000000	 0.301742 
486.000000	 0.298357 
485.000000	 0.295042 
484.000000	 0.291848 
483.000000	 0.288701 
482.000000	 0.285553 
481.000000	 0.282406 
480.000000	 0.279235 
479.000000	 0.276041 
478.000000	 0.272822 
477.000000	 0.269627 
476.000000	 0.266408 
475.000000	 0.263214 
474.000000	 0.260043 
473.000000	 0.256896 
472.000000	 0.253725 
471.000000	 0.250530 
470.000000	 0.247263 
469.000000	 0.243926 
468.000000	 0.240564 
467.000000	 0.237131 
466.000000	 0.233697 
465.000000	 0.230264 
464.000000	 0.226831 
463.000000	 0.223422 
462.000000	 0.219941 
461.000000	 0.216388 
460.000000	 0.212645 
459.000000	 0.208759 
458.000000	 0.204682 
457.000000	 0.200486 
456.000000	 0.196337 
455.000000	 0.192356 
454.000000	 0.188660 
453.000000	 0.185370 
452.000000	 0.182509 
451.000000	 0.180006 
450.000000	 0.177788 
449.000000	 0.175690 
448.000000	 0.173568 
447.000000	 0.171279 
446.000000	 0.168776 
445.000000	 0.166058 
444.000000	 0.163102 
443.000000	 0.160002 
442.000000	 0.156903 
441.000000	 0.153803 
440.000000	 0.150728 
439.000000	 0.147700 
438.000000	 0.144720 
437.000000	 0.141739 
436.000000	 0.138759 
435.000000	 0.135707 
434.000000	 0.132584 
433.000000	 0.129413 
432.000000	 0.126147 
431.000000	 0.122785 
430.000000	 0.119376 
429.000000	 0.115871 
428.000000	 0.112342 
427.000000	 0.108742 
426.000000	 0.105071 
425.000000	 0.101399 
424.000000	 0.097751 
423.000000	 0.094175 
422.000000	 0.090742 
421.000000	 0.087499 
420.000000	 0.084495 
419.000000	 0.081753 
418.000000	 0.079226 
417.000000	 0.076937 
416.000000	 0.074744 
415.000000	 0.072550 
414.000000	 0.070309 
413.000000	 0.067853 
412.000000	 0.065207 
411.000000	 0.062417 
410.000000	 0.059485 
409.000000	 0.056576 
408.000000	 0.053715 
407.000000	 0.051069 
406.000000	 0.048685 
405.000000	 0.046610 
404.000000	 0.044751 
403.000000	 0.043010 
402.000000	 0.041246 
401.000000	 0.039386 
400.000000	 0.037288 
399.000000	 0.034976 
398.000000	 0.032496 
397.000000	 0.029921 
396.000000	 0.027441 
395.000000	 0.025177 
394.000000	 0.023269 
393.000000	 0.021791 
392.000000	 0.020742 
391.000000	 0.020098 
390.000000	 0.019693 
389.000000	 0.019431 
388.000000	 0.019145 
387.000000	 0.018763 
386.000000	 0.018167 
385.000000	 0.017333 
384.000000	 0.016283 
383.000000	 0.015068 
382.000000	 0.013780 
381.000000	 0.012469 
380.000000	 0.011253 
379.000000	 0.010251 
378.000000	 0.009489 
377.000000	 0.008964 
376.000000	 0.008678 
375.000000	 0.008511 
374.000000	 0.008416 
373.000000	 0.008273 
372.000000	 0.008106 
371.000000	 0.007843 
370.000000	 0.007486 

