PE IR       SPECTRUM    SPECTRUM    ASCII       PEDS        1.60        
  -1
C-1E61~1.ASC
17/03/27
21:56:01.00
17/03/27
21:56:01.00
tln
$C-4040-8_t0090$<tbV0>[10.4,7.8,8.0,0.0,27,1,0]
370.000000
64









2002,4.07    
MIRTGS : RIGHTBACK : INTERNAL 2
MIR : ON : INTERNAL 2
OPTKBR

0.200000
8
8.000000
FILLER
RATIO
SPECTRUM
UNLOCKED 256

DOUBLE
64
COMBINED
1
0
0


1.000000
RATIO


1
0
TRUE
51149
0
LEFT NOT FITTED RIGHT NOT FITTED 0
NONE
NONE
15600
12.000000
4.427000
51148
TRUE
1 0 8 72 0 0 0 0 

15798.010000






#HDR
-1
-1
#GR
CM-1
%T
0.00002384185791015625
0.0
5000.000000
-1.000000
4631
8
163.390445
53.417181
#DATA
5000.000000	65.156078  
4999.000000	65.196561  
4998.000000	65.219902  
4997.000000	65.223264  
4996.000000	65.206360  
4995.000000	65.173029  
4994.000000	65.130400  
4993.000000	65.088772  
4992.000000	65.058231  
4991.000000	65.046834  
4990.000000	65.057325  
4989.000000	65.087151  
4988.000000	65.127253  
4987.000000	65.164542  
4986.000000	65.184831  
4985.000000	65.176343  
4984.000000	65.132522  
4983.000000	65.053701  
4982.000000	64.946866  
4981.000000	64.824080  
4980.000000	64.698815  
4979.000000	64.583683  
4978.000000	64.487791  
4977.000000	64.416241  
4976.000000	64.371204  
4975.000000	64.352250  
4974.000000	64.358234  
4973.000000	64.386868  
4972.000000	64.434623  
4971.000000	64.496445  
4970.000000	64.563846  
4969.000000	64.627814  
4968.000000	64.678263  
4967.000000	64.708352  
4966.000000	64.714884  
4965.000000	64.700675  
4964.000000	64.673876  
4963.000000	64.645743  
4962.000000	64.628434  
4961.000000	64.630031  
4960.000000	64.652466  
4959.000000	64.690089  
4958.000000	64.731216  
4957.000000	64.761471  
4956.000000	64.768075  
4955.000000	64.743542  
4954.000000	64.688444  
4953.000000	64.610981  
4952.000000	64.525413  
4951.000000	64.447760  
4950.000000	64.392518  
4949.000000	64.368820  
4948.000000	64.378905  
4947.000000	64.419460  
4946.000000	64.482116  
4945.000000	64.555430  
4944.000000	64.627957  
4943.000000	64.690399  
4942.000000	64.737343  
4941.000000	64.766931  
4940.000000	64.781308  
4939.000000	64.784169  
4938.000000	64.780569  
4937.000000	64.775204  
4936.000000	64.771437  
4935.000000	64.770817  
4934.000000	64.772295  
4933.000000	64.773631  
4932.000000	64.770746  
4931.000000	64.759707  
4930.000000	64.736914  
4929.000000	64.700222  
4928.000000	64.649844  
4927.000000	64.589118  
4926.000000	64.524006  
4925.000000	64.462637  
4924.000000	64.413976  
4923.000000	64.386963  
4922.000000	64.389085  
4921.000000	64.425253  
4920.000000	64.496850  
4919.000000	64.600896  
4918.000000	64.730191  
4917.000000	64.873695  
4916.000000	65.018177  
4915.000000	65.149426  
4914.000000	65.254926  
4913.000000	65.324831  
4912.000000	65.353417  
4911.000000	65.339922  
4910.000000	65.288543  
4909.000000	65.208101  
4908.000000	65.110540  
4907.000000	65.009522  
4906.000000	64.918398  
4905.000000	64.848780  
4904.000000	64.809322  
4903.000000	64.804553  
4902.000000	64.834547  
4901.000000	64.894771  
4900.000000	64.976787  
4899.000000	65.069150  
4898.000000	65.159583  
4897.000000	65.236091  
4896.000000	65.289664  
4895.000000	65.315937  
4894.000000	65.315389  
4893.000000	65.293478  
4892.000000	65.257835  
4891.000000	65.215778  
4890.000000	65.172123  
4889.000000	65.128278  
4888.000000	65.082478  
4887.000000	65.031647  
4886.000000	64.973521  
4885.000000	64.908599  
4884.000000	64.841389  
4883.000000	64.780354  
4882.000000	64.735555  
4881.000000	64.715862  
4880.000000	64.726328  
4879.000000	64.765810  
4878.000000	64.826917  
4877.000000	64.897155  
4876.000000	64.962291  
4875.000000	65.009284  
4874.000000	65.029358  
4873.000000	65.019631  
4872.000000	64.982080  
4871.000000	64.923095  
4870.000000	64.850711  
4869.000000	64.773750  
4868.000000	64.700794  
4867.000000	64.639401  
4866.000000	64.596390  
4865.000000	64.576435  
4864.000000	64.582347  
4863.000000	64.613461  
4862.000000	64.665412  
4861.000000	64.730954  
4860.000000	64.800071  
4859.000000	64.863610  
4858.000000	64.913964  
4857.000000	64.947867  
4856.000000	64.966583  
4855.000000	64.975094  
4854.000000	64.980983  
4853.000000	64.990043  
4852.000000	65.004348  
4851.000000	65.020608  
4850.000000	65.030980  
4849.000000	65.025353  
4848.000000	64.994955  
4847.000000	64.936041  
4846.000000	64.852023  
4845.000000	64.753508  
4844.000000	64.656186  
4843.000000	64.576673  
4842.000000	64.528608  
4841.000000	64.519119  
4840.000000	64.547419  
4839.000000	64.605259  
4838.000000	64.679598  
4837.000000	64.755535  
4836.000000	64.820575  
4835.000000	64.867138  
4834.000000	64.893913  
4833.000000	64.904427  
4832.000000	64.906096  
4831.000000	64.906477  
4830.000000	64.911842  
4829.000000	64.925265  
4828.000000	64.946293  
4827.000000	64.972090  
4826.000000	64.998149  
4825.000000	65.020346  
4824.000000	65.035557  
4823.000000	65.042829  
4822.000000	65.042686  
4821.000000	65.036892  
4820.000000	65.027546  
4819.000000	65.016627  
4818.000000	65.005588  
4817.000000	64.995098  
4816.000000	64.985609  
4815.000000	64.977622  
4814.000000	64.971613  
4813.000000	64.968442  
4812.000000	64.969086  
4811.000000	64.974570  
4810.000000	64.986109  
4809.000000	65.004539  
4808.000000	65.029859  
4807.000000	65.061402  
4806.000000	65.097808  
4805.000000	65.137219  
4804.000000	65.176534  
4803.000000	65.213465  
4802.000000	65.246677  
4801.000000	65.276002  
4800.000000	65.302395  
4799.000000	65.327763  
4798.000000	65.354180  
4797.000000	65.383172  
4796.000000	65.415024  
4795.000000	65.448713  
4794.000000	65.482068  
4793.000000	65.512394  
4792.000000	65.537071  
4791.000000	65.554785  
4790.000000	65.565419  
4789.000000	65.570616  
4788.000000	65.572190  
4787.000000	65.571045  
4786.000000	65.566301  
4785.000000	65.555548  
4784.000000	65.535426  
4783.000000	65.503168  
4782.000000	65.457272  
4781.000000	65.399670  
4780.000000	65.334606  
4779.000000	65.268111  
4778.000000	65.206384  
4777.000000	65.153813  
4776.000000	65.112566  
4775.000000	65.082526  
4774.000000	65.061211  
4773.000000	65.044808  
4772.000000	65.029287  
4771.000000	65.011882  
4770.000000	64.991044  
4769.000000	64.966511  
4768.000000	64.939069  
4767.000000	64.910173  
4766.000000	64.881777  
4765.000000	64.856219  
4764.000000	64.836382  
4763.000000	64.825892  
4762.000000	64.828729  
4761.000000	64.848685  
4760.000000	64.888358  
4759.000000	64.948201  
4758.000000	65.025424  
4757.000000	65.114259  
4756.000000	65.206956  
4755.000000	65.294361  
4754.000000	65.368461  
4753.000000	65.422248  
4752.000000	65.450644  
4751.000000	65.450644  
4750.000000	65.421867  
4749.000000	65.366029  
4748.000000	65.286707  
4747.000000	65.189766  
4746.000000	65.083193  
4745.000000	64.976882  
4744.000000	64.881634  
4743.000000	64.808487  
4742.000000	64.767217  
4741.000000	64.764618  
4740.000000	64.803194  
4739.000000	64.880132  
4738.000000	64.987254  
4737.000000	65.111994  
4736.000000	65.239000  
4735.000000	65.352559  
4734.000000	65.439224  
4733.000000	65.489506  
4732.000000	65.500092  
4731.000000	65.473365  
4730.000000	65.417766  
4729.000000	65.345835  
4728.000000	65.271806  
4727.000000	65.209841  
4726.000000	65.170502  
4725.000000	65.160059  
4724.000000	65.178298  
4723.000000	65.220046  
4722.000000	65.275621  
4721.000000	65.333938  
4720.000000	65.384554  
4719.000000	65.419793  
4718.000000	65.436530  
4717.000000	65.435767  
4716.000000	65.422630  
4715.000000	65.404224  
4714.000000	65.387964  
4713.000000	65.379428  
4712.000000	65.381431  
4711.000000	65.393567  
4710.000000	65.412473  
4709.000000	65.433359  
4708.000000	65.451169  
4707.000000	65.462398  
4706.000000	65.466332  
4705.000000	65.465331  
4704.000000	65.463280  
4703.000000	65.464830  
4702.000000	65.474152  
4701.000000	65.493202  
4700.000000	65.521025  
4699.000000	65.553998  
4698.000000	65.587067  
4697.000000	65.614962  
4696.000000	65.634036  
4695.000000	65.642952  
4694.000000	65.642857  
4693.000000	65.637040  
4692.000000	65.629911  
4691.000000	65.625143  
4690.000000	65.624761  
4689.000000	65.628242  
4688.000000	65.632677  
4687.000000	65.633654  
4686.000000	65.626645  
4685.000000	65.608263  
4684.000000	65.577626  
4683.000000	65.536046  
4682.000000	65.487003  
4681.000000	65.435338  
4680.000000	65.386199  
4679.000000	65.343832  
4678.000000	65.310597  
4677.000000	65.287089  
4676.000000	65.271997  
4675.000000	65.262746  
4674.000000	65.256190  
4673.000000	65.249133  
4672.000000	65.239596  
4671.000000	65.227079  
4670.000000	65.212917  
4669.000000	65.199327  
4668.000000	65.189456  
4667.000000	65.186262  
4666.000000	65.192103  
4665.000000	65.207695  
4664.000000	65.232610  
4663.000000	65.265226  
4662.000000	65.303349  
4661.000000	65.344524  
4660.000000	65.386843  
4659.000000	65.429043  
4658.000000	65.470552  
4657.000000	65.511488  
4656.000000	65.552496  
4655.000000	65.594339  
4654.000000	65.637588  
4653.000000	65.682268  
4652.000000	65.727996  
4651.000000	65.773463  
4650.000000	65.817356  
4649.000000	65.857481  
4648.000000	65.891385  
4647.000000	65.915894  
4646.000000	65.928435  
4645.000000	65.926694  
4644.000000	65.909671  
4643.000000	65.877747  
4642.000000	65.833258  
4641.000000	65.779948  
4640.000000	65.722990  
4639.000000	65.667843  
4638.000000	65.619754  
4637.000000	65.582609  
4636.000000	65.558505  
4635.000000	65.547132  
4634.000000	65.545892  
4633.000000	65.550374  
4632.000000	65.555191  
4631.000000	65.554594  
4630.000000	65.543794  
4629.000000	65.520262  
4628.000000	65.484356  
4627.000000	65.439176  
4626.000000	65.390014  
4625.000000	65.343642  
4624.000000	65.306353  
4623.000000	65.283036  
4622.000000	65.275549  
4621.000000	65.282464  
4620.000000	65.299081  
4619.000000	65.318608  
4618.000000	65.334033  
4617.000000	65.339398  
4616.000000	65.331697  
4615.000000	65.311217  
4614.000000	65.281605  
4613.000000	65.248489  
4612.000000	65.218114  
4611.000000	65.195727  
4610.000000	65.183949  
4609.000000	65.182161  
4608.000000	65.186738  
4607.000000	65.192389  
4606.000000	65.193223  
4605.000000	65.184783  
4604.000000	65.164804  
4603.000000	65.134167  
4602.000000	65.096855  
4601.000000	65.059351  
4600.000000	65.028715  
4599.000000	65.011596  
4598.000000	65.013027  
4597.000000	65.035486  
4596.000000	65.078473  
4595.000000	65.138649  
4594.000000	65.210390  
4593.000000	65.286874  
4592.000000	65.361118  
4591.000000	65.426993  
4590.000000	65.479826  
4589.000000	65.517330  
4588.000000	65.539407  
4587.000000	65.548133  
4586.000000	65.547037  
4585.000000	65.539813  
4584.000000	65.530300  
4583.000000	65.520167  
4582.000000	65.509533  
4581.000000	65.496063  
4580.000000	65.476489  
4579.000000	65.446615  
4578.000000	65.402960  
4577.000000	65.343689  
4576.000000	65.269565  
4575.000000	65.183806  
4574.000000	65.091872  
4573.000000	64.999890  
4572.000000	64.914059  
4571.000000	64.839816  
4570.000000	64.781332  
4569.000000	64.740133  
4568.000000	64.715933  
4567.000000	64.706778  
4566.000000	64.710164  
4565.000000	64.722704  
4564.000000	64.741849  
4563.000000	64.765357  
4562.000000	64.792323  
4561.000000	64.821958  
4560.000000	64.853763  
4559.000000	64.886426  
4558.000000	64.918351  
4557.000000	64.947056  
4556.000000	64.970493  
4555.000000	64.987158  
4554.000000	64.997029  
4553.000000	65.001535  
4552.000000	65.003275  
4551.000000	65.005016  
4550.000000	65.008878  
4549.000000	65.014767  
4548.000000	65.019273  
4547.000000	65.015435  
4546.000000	64.994382  
4545.000000	64.947247  
4544.000000	64.867043  
4543.000000	64.751386  
4542.000000	64.603996  
4541.000000	64.435529  
4540.000000	64.260959  
4539.000000	64.098620  
4538.000000	63.966202  
4537.000000	63.878774  
4536.000000	63.845896  
4535.000000	63.870191  
4534.000000	63.946843  
4533.000000	64.064097  
4532.000000	64.205431  
4531.000000	64.351487  
4530.000000	64.482593  
4529.000000	64.582419  
4528.000000	64.639830  
4527.000000	64.650845  
4526.000000	64.618325  
4525.000000	64.552164  
4524.000000	64.466738  
4523.000000	64.378523  
4522.000000	64.302730  
4521.000000	64.250493  
4520.000000	64.226913  
4519.000000	64.231109  
4518.000000	64.256906  
4517.000000	64.295291  
4516.000000	64.336609  
4515.000000	64.373373  
4514.000000	64.400887  
4513.000000	64.417028  
4512.000000	64.421916  
4511.000000	64.416694  
4510.000000	64.402961  
4509.000000	64.381504  
4508.000000	64.352726  
4507.000000	64.317893  
4506.000000	64.278411  
4505.000000	64.236664  
4504.000000	64.195203  
4503.000000	64.156866  
4502.000000	64.123845  
4501.000000	64.097523  
4500.000000	64.077734  
4499.000000	64.062547  
4498.000000	64.050078  
4497.000000	64.039230  
4496.000000	64.029479  
4495.000000	64.021039  
4494.000000	64.014554  
4493.000000	64.010858  
4492.000000	64.009976  
4491.000000	64.011359  
4490.000000	64.014124  
4489.000000	64.017772  
4488.000000	64.022946  
4487.000000	64.031195  
4486.000000	64.044594  
4485.000000	64.064598  
4484.000000	64.090991  
4483.000000	64.121651  
4482.000000	64.152836  
4481.000000	64.179158  
4480.000000	64.195466  
4479.000000	64.196848  
4478.000000	64.180302  
4477.000000	64.144897  
4476.000000	64.092588  
4475.000000	64.027094  
4474.000000	63.953518  
4473.000000	63.876771  
4472.000000	63.801002  
4471.000000	63.728404  
4470.000000	63.659477  
4469.000000	63.593149  
4468.000000	63.528108  
4467.000000	63.463687  
4466.000000	63.400864  
4465.000000	63.342142  
4464.000000	63.291597  
4463.000000	63.253498  
4462.000000	63.231229  
4461.000000	63.225865  
4460.000000	63.235473  
4459.000000	63.254451  
4458.000000	63.275432  
4457.000000	63.290119  
4456.000000	63.292431  
4455.000000	63.280034  
4454.000000	63.254952  
4453.000000	63.223552  
4452.000000	63.193750  
4451.000000	63.172435  
4450.000000	63.163042  
4449.000000	63.163733  
4448.000000	63.168787  
4447.000000	63.170695  
4446.000000	63.162279  
4445.000000	63.139677  
4444.000000	63.101863  
4443.000000	63.051247  
4442.000000	62.992501  
4441.000000	62.931632  
4440.000000	62.875270  
4439.000000	62.829637  
4438.000000	62.800550  
4437.000000	62.792348  
4436.000000	62.805819  
4435.000000	62.838840  
4434.000000	62.886071  
4433.000000	62.941265  
4432.000000	62.998652  
4431.000000	63.054037  
4430.000000	63.106918  
4429.000000	63.157486  
4428.000000	63.204622  
4427.000000	63.245129  
4426.000000	63.273811  
4425.000000	63.283967  
4424.000000	63.267922  
4423.000000	63.222050  
4422.000000	63.153767  
4421.000000	63.070821  
4420.000000	62.972879  
4419.000000	62.872076  
4418.000000	62.798905  
4417.000000	62.764263  
4416.000000	62.754178  
4415.000000	62.758183  
4414.000000	62.769913  
4413.000000	62.790298  
4412.000000	62.827992  
4411.000000	62.872672  
4410.000000	62.906861  
4409.000000	62.926888  
4408.000000	62.938785  
4407.000000	62.963461  
4406.000000	63.021540  
4405.000000	63.121819  
4404.000000	63.262319  
4403.000000	63.391852  
4402.000000	63.469624  
4401.000000	63.506722  
4400.000000	63.542985  
4399.000000	63.660383  
4398.000000	63.928627  
4397.000000	64.314198  
4396.000000	64.806413  
4395.000000	65.321326  
4394.000000	66.009688  
4393.000000	67.248654  
4392.000000	69.613718  
4391.000000	73.748922  
4390.000000	79.947590  
4389.000000	87.982630  
4388.000000	96.941399  
4387.000000	105.387234 
4386.000000	111.799430 
4385.000000	114.930343 
4384.000000	114.289188 
4383.000000	110.171842 
4382.000000	103.516411 
4381.000000	95.621299  
4380.000000	87.692880  
4379.000000	80.645704  
4378.000000	74.992942  
4377.000000	70.803356  
4376.000000	67.983555  
4375.000000	66.235136  
4374.000000	65.268111  
4373.000000	64.813709  
4372.000000	64.610671  
4371.000000	64.511227  
4370.000000	64.401626  
4369.000000	64.265036  
4368.000000	64.091396  
4367.000000	63.912844  
4366.000000	63.747811  
4365.000000	63.614344  
4364.000000	63.507056  
4363.000000	63.427972  
4362.000000	63.387966  
4361.000000	63.390588  
4360.000000	63.431787  
4359.000000	63.499522  
4358.000000	63.577580  
4357.000000	63.640356  
4356.000000	63.663959  
4355.000000	63.651967  
4354.000000	63.624811  
4353.000000	63.599467  
4352.000000	63.591384  
4351.000000	63.603496  
4350.000000	63.629984  
4349.000000	63.678288  
4348.000000	63.748931  
4347.000000	63.815116  
4346.000000	63.850307  
4345.000000	63.850855  
4344.000000	63.820195  
4343.000000	63.763284  
4342.000000	63.691496  
4341.000000	63.619232  
4340.000000	63.558936  
4339.000000	63.517713  
4338.000000	63.497328  
4337.000000	63.494801  
4336.000000	63.503217  
4335.000000	63.514852  
4334.000000	63.523936  
4333.000000	63.529276  
4332.000000	63.535380  
4331.000000	63.551402  
4330.000000	63.589000  
4329.000000	63.658142  
4328.000000	63.763523  
4327.000000	63.901281  
4326.000000	64.059019  
4325.000000	64.216589  
4324.000000	64.351391  
4323.000000	64.441728  
4322.000000	64.473199  
4321.000000	64.440226  
4320.000000	64.347791  
4319.000000	64.209270  
4318.000000	64.043879  
4317.000000	63.871550  
4316.000000	63.709402  
4315.000000	63.568568  
4314.000000	63.454151  
4313.000000	63.365626  
4312.000000	63.299655  
4311.000000	63.252043  
4310.000000	63.220357  
4309.000000	63.203430  
4308.000000	63.201189  
4307.000000	63.213396  
4306.000000	63.238692  
4305.000000	63.273835  
4304.000000	63.313937  
4303.000000	63.353514  
4302.000000	63.387703  
4301.000000	63.413786  
4300.000000	63.431334  
4299.000000	63.442111  
4298.000000	63.449072  
4297.000000	63.454818  
4296.000000	63.461041  
4295.000000	63.467574  
4294.000000	63.473224  
4293.000000	63.476681  
4292.000000	63.477587  
4291.000000	63.477134  
4290.000000	63.478064  
4289.000000	63.484025  
4288.000000	63.498759  
4287.000000	63.524818  
4286.000000	63.562965  
4285.000000	63.611316  
4284.000000	63.667201  
4283.000000	63.727617  
4282.000000	63.790726  
4281.000000	63.856005  
4280.000000	63.924312  
4279.000000	63.996887  
4278.000000	64.073896  
4277.000000	64.153695  
4276.000000	64.232087  
4275.000000	64.303231  
4274.000000	64.361524  
4273.000000	64.402604  
4272.000000	64.425706  
4271.000000	64.433145  
4270.000000	64.430236  
4269.000000	64.423251  
4268.000000	64.418125  
4267.000000	64.418816  
4266.000000	64.426589  
4265.000000	64.440345  
4264.000000	64.457917  
4263.000000	64.476466  
4262.000000	64.494538  
4261.000000	64.510917  
4260.000000	64.525485  
4259.000000	64.537239  
4258.000000	64.544105  
4257.000000	64.542388  
4256.000000	64.527344  
4255.000000	64.494824  
4254.000000	64.442801  
4253.000000	64.372801  
4252.000000	64.290332  
4251.000000	64.204239  
4250.000000	64.124846  
4249.000000	64.061141  
4248.000000	64.019250  
4247.000000	64.000964  
4246.000000	64.004445  
4245.000000	64.024543  
4244.000000	64.055395  
4243.000000	64.092326  
4242.000000	64.133000  
4241.000000	64.176964  
4240.000000	64.225149  
4239.000000	64.277529  
4238.000000	64.332580  
4237.000000	64.385890  
4236.000000	64.431643  
4235.000000	64.463639  
4234.000000	64.477849  
4233.000000	64.474153  
4232.000000	64.456534  
4231.000000	64.432740  
4230.000000	64.411664  
4229.000000	64.401173  
4228.000000	64.405918  
4227.000000	64.426326  
4226.000000	64.458656  
4225.000000	64.496374  
4224.000000	64.532423  
4223.000000	64.561414  
4222.000000	64.581251  
4221.000000	64.593267  
4220.000000	64.600777  
4219.000000	64.607882  
4218.000000	64.617729  
4217.000000	64.631676  
4216.000000	64.647960  
4215.000000	64.663267  
4214.000000	64.674329  
4213.000000	64.679193  
4212.000000	64.679026  
4211.000000	64.676976  
4210.000000	64.677524  
4209.000000	64.684557  
4208.000000	64.700365  
4207.000000	64.723634  
4206.000000	64.749574  
4205.000000	64.770627  
4204.000000	64.778661  
4203.000000	64.766979  
4202.000000	64.732503  
4201.000000	64.676237  
4200.000000	64.603281  
4199.000000	64.521360  
4198.000000	64.439630  
4197.000000	64.366531  
4196.000000	64.309024  
4195.000000	64.271855  
4194.000000	64.258122  
4193.000000	64.269924  
4192.000000	64.308261  
4191.000000	64.373135  
4190.000000	64.461827  
4189.000000	64.568710  
4188.000000	64.683818  
4187.000000	64.793658  
4186.000000	64.882397  
4185.000000	64.934039  
4184.000000	64.936518  
4183.000000	64.884543  
4182.000000	64.782238  
4181.000000	64.643144  
4180.000000	64.488220  
4179.000000	64.342212  
4178.000000	64.227843  
4177.000000	64.161181  
4176.000000	64.148807  
4175.000000	64.187240  
4174.000000	64.264798  
4173.000000	64.365243  
4172.000000	64.472246  
4171.000000	64.572858  
4170.000000	64.658594  
4169.000000	64.725852  
4168.000000	64.774060  
4167.000000	64.804673  
4166.000000	64.818954  
4165.000000	64.818167  
4164.000000	64.803671  
4163.000000	64.777565  
4162.000000	64.744281  
4161.000000	64.709782  
4160.000000	64.682054  
4159.000000	64.668321  
4158.000000	64.673995  
4157.000000	64.700746  
4156.000000	64.745306  
4155.000000	64.801096  
4154.000000	64.859652  
4153.000000	64.913153  
4152.000000	64.956259  
4151.000000	64.987778  
4150.000000	65.010190  
4149.000000	65.029215  
4148.000000	65.051674  
4147.000000	65.083789  
4146.000000	65.129041  
4145.000000	65.188193  
4144.000000	65.258574  
4143.000000	65.334773  
4142.000000	65.409421  
4141.000000	65.474367  
4140.000000	65.522170  
4139.000000	65.547513  
4138.000000	65.548181  
4137.000000	65.525078  
4136.000000	65.482592  
4135.000000	65.427899  
4134.000000	65.369772  
4133.000000	65.317654  
4132.000000	65.279078  
4131.000000	65.258979  
4130.000000	65.258073  
4129.000000	65.273404  
4128.000000	65.298843  
4127.000000	65.326952  
4126.000000	65.351057  
4125.000000	65.366291  
4124.000000	65.371465  
4123.000000	65.368962  
4122.000000	65.363550  
4121.000000	65.360450  
4120.000000	65.364027  
4119.000000	65.376353  
4118.000000	65.396451  
4117.000000	65.420579  
4116.000000	65.443706  
4115.000000	65.460777  
4114.000000	65.468716  
4113.000000	65.467309  
4112.000000	65.459346  
4111.000000	65.450000  
4110.000000	65.444898  
4109.000000	65.448689  
4108.000000	65.464210  
4107.000000	65.491366  
4106.000000	65.527415  
4105.000000	65.567326  
4104.000000	65.605854  
4103.000000	65.637636  
4102.000000	65.659141  
4101.000000	65.667891  
4100.000000	65.662980  
4099.000000	65.644407  
4098.000000	65.612936  
4097.000000	65.569758  
4096.000000	65.516638  
4095.000000	65.456414  
4094.000000	65.393137  
4093.000000	65.332221  
4092.000000	65.280079  
4091.000000	65.243029  
4090.000000	65.226244  
4089.000000	65.232205  
4088.000000	65.260004  
4087.000000	65.305185  
4086.000000	65.360522  
4085.000000	65.417265  
4084.000000	65.466713  
4083.000000	65.502119  
4082.000000	65.519261  
4081.000000	65.517067  
4080.000000	65.497231  
4079.000000	65.462923  
4078.000000	65.418505  
4077.000000	65.368533  
4076.000000	65.317249  
4075.000000	65.268278  
4074.000000	65.224504  
4073.000000	65.188527  
4072.000000	65.162277  
4071.000000	65.147113  
4070.000000	65.143609  
4069.000000	65.151262  
4068.000000	65.168571  
4067.000000	65.192914  
4066.000000	65.221381  
4065.000000	65.250992  
4064.000000	65.279483  
4063.000000	65.305805  
4062.000000	65.329861  
4061.000000	65.352511  
4060.000000	65.375113  
4059.000000	65.399050  
4058.000000	65.425252  
4057.000000	65.453290  
4056.000000	65.482020  
4055.000000	65.508723  
4054.000000	65.529799  
4053.000000	65.540766  
4052.000000	65.537524  
4051.000000	65.517163  
4050.000000	65.479230  
4049.000000	65.426301  
4048.000000	65.363669  
4047.000000	65.299367  
4046.000000	65.242433  
4045.000000	65.201663  
4044.000000	65.183711  
4043.000000	65.191602  
4042.000000	65.224051  
4041.000000	65.275621  
4040.000000	65.337967  
4039.000000	65.401339  
4038.000000	65.456581  
4037.000000	65.496945  
4036.000000	65.519165  
4035.000000	65.523695  
4034.000000	65.514349  
4033.000000	65.496754  
4032.000000	65.477275  
4031.000000	65.461921  
4030.000000	65.455245  
4029.000000	65.459895  
4028.000000	65.475821  
4027.000000	65.501260  
4026.000000	65.532326  
4025.000000	65.564346  
4024.000000	65.592241  
4023.000000	65.611648  
4022.000000	65.619325  
4021.000000	65.613651  
4020.000000	65.594959  
4019.000000	65.565323  
4018.000000	65.528178  
4017.000000	65.488004  
4016.000000	65.449595  
4015.000000	65.417170  
4014.000000	65.394210  
4013.000000	65.383219  
4012.000000	65.385270  
4011.000000	65.400004  
4010.000000	65.425491  
4009.000000	65.458369  
4008.000000	65.494251  
4007.000000	65.528273  
4006.000000	65.555214  
4005.000000	65.570735  
4004.000000	65.572357  
4003.000000	65.560054  
4002.000000	65.536355  
4001.000000	65.505719  
4000.000000	65.473723  
3999.000000	65.445494  
3998.000000	65.424728  
3997.000000	65.412807  
3996.000000	65.408587  
3995.000000	65.409088  
3994.000000	65.410304  
3993.000000	65.409040  
3992.000000	65.403819  
3991.000000	65.395569  
3990.000000	65.387225  
3989.000000	65.382862  
3988.000000	65.386414  
3987.000000	65.400171  
3986.000000	65.423727  
3985.000000	65.453886  
3984.000000	65.484952  
3983.000000	65.510463  
3982.000000	65.524697  
3981.000000	65.523910  
3980.000000	65.507483  
3979.000000	65.477895  
3978.000000	65.439891  
3977.000000	65.399622  
3976.000000	65.362858  
3975.000000	65.333724  
3974.000000	65.313863  
3973.000000	65.302705  
3972.000000	65.297722  
3971.000000	65.295553  
3970.000000	65.292906  
3969.000000	65.287470  
3968.000000	65.278315  
3967.000000	65.265822  
3966.000000	65.251517  
3965.000000	65.236997  
3964.000000	65.224146  
3963.000000	65.214061  
3962.000000	65.207624  
3961.000000	65.205359  
3960.000000	65.207719  
3959.000000	65.214991  
3958.000000	65.227675  
3957.000000	65.246176  
3956.000000	65.270423  
3955.000000	65.299248  
3954.000000	65.330386  
3953.000000	65.360355  
3952.000000	65.384984  
3951.000000	65.400075  
3950.000000	65.402507  
3949.000000	65.390825  
3948.000000	65.365839  
3947.000000	65.330171  
3946.000000	65.287661  
3945.000000	65.242671  
3944.000000	65.199470  
3943.000000	65.161442  
3942.000000	65.130805  
3941.000000	65.108680  
3940.000000	65.095639  
3939.000000	65.091466  
3938.000000	65.095567  
3937.000000	65.106606  
3936.000000	65.122318  
3935.000000	65.139603  
3934.000000	65.154623  
3933.000000	65.163135  
3932.000000	65.161347  
3931.000000	65.146708  
3930.000000	65.118646  
3929.000000	65.079069  
3928.000000	65.032029  
3927.000000	64.983105  
3926.000000	64.938354  
3925.000000	64.902997  
3924.000000	64.880657  
3923.000000	64.872598  
3922.000000	64.877939  
3921.000000	64.893960  
3920.000000	64.917325  
3919.000000	64.944529  
3918.000000	64.973044  
3917.000000	65.001201  
3916.000000	65.028238  
3915.000000	65.053677  
3914.000000	65.076971  
3913.000000	65.097332  
3912.000000	65.113258  
3911.000000	65.122771  
3910.000000	65.123915  
3909.000000	65.115809  
3908.000000	65.098404  
3907.000000	65.072870  
3906.000000	65.041518  
3905.000000	65.007400  
3904.000000	64.973831  
3903.000000	64.944005  
3902.000000	64.920330  
3901.000000	64.904403  
3900.000000	64.897179  
3899.000000	64.899206  
3898.000000	64.910459  
3897.000000	64.930510  
3896.000000	64.958167  
3895.000000	64.991664  
3894.000000	65.028572  
3893.000000	65.066027  
3892.000000	65.100502  
3891.000000	65.129017  
3890.000000	65.149450  
3889.000000	65.161347  
3888.000000	65.165662  
3887.000000	65.165138  
3886.000000	65.163350  
3885.000000	65.164065  
3884.000000	65.170788  
3883.000000	65.185189  
3882.000000	65.207123  
3881.000000	65.233922  
3880.000000	65.261721  
3879.000000	65.285348  
3878.000000	65.299892  
3877.000000	65.301227  
3876.000000	65.287160  
3875.000000	65.257668  
3874.000000	65.215063  
3873.000000	65.163421  
3872.000000	65.107989  
3871.000000	65.054535  
3870.000000	65.008521  
3869.000000	64.974451  
3868.000000	64.955377  
3867.000000	64.952754  
3866.000000	64.966344  
3865.000000	64.994740  
3864.000000	65.035152  
3863.000000	65.083694  
3862.000000	65.135526  
3861.000000	65.185308  
3860.000000	65.227437  
3859.000000	65.256476  
3858.000000	65.267729  
3857.000000	65.258121  
3856.000000	65.226626  
3855.000000	65.174984  
3854.000000	65.107369  
3853.000000	65.030121  
3852.000000	64.950895  
3851.000000	64.877843  
3850.000000	64.818215  
3849.000000	64.777779  
3848.000000	64.759516  
3847.000000	64.763712  
3846.000000	64.787769  
3845.000000	64.827036  
3844.000000	64.875316  
3843.000000	64.926242  
3842.000000	64.973735  
3841.000000	65.012979  
3840.000000	65.040731  
3839.000000	65.055155  
3838.000000	65.055704  
3837.000000	65.042757  
3836.000000	65.017700  
3835.000000	64.982724  
3834.000000	64.940977  
3833.000000	64.896488  
3832.000000	64.854311  
3831.000000	64.819669  
3830.000000	64.797735  
3829.000000	64.791893  
3828.000000	64.803409  
3827.000000	64.830422  
3826.000000	64.867830  
3825.000000	64.908480  
3824.000000	64.944410  
3823.000000	64.968919  
3822.000000	64.978003  
3821.000000	64.971899  
3820.000000	64.954733  
3819.000000	64.933156  
3818.000000	64.914441  
3817.000000	64.904713  
3816.000000	64.907240  
3815.000000	64.921569  
3814.000000	64.943814  
3813.000000	64.968132  
3812.000000	64.988160  
3811.000000	64.999294  
3810.000000	64.999508  
3809.000000	64.989781  
3808.000000	64.973783  
3807.000000	64.956378  
3806.000000	64.942860  
3805.000000	64.937043  
3804.000000	64.941024  
3803.000000	64.954876  
3802.000000	64.977049  
3801.000000	65.005278  
3800.000000	65.036916  
3799.000000	65.069603  
3798.000000	65.101480  
3797.000000	65.131139  
3796.000000	65.157985  
3795.000000	65.181970  
3794.000000	65.203595  
3793.000000	65.223431  
3792.000000	65.242409  
3791.000000	65.261435  
3790.000000	65.281009  
3789.000000	65.301060  
3788.000000	65.320611  
3787.000000	65.337967  
3786.000000	65.351128  
3785.000000	65.358281  
3784.000000	65.358567  
3783.000000	65.352106  
3782.000000	65.340566  
3781.000000	65.326380  
3780.000000	65.312528  
3779.000000	65.301489  
3778.000000	65.294694  
3777.000000	65.292334  
3776.000000	65.293312  
3775.000000	65.295433  
3774.000000	65.296554  
3773.000000	65.294218  
3772.000000	65.286397  
3771.000000	65.271377  
3770.000000	65.248084  
3769.000000	65.216040  
3768.000000	65.175819  
3767.000000	65.128970  
3766.000000	65.078163  
3765.000000	65.027713  
3764.000000	64.982867  
3763.000000	64.949274  
3762.000000	64.931797  
3761.000000	64.933204  
3760.000000	64.953327  
3759.000000	64.988493  
3758.000000	65.032529  
3757.000000	65.077400  
3756.000000	65.115618  
3755.000000	65.141415  
3754.000000	65.152597  
3753.000000	65.150547  
3752.000000	65.140128  
3751.000000	65.127921  
3750.000000	65.120601  
3749.000000	65.123152  
3748.000000	65.137529  
3747.000000	65.162491  
3746.000000	65.193676  
3745.000000	65.225267  
3744.000000	65.251183  
3743.000000	65.267157  
3742.000000	65.271162  
3741.000000	65.264081  
3740.000000	65.249180  
3739.000000	65.231418  
3738.000000	65.216064  
3737.000000	65.207552  
3736.000000	65.209102  
3735.000000	65.222072  
3734.000000	65.246081  
3733.000000	65.278768  
3732.000000	65.316987  
3731.000000	65.356779  
3730.000000	65.394139  
3729.000000	65.425229  
3728.000000	65.447020  
3727.000000	65.457463  
3726.000000	65.455770  
3725.000000	65.442490  
3724.000000	65.419530  
3723.000000	65.389466  
3722.000000	65.355372  
3721.000000	65.320038  
3720.000000	65.285801  
3719.000000	65.253901  
3718.000000	65.224909  
3717.000000	65.198802  
3716.000000	65.175437  
3715.000000	65.155577  
3714.000000	65.140795  
3713.000000	65.133404  
3712.000000	65.135645  
3711.000000	65.149140  
3710.000000	65.173935  
3709.000000	65.207886  
3708.000000	65.246582  
3707.000000	65.283989  
3706.000000	65.313839  
3705.000000	65.330862  
3704.000000	65.332198  
3703.000000	65.317988  
3702.000000	65.291833  
3701.000000	65.259552  
3700.000000	65.228557  
3699.000000	65.206146  
3698.000000	65.198135  
3697.000000	65.207529  
3696.000000	65.234208  
3695.000000	65.275168  
3694.000000	65.324974  
3693.000000	65.377163  
3692.000000	65.425062  
3691.000000	65.462994  
3690.000000	65.487003  
3689.000000	65.495371  
3688.000000	65.488553  
3687.000000	65.468883  
3686.000000	65.440082  
3685.000000	65.406513  
3684.000000	65.372443  
3683.000000	65.341186  
3682.000000	65.315103  
3681.000000	65.295386  
3680.000000	65.282344  
3679.000000	65.275716  
3678.000000	65.275001  
3677.000000	65.279531  
3676.000000	65.288710  
3675.000000	65.301823  
3674.000000	65.317654  
3673.000000	65.334749  
3672.000000	65.351176  
3671.000000	65.364885  
3670.000000	65.374016  
3669.000000	65.377402  
3668.000000	65.374946  
3667.000000	65.367650  
3666.000000	65.357351  
3665.000000	65.346217  
3664.000000	65.336322  
3663.000000	65.328907  
3662.000000	65.324068  
3661.000000	65.321111  
3660.000000	65.318727  
3659.000000	65.315532  
3658.000000	65.310382  
3657.000000	65.302801  
3656.000000	65.293002  
3655.000000	65.281534  
3654.000000	65.269517  
3653.000000	65.257954  
3652.000000	65.247988  
3651.000000	65.240836  
3650.000000	65.237855  
3649.000000	65.240550  
3648.000000	65.250182  
3647.000000	65.267682  
3646.000000	65.292859  
3645.000000	65.324378  
3644.000000	65.358972  
3643.000000	65.392041  
3642.000000	65.418362  
3641.000000	65.433144  
3640.000000	65.433382  
3639.000000	65.418457  
3638.000000	65.390801  
3637.000000	65.355420  
3636.000000	65.318965  
3635.000000	65.288376  
3634.000000	65.269041  
3633.000000	65.263938  
3632.000000	65.272951  
3631.000000	65.293240  
3630.000000	65.320014  
3629.000000	65.348196  
3628.000000	65.373349  
3627.000000	65.393114  
3626.000000	65.407061  
3625.000000	65.416789  
3624.000000	65.424752  
3623.000000	65.433359  
3622.000000	65.443825  
3621.000000	65.455150  
3620.000000	65.465307  
3619.000000	65.470576  
3618.000000	65.467405  
3617.000000	65.452671  
3616.000000	65.425276  
3615.000000	65.386152  
3614.000000	65.338134  
3613.000000	65.285873  
3612.000000	65.234446  
3611.000000	65.189099  
3610.000000	65.154170  
3609.000000	65.132451  
3608.000000	65.124726  
3607.000000	65.129971  
3606.000000	65.145611  
3605.000000	65.167641  
3604.000000	65.191626  
3603.000000	65.213227  
3602.000000	65.229320  
3601.000000	65.238189  
3600.000000	65.240454  
3599.000000	65.238451  
3598.000000	65.236353  
3597.000000	65.238738  
3596.000000	65.249848  
3595.000000	65.272593  
3594.000000	65.307402  
3593.000000	65.352463  
3592.000000	65.403747  
3591.000000	65.456151  
3590.000000	65.504217  
3589.000000	65.543770  
3588.000000	65.571928  
3587.000000	65.587830  
3586.000000	65.591859  
3585.000000	65.585708  
3584.000000	65.570902  
3583.000000	65.548706  
3582.000000	65.519666  
3581.000000	65.484023  
3580.000000	65.441727  
3579.000000	65.393257  
3578.000000	65.340042  
3577.000000	65.284872  
3576.000000	65.231752  
3575.000000	65.185618  
3574.000000	65.151214  
3573.000000	65.132427  
3572.000000	65.131449  
3571.000000	65.148448  
3570.000000	65.181088  
3569.000000	65.225315  
3568.000000	65.275955  
3567.000000	65.327692  
3566.000000	65.375566  
3565.000000	65.416002  
3564.000000	65.446782  
3563.000000	65.467548  
3562.000000	65.479016  
3561.000000	65.483069  
3560.000000	65.482115  
3559.000000	65.478420  
3558.000000	65.474128  
3557.000000	65.470290  
3556.000000	65.467309  
3555.000000	65.464377  
3554.000000	65.460228  
3553.000000	65.453004  
3552.000000	65.441036  
3551.000000	65.423345  
3550.000000	65.400028  
3549.000000	65.372610  
3548.000000	65.343642  
3547.000000	65.316557  
3546.000000	65.294742  
3545.000000	65.280556  
3544.000000	65.275001  
3543.000000	65.277290  
3542.000000	65.285301  
3541.000000	65.295696  
3540.000000	65.305185  
3539.000000	65.311169  
3538.000000	65.312719  
3537.000000	65.310478  
3536.000000	65.306735  
3535.000000	65.304088  
3534.000000	65.305161  
3533.000000	65.311789  
3532.000000	65.324449  
3531.000000	65.342068  
3530.000000	65.362524  
3529.000000	65.383481  
3528.000000	65.402674  
3527.000000	65.418601  
3526.000000	65.430140  
3525.000000	65.436697  
3524.000000	65.437674  
3523.000000	65.432596  
3522.000000	65.421080  
3521.000000	65.403175  
3520.000000	65.379738  
3519.000000	65.352988  
3518.000000	65.326285  
3517.000000	65.303850  
3516.000000	65.290021  
3515.000000	65.288305  
3514.000000	65.300464  
3513.000000	65.325927  
3512.000000	65.361547  
3511.000000	65.401959  
3510.000000	65.440797  
3509.000000	65.471410  
3508.000000	65.488648  
3507.000000	65.489411  
3506.000000	65.473055  
3505.000000	65.441584  
3504.000000	65.399122  
3503.000000	65.351104  
3502.000000	65.303301  
3501.000000	65.260863  
3500.000000	65.227627  
3499.000000	65.205931  
3498.000000	65.196609  
3497.000000	65.198683  
3496.000000	65.209722  
3495.000000	65.226411  
3494.000000	65.245199  
3493.000000	65.262484  
3492.000000	65.275406  
3491.000000	65.281653  
3490.000000	65.280055  
3489.000000	65.270686  
3488.000000	65.254712  
3487.000000	65.233874  
3486.000000	65.210580  
3485.000000	65.187478  
3484.000000	65.167665  
3483.000000	65.154147  
3482.000000	65.149903  
3481.000000	65.157508  
3480.000000	65.178561  
3479.000000	65.213441  
3478.000000	65.260124  
3477.000000	65.314626  
3476.000000	65.370035  
3475.000000	65.417885  
3474.000000	65.448904  
3473.000000	65.455126  
3472.000000	65.431332  
3471.000000	65.376949  
3470.000000	65.296721  
3469.000000	65.200471  
3468.000000	65.101432  
3467.000000	65.014147  
3466.000000	64.951777  
3465.000000	64.923763  
3464.000000	64.934039  
3463.000000	64.980554  
3462.000000	65.055966  
3461.000000	65.149211  
3460.000000	65.247607  
3459.000000	65.339255  
3458.000000	65.414404  
3457.000000	65.467286  
3456.000000	65.496039  
3455.000000	65.502691  
3454.000000	65.491628  
3453.000000	65.468645  
3452.000000	65.439772  
3451.000000	65.409874  
3450.000000	65.382742  
3449.000000	65.359950  
3448.000000	65.341973  
3447.000000	65.327596  
3446.000000	65.315175  
3445.000000	65.302848  
3444.000000	65.289425  
3443.000000	65.274405  
3442.000000	65.258359  
3441.000000	65.243220  
3440.000000	65.232038  
3439.000000	65.228486  
3438.000000	65.235900  
3437.000000	65.256547  
3436.000000	65.290641  
3435.000000	65.336441  
3434.000000	65.389800  
3433.000000	65.444684  
3432.000000	65.494203  
3431.000000	65.531659  
3430.000000	65.551829  
3429.000000	65.552282  
3428.000000	65.533542  
3427.000000	65.498638  
3426.000000	65.452766  
3425.000000	65.402650  
3424.000000	65.354728  
3423.000000	65.314245  
3422.000000	65.284204  
3421.000000	65.265250  
3420.000000	65.255808  
3419.000000	65.253043  
3418.000000	65.253376  
3417.000000	65.253806  
3416.000000	65.252375  
3415.000000	65.248608  
3414.000000	65.243554  
3413.000000	65.239238  
3412.000000	65.238070  
3411.000000	65.241646  
3410.000000	65.250515  
3409.000000	65.263390  
3408.000000	65.277910  
3407.000000	65.290522  
3406.000000	65.297818  
3405.000000	65.296673  
3404.000000	65.285539  
3403.000000	65.264248  
3402.000000	65.234208  
3401.000000	65.198111  
3400.000000	65.158963  
3399.000000	65.120148  
3398.000000	65.084934  
3397.000000	65.056133  
3396.000000	65.035820  
3395.000000	65.025019  
3394.000000	65.023708  
3393.000000	65.030717  
3392.000000	65.044069  
3391.000000	65.060925  
3390.000000	65.077996  
3389.000000	65.092182  
3388.000000	65.101194  
3387.000000	65.103983  
3386.000000	65.100932  
3385.000000	65.093803  
3384.000000	65.085387  
3383.000000	65.078902  
3382.000000	65.077185  
3381.000000	65.082311  
3380.000000	65.094852  
3379.000000	65.114045  
3378.000000	65.137553  
3377.000000	65.162324  
3376.000000	65.184760  
3375.000000	65.201163  
3374.000000	65.208411  
3373.000000	65.204286  
3372.000000	65.188264  
3371.000000	65.161347  
3370.000000	65.126538  
3369.000000	65.088295  
3368.000000	65.051937  
3367.000000	65.022540  
3366.000000	65.004253  
3365.000000	64.999628  
3364.000000	65.009045  
3363.000000	65.030622  
3362.000000	65.060687  
3361.000000	65.094661  
3360.000000	65.127849  
3359.000000	65.156507  
3358.000000	65.178251  
3357.000000	65.192437  
3356.000000	65.200138  
3355.000000	65.203666  
3354.000000	65.205788  
3353.000000	65.209007  
3352.000000	65.215134  
3351.000000	65.224599  
3350.000000	65.236949  
3349.000000	65.250349  
3348.000000	65.262532  
3347.000000	65.271019  
3346.000000	65.273761  
3345.000000	65.269947  
3344.000000	65.260148  
3343.000000	65.246391  
3342.000000	65.231728  
3341.000000	65.219712  
3340.000000	65.213489  
3339.000000	65.215349  
3338.000000	65.226054  
3337.000000	65.244841  
3336.000000	65.269517  
3335.000000	65.296983  
3334.000000	65.323877  
3333.000000	65.346956  
3332.000000	65.363764  
3331.000000	65.372610  
3330.000000	65.372896  
3329.000000	65.364933  
3328.000000	65.349721  
3327.000000	65.328979  
3326.000000	65.304517  
3325.000000	65.278387  
3324.000000	65.252280  
3323.000000	65.227794  
3322.000000	65.205836  
3321.000000	65.186643  
3320.000000	65.169835  
3319.000000	65.154385  
3318.000000	65.139484  
3317.000000	65.124535  
3316.000000	65.109825  
3315.000000	65.096426  
3314.000000	65.086054  
3313.000000	65.080714  
3312.000000	65.082049  
3311.000000	65.090465  
3310.000000	65.105175  
3309.000000	65.123987  
3308.000000	65.143680  
3307.000000	65.160727  
3306.000000	65.172171  
3305.000000	65.176582  
3304.000000	65.174269  
3303.000000	65.167593  
3302.000000	65.160298  
3301.000000	65.156817  
3300.000000	65.161061  
3299.000000	65.175509  
3298.000000	65.200519  
3297.000000	65.234017  
3296.000000	65.272164  
3295.000000	65.309953  
3294.000000	65.342259  
3293.000000	65.365171  
3292.000000	65.376496  
3291.000000	65.376281  
3290.000000	65.366506  
3289.000000	65.350365  
3288.000000	65.331649  
3287.000000	65.313267  
3286.000000	65.296745  
3285.000000	65.282011  
3284.000000	65.267753  
3283.000000	65.252089  
3282.000000	65.233683  
3281.000000	65.212321  
3280.000000	65.189552  
3279.000000	65.168547  
3278.000000	65.153455  
3277.000000	65.148234  
3276.000000	65.155577  
3275.000000	65.176129  
3274.000000	65.207934  
3273.000000	65.246725  
3272.000000	65.286540  
3271.000000	65.321445  
3270.000000	65.346217  
3269.000000	65.357542  
3268.000000	65.354561  
3267.000000	65.338778  
3266.000000	65.313839  
3265.000000	65.284228  
3264.000000	65.254998  
3263.000000	65.230631  
3262.000000	65.214538  
3261.000000	65.208911  
3260.000000	65.214180  
3259.000000	65.229535  
3258.000000	65.252852  
3257.000000	65.281343  
3256.000000	65.311551  
3255.000000	65.340113  
3254.000000	65.364027  
3253.000000	65.381383  
3252.000000	65.391230  
3251.000000	65.393710  
3250.000000	65.390014  
3249.000000	65.381741  
3248.000000	65.370678  
3247.000000	65.358066  
3246.000000	65.344452  
3245.000000	65.329575  
3244.000000	65.312957  
3243.000000	65.294051  
3242.000000	65.272736  
3241.000000	65.249967  
3240.000000	65.227580  
3239.000000	65.208268  
3238.000000	65.194630  
3237.000000	65.188884  
3236.000000	65.192317  
3235.000000	65.204715  
3234.000000	65.224242  
3233.000000	65.248227  
3232.000000	65.273380  
3231.000000	65.296936  
3230.000000	65.316891  
3229.000000	65.332818  
3228.000000	65.345668  
3227.000000	65.357255  
3226.000000	65.369701  
3225.000000	65.384316  
3224.000000	65.401029  
3223.000000	65.418410  
3222.000000	65.433692  
3221.000000	65.443491  
3220.000000	65.444827  
3219.000000	65.436005  
3218.000000	65.417242  
3217.000000	65.390968  
3216.000000	65.361261  
3215.000000	65.333223  
3214.000000	65.311598  
3213.000000	65.299749  
3212.000000	65.298914  
3211.000000	65.308141  
3210.000000	65.324282  
3209.000000	65.342688  
3208.000000	65.357923  
3207.000000	65.365552  
3206.000000	65.362238  
3205.000000	65.346384  
3204.000000	65.318536  
3203.000000	65.281152  
3202.000000	65.238642  
3201.000000	65.196490  
3200.000000	65.160894  
3199.000000	65.137600  
3198.000000	65.131306  
3197.000000	65.144443  
3196.000000	65.176606  
3195.000000	65.224266  
3194.000000	65.280914  
3193.000000	65.338492  
3192.000000	65.388059  
3191.000000	65.422391  
3190.000000	65.436816  
3189.000000	65.430998  
3188.000000	65.408468  
3187.000000	65.376520  
3186.000000	65.344357  
3185.000000	65.321159  
3184.000000	65.314078  
3183.000000	65.326690  
3182.000000	65.358424  
3181.000000	65.404868  
3180.000000	65.459156  
3179.000000	65.513920  
3178.000000	65.562915  
3177.000000	65.602374  
3176.000000	65.631413  
3175.000000	65.651559  
3174.000000	65.665745  
3173.000000	65.676951  
3172.000000	65.687036  
3171.000000	65.695810  
3170.000000	65.700984  
3169.000000	65.699601  
3168.000000	65.689110  
3167.000000	65.668511  
3166.000000	65.638971  
3165.000000	65.604305  
3164.000000	65.569663  
3163.000000	65.540385  
3162.000000	65.520524  
3161.000000	65.511584  
3160.000000	65.512442  
3159.000000	65.520024  
3158.000000	65.529942  
3157.000000	65.537953  
3156.000000	65.540647  
3155.000000	65.536379  
3154.000000	65.525078  
3153.000000	65.507793  
3152.000000	65.486669  
3151.000000	65.464282  
3150.000000	65.443444  
3149.000000	65.426421  
3148.000000	65.415811  
3147.000000	65.414237  
3146.000000	65.423631  
3145.000000	65.444922  
3144.000000	65.477490  
3143.000000	65.519189  
3142.000000	65.566229  
3141.000000	65.613913  
3140.000000	65.657401  
3139.000000	65.693068  
3138.000000	65.719342  
3137.000000	65.737056  
3136.000000	65.748667  
3135.000000	65.757131  
3134.000000	65.765500  
3133.000000	65.775179  
3132.000000	65.785956  
3131.000000	65.795540  
3130.000000	65.801095  
3129.000000	65.799093  
3128.000000	65.787220  
3127.000000	65.763902  
3126.000000	65.729451  
3125.000000	65.684652  
3124.000000	65.630936  
3123.000000	65.569353  
3122.000000	65.500593  
3121.000000	65.425586  
3120.000000	65.345954  
3119.000000	65.264844  
3118.000000	65.187358  
3117.000000	65.120267  
3116.000000	65.071296  
3115.000000	65.047430  
3114.000000	65.053606  
3113.000000	65.091538  
3112.000000	65.159106  
3111.000000	65.249943  
3110.000000	65.354228  
3109.000000	65.460491  
3108.000000	65.557265  
3107.000000	65.634441  
3106.000000	65.685081  
3105.000000	65.706253  
3104.000000	65.699195  
3103.000000	65.668702  
3102.000000	65.621995  
3101.000000	65.567255  
3100.000000	65.512204  
3099.000000	65.463304  
3098.000000	65.424585  
3097.000000	65.397977  
3096.000000	65.382981  
3095.000000	65.377855  
3094.000000	65.379858  
3093.000000	65.386104  
3092.000000	65.393972  
3091.000000	65.401554  
3090.000000	65.407228  
3089.000000	65.409731  
3088.000000	65.408039  
3087.000000	65.401411  
3086.000000	65.389299  
3085.000000	65.371608  
3084.000000	65.348935  
3083.000000	65.322637  
3082.000000	65.294456  
3081.000000	65.266633  
3080.000000	65.241336  
3079.000000	65.220427  
3078.000000	65.205478  
3077.000000	65.197420  
3076.000000	65.196132  
3075.000000	65.200710  
3074.000000	65.209794  
3073.000000	65.221667  
3072.000000	65.234088  
3071.000000	65.245079  
3070.000000	65.252852  
3069.000000	65.256476  
3068.000000	65.255784  
3067.000000	65.251350  
3066.000000	65.244007  
3065.000000	65.235018  
3064.000000	65.225648  
3063.000000	65.216708  
3062.000000	65.208625  
3061.000000	65.201282  
3060.000000	65.194439  
3059.000000	65.187859  
3058.000000	65.181660  
3057.000000	65.176463  
3056.000000	65.173649  
3055.000000	65.174770  
3054.000000	65.181279  
3053.000000	65.194106  
3052.000000	65.213298  
3051.000000	65.237641  
3050.000000	65.264749  
3049.000000	65.291595  
3048.000000	65.314936  
3047.000000	65.331768  
3046.000000	65.340304  
3045.000000	65.340089  
3044.000000	65.332436  
3043.000000	65.319967  
3042.000000	65.306115  
3041.000000	65.294528  
3040.000000	65.288209  
3039.000000	65.289044  
3038.000000	65.297389  
3037.000000	65.312242  
3036.000000	65.331673  
3035.000000	65.353441  
3034.000000	65.375447  
3033.000000	65.396380  
3032.000000	65.415477  
3031.000000	65.432739  
3030.000000	65.448307  
3029.000000	65.462231  
3028.000000	65.474295  
3027.000000	65.483593  
3026.000000	65.489006  
3025.000000	65.489196  
3024.000000	65.483164  
3023.000000	65.470695  
3022.000000	65.452694  
3021.000000	65.431118  
3020.000000	65.408945  
3019.000000	65.389561  
3018.000000	65.376067  
3017.000000	65.370583  
3016.000000	65.374088  
3015.000000	65.385770  
3014.000000	65.403389  
3013.000000	65.423560  
3012.000000	65.442752  
3011.000000	65.457725  
3010.000000	65.466380  
3009.000000	65.468096  
3008.000000	65.463590  
3007.000000	65.454673  
3006.000000	65.443515  
3005.000000	65.431952  
3004.000000	65.420889  
3003.000000	65.410232  
3002.000000	65.399026  
3001.000000	65.386271  
3000.000000	65.371394  
2999.000000	65.354824  
2998.000000	65.337944  
2997.000000	65.323019  
2996.000000	65.312480  
2995.000000	65.308046  
2994.000000	65.310144  
2993.000000	65.317821  
2992.000000	65.328598  
2991.000000	65.339112  
2990.000000	65.345716  
2989.000000	65.345382  
2988.000000	65.336680  
2987.000000	65.319728  
2986.000000	65.296411  
2985.000000	65.269756  
2984.000000	65.243244  
2983.000000	65.220022  
2982.000000	65.202498  
2981.000000	65.191793  
2980.000000	65.187764  
2979.000000	65.189266  
2978.000000	65.194535  
2977.000000	65.201783  
2976.000000	65.209388  
2975.000000	65.216302  
2974.000000	65.221929  
2973.000000	65.225911  
2972.000000	65.228104  
2971.000000	65.228128  
2970.000000	65.225100  
2969.000000	65.217876  
2968.000000	65.205383  
2967.000000	65.187287  
2966.000000	65.164327  
2965.000000	65.138483  
2964.000000	65.112996  
2963.000000	65.091419  
2962.000000	65.076971  
2961.000000	65.071463  
2960.000000	65.074706  
2959.000000	65.084576  
2958.000000	65.097594  
2957.000000	65.109515  
2956.000000	65.116858  
2955.000000	65.117526  
2954.000000	65.111660  
2953.000000	65.101432  
2952.000000	65.090489  
2951.000000	65.082812  
2950.000000	65.081596  
2949.000000	65.088367  
2948.000000	65.102672  
2947.000000	65.122389  
2946.000000	65.144157  
2945.000000	65.164494  
2944.000000	65.180683  
2943.000000	65.191268  
2942.000000	65.195941  
2941.000000	65.195751  
2940.000000	65.192008  
2939.000000	65.186047  
2938.000000	65.178394  
2937.000000	65.169072  
2936.000000	65.157103  
2935.000000	65.141153  
2934.000000	65.119957  
2933.000000	65.093231  
2932.000000	65.061688  
2931.000000	65.027213  
2930.000000	64.992594  
2929.000000	64.961028  
2928.000000	64.935302  
2927.000000	64.917325  
2926.000000	64.907670  
2925.000000	64.905548  
2924.000000	64.909124  
2923.000000	64.916157  
2922.000000	64.924359  
2921.000000	64.932322  
2920.000000	64.939212  
2919.000000	64.945554  
2918.000000	64.952349  
2917.000000	64.961147  
2916.000000	64.973139  
2915.000000	64.989089  
2914.000000	65.008974  
2913.000000	65.031981  
2912.000000	65.056848  
2911.000000	65.081954  
2910.000000	65.105772  
2909.000000	65.126895  
2908.000000	65.144181  
2907.000000	65.156769  
2906.000000	65.164184  
2905.000000	65.166068  
2904.000000	65.162515  
2903.000000	65.154004  
2902.000000	65.141677  
2901.000000	65.127158  
2900.000000	65.112280  
2899.000000	65.099310  
2898.000000	65.090441  
2897.000000	65.087127  
2896.000000	65.090060  
2895.000000	65.098881  
2894.000000	65.112423  
2893.000000	65.128850  
2892.000000	65.146064  
2891.000000	65.162158  
2890.000000	65.175938  
2889.000000	65.187168  
2888.000000	65.196537  
2887.000000	65.205073  
2886.000000	65.214085  
2885.000000	65.224719  
2884.000000	65.237402  
2883.000000	65.251708  
2882.000000	65.266394  
2881.000000	65.280032  
2880.000000	65.291237  
2879.000000	65.298867  
2878.000000	65.302562  
2877.000000	65.302968  
2876.000000	65.301227  
2875.000000	65.298914  
2874.000000	65.297508  
2873.000000	65.298080  
2872.000000	65.301108  
2871.000000	65.306520  
2870.000000	65.313506  
2869.000000	65.320754  
2868.000000	65.327239  
2867.000000	65.332031  
2866.000000	65.334796  
2865.000000	65.335249  
2864.000000	65.333557  
2863.000000	65.329599  
2862.000000	65.323090  
2861.000000	65.313053  
2860.000000	65.298199  
2859.000000	65.276932  
2858.000000	65.248155  
2857.000000	65.211296  
2856.000000	65.167117  
2855.000000	65.117645  
2854.000000	65.066170  
2853.000000	65.016651  
2852.000000	64.973092  
2851.000000	64.938759  
2850.000000	64.915847  
2849.000000	64.905071  
2848.000000	64.905905  
2847.000000	64.917349  
2846.000000	64.938330  
2845.000000	64.968085  
2844.000000	65.006351  
2843.000000	65.052938  
2842.000000	65.107297  
2841.000000	65.167760  
2840.000000	65.231204  
2839.000000	65.292882  
2838.000000	65.347290  
2837.000000	65.389084  
2836.000000	65.414094  
2835.000000	65.420866  
2834.000000	65.410614  
2833.000000	65.387678  
2832.000000	65.357923  
2831.000000	65.327668  
2830.000000	65.302109  
2829.000000	65.284633  
2828.000000	65.275788  
2827.000000	65.273833  
2826.000000	65.275526  
2825.000000	65.277600  
2824.000000	65.277361  
2823.000000	65.273499  
2822.000000	65.266060  
2821.000000	65.256404  
2820.000000	65.246343  
2819.000000	65.237641  
2818.000000	65.231418  
2817.000000	65.228199  
2816.000000	65.228128  
2815.000000	65.231084  
2814.000000	65.236878  
2813.000000	65.245485  
2812.000000	65.256977  
2811.000000	65.271282  
2810.000000	65.287375  
2809.000000	65.303707  
2808.000000	65.318369  
2807.000000	65.329647  
2806.000000	65.336084  
2805.000000	65.337610  
2804.000000	65.335845  
2803.000000	65.333652  
2802.000000	65.334653  
2801.000000	65.342140  
2800.000000	65.358138  
2799.000000	65.382766  
2798.000000	65.413951  
2797.000000	65.447950  
2796.000000	65.480041  
2795.000000	65.505790  
2794.000000	65.522146  
2793.000000	65.528130  
2792.000000	65.524935  
2791.000000	65.515398  
2790.000000	65.503191  
2789.000000	65.491604  
2788.000000	65.482664  
2787.000000	65.477013  
2786.000000	65.473484  
2785.000000	65.470194  
2784.000000	65.464687  
2783.000000	65.455412  
2782.000000	65.441703  
2781.000000	65.424013  
2780.000000	65.403962  
2779.000000	65.383386  
2778.000000	65.364217  
2777.000000	65.348148  
2776.000000	65.336203  
2775.000000	65.328574  
2774.000000	65.324950  
2773.000000	65.324640  
2772.000000	65.326595  
2771.000000	65.329670  
2770.000000	65.332603  
2769.000000	65.334177  
2768.000000	65.333437  
2767.000000	65.329885  
2766.000000	65.323615  
2765.000000	65.315485  
2764.000000	65.306901  
2763.000000	65.299725  
2762.000000	65.295934  
2761.000000	65.297174  
2760.000000	65.304327  
2759.000000	65.317296  
2758.000000	65.334987  
2757.000000	65.355730  
2756.000000	65.377664  
2755.000000	65.398931  
2754.000000	65.417933  
2753.000000	65.433335  
2752.000000	65.444374  
2751.000000	65.450549  
2750.000000	65.451598  
2749.000000	65.447568  
2748.000000	65.438818  
2747.000000	65.426325  
2746.000000	65.411639  
2745.000000	65.396833  
2744.000000	65.384411  
2743.000000	65.376782  
2742.000000	65.375781  
2741.000000	65.382075  
2740.000000	65.394926  
2739.000000	65.411925  
2738.000000	65.429568  
2737.000000	65.443825  
2736.000000	65.450954  
2735.000000	65.448498  
2734.000000	65.436029  
2733.000000	65.415000  
2732.000000	65.388846  
2731.000000	65.362191  
2730.000000	65.339779  
2729.000000	65.325689  
2728.000000	65.322256  
2727.000000	65.329885  
2726.000000	65.346837  
2725.000000	65.370035  
2724.000000	65.395331  
2723.000000	65.418982  
2722.000000	65.437746  
2721.000000	65.449619  
2720.000000	65.453910  
2719.000000	65.451097  
2718.000000	65.442562  
2717.000000	65.430021  
2716.000000	65.415644  
2715.000000	65.401434  
2714.000000	65.389299  
2713.000000	65.380907  
2712.000000	65.377235  
2711.000000	65.378260  
2710.000000	65.383052  
2709.000000	65.389823  
2708.000000	65.395903  
2707.000000	65.398669  
2706.000000	65.395736  
2705.000000	65.385937  
2704.000000	65.369606  
2703.000000	65.348696  
2702.000000	65.326428  
2701.000000	65.306615  
2700.000000	65.292692  
2699.000000	65.286779  
2698.000000	65.289449  
2697.000000	65.299177  
2696.000000	65.312814  
2695.000000	65.326094  
2694.000000	65.335035  
2693.000000	65.336465  
2692.000000	65.329003  
2691.000000	65.313029  
2690.000000	65.290689  
2689.000000	65.265607  
2688.000000	65.242123  
2687.000000	65.224361  
2686.000000	65.215444  
2685.000000	65.216946  
2684.000000	65.228819  
2683.000000	65.249323  
2682.000000	65.275549  
2681.000000	65.304183  
2680.000000	65.332126  
2679.000000	65.357041  
2678.000000	65.377902  
2677.000000	65.394783  
2676.000000	65.409016  
2675.000000	65.422296  
2674.000000	65.436577  
2673.000000	65.453386  
2672.000000	65.473484  
2671.000000	65.496969  
2670.000000	65.522718  
2669.000000	65.549254  
2668.000000	65.574383  
2667.000000	65.596103  
2666.000000	65.612554  
2665.000000	65.622353  
2664.000000	65.624475  
2663.000000	65.618538  
2662.000000	65.604543  
2661.000000	65.582895  
2660.000000	65.554380  
2659.000000	65.520095  
2658.000000	65.481424  
2657.000000	65.440011  
2656.000000	65.397810  
2655.000000	65.357041  
2654.000000	65.320181  
2653.000000	65.289688  
2652.000000	65.267586  
2651.000000	65.255308  
2650.000000	65.253376  
2649.000000	65.261268  
2648.000000	65.276885  
2647.000000	65.297412  
2646.000000	65.319275  
2645.000000	65.339255  
2644.000000	65.354347  
2643.000000	65.362811  
2642.000000	65.364098  
2641.000000	65.359115  
2640.000000	65.349698  
2639.000000	65.338253  
2638.000000	65.327453  
2637.000000	65.319371  
2636.000000	65.315175  
2635.000000	65.315103  
2634.000000	65.318465  
2633.000000	65.323948  
2632.000000	65.330004  
2631.000000	65.335273  
2630.000000	65.338826  
2629.000000	65.340471  
2628.000000	65.340614  
2627.000000	65.339684  
2626.000000	65.338110  
2625.000000	65.336132  
2624.000000	65.333747  
2623.000000	65.330600  
2622.000000	65.326476  
2621.000000	65.321540  
2620.000000	65.316534  
2619.000000	65.312719  
2618.000000	65.311789  
2617.000000	65.315294  
2616.000000	65.323948  
2615.000000	65.337491  
2614.000000	65.354013  
2613.000000	65.370607  
2612.000000	65.383505  
2611.000000	65.389204  
2610.000000	65.384960  
2609.000000	65.369653  
2608.000000	65.343856  
2607.000000	65.309834  
2606.000000	65.271210  
2605.000000	65.232229  
2604.000000	65.197181  
2603.000000	65.169858  
2602.000000	65.153098  
2601.000000	65.148520  
2600.000000	65.156459  
2599.000000	65.175938  
2598.000000	65.204787  
2597.000000	65.239953  
2596.000000	65.277647  
2595.000000	65.314316  
2594.000000	65.346264  
2593.000000	65.371179  
2592.000000	65.387964  
2591.000000	65.397167  
2590.000000	65.400624  
2589.000000	65.400910  
2588.000000	65.400624  
2587.000000	65.401649  
2586.000000	65.404987  
2585.000000	65.410351  
2584.000000	65.416741  
2583.000000	65.422701  
2582.000000	65.427207  
2581.000000	65.429949  
2580.000000	65.431332  
2579.000000	65.432333  
2578.000000	65.434002  
2577.000000	65.437078  
2576.000000	65.441465  
2575.000000	65.446257  
2574.000000	65.449929  
2573.000000	65.450954  
2572.000000	65.447974  
2571.000000	65.440464  
2570.000000	65.428662  
2569.000000	65.413427  
2568.000000	65.395784  
2567.000000	65.376567  
2566.000000	65.356540  
2565.000000	65.336322  
2564.000000	65.316820  
2563.000000	65.299177  
2562.000000	65.284895  
2561.000000	65.275979  
2560.000000	65.274143  
2559.000000	65.280222  
2558.000000	65.293955  
2557.000000	65.313553  
2556.000000	65.336084  
2555.000000	65.357923  
2554.000000	65.375638  
2553.000000	65.386795  
2552.000000	65.390515  
2551.000000	65.387606  
2550.000000	65.379905  
2549.000000	65.369772  
2548.000000	65.359091  
2547.000000	65.348887  
2546.000000	65.339207  
2545.000000	65.329217  
2544.000000	65.318059  
2543.000000	65.305185  
2542.000000	65.291070  
2541.000000	65.276908  
2540.000000	65.264320  
2539.000000	65.254855  
2538.000000	65.249180  
2537.000000	65.247011  
2536.000000	65.246772  
2535.000000	65.246295  
2534.000000	65.243434  
2533.000000	65.236902  
2532.000000	65.226817  
2531.000000	65.214848  
2530.000000	65.203619  
2529.000000	65.196108  
2528.000000	65.194630  
2527.000000	65.200352  
2526.000000	65.212750  
2525.000000	65.229892  
2524.000000	65.248870  
2523.000000	65.266489  
2522.000000	65.280032  
2521.000000	65.287876  
2520.000000	65.289688  
2519.000000	65.286064  
2518.000000	65.278244  
2517.000000	65.267610  
2516.000000	65.255260  
2515.000000	65.241765  
2514.000000	65.227079  
2513.000000	65.211105  
2512.000000	65.193867  
2511.000000	65.175366  
2510.000000	65.156316  
2509.000000	65.138030  
2508.000000	65.122532  
2507.000000	65.111899  
2506.000000	65.108251  
2505.000000	65.113162  
2504.000000	65.127062  
2503.000000	65.148878  
2502.000000	65.176057  
2501.000000	65.204977  
2500.000000	65.231752  
2499.000000	65.253186  
2498.000000	65.267467  
2497.000000	65.274620  
2496.000000	65.276598  
2495.000000	65.276765  
2494.000000	65.278983  
2493.000000	65.286207  
2492.000000	65.299963  
2491.000000	65.319633  
2490.000000	65.342688  
2489.000000	65.365552  
2488.000000	65.385007  
2487.000000	65.399074  
2486.000000	65.407824  
2485.000000	65.413331  
2484.000000	65.418934  
2483.000000	65.428233  
2482.000000	65.443801  
2481.000000	65.466499  
2480.000000	65.495276  
2479.000000	65.527009  
2478.000000	65.558004  
2477.000000	65.583992  
2476.000000	65.601778  
2475.000000	65.609002  
2474.000000	65.604925  
2473.000000	65.589761  
2472.000000	65.564632  
2471.000000	65.531086  
2470.000000	65.490984  
2469.000000	65.446567  
2468.000000	65.400457  
2467.000000	65.355730  
2466.000000	65.315675  
2465.000000	65.283346  
2464.000000	65.261244  
2463.000000	65.250444  
2462.000000	65.250611  
2461.000000	65.260004  
2460.000000	65.276074  
2459.000000	65.295362  
2458.000000	65.314793  
2457.000000	65.332269  
2456.000000	65.346717  
2455.000000	65.357589  
2454.000000	65.364885  
2453.000000	65.368676  
2452.000000	65.368771  
2451.000000	65.364575  
2450.000000	65.355348  
2449.000000	65.340566  
2448.000000	65.320229  
2447.000000	65.295529  
2446.000000	65.268516  
2445.000000	65.241956  
2444.000000	65.218710  
2443.000000	65.201234  
2442.000000	65.191173  
2441.000000	65.188932  
2440.000000	65.194272  
2439.000000	65.206050  
2438.000000	65.222454  
2437.000000	65.240859  
2436.000000	65.258622  
2435.000000	65.272736  
2434.000000	65.279603  
2433.000000	65.275335  
2432.000000	65.256595  
2431.000000	65.221595  
2430.000000	65.170049  
2429.000000	65.104818  
2428.000000	65.031337  
2427.000000	64.957642  
2426.000000	64.892983  
2425.000000	64.845967  
2424.000000	64.822864  
2423.000000	64.826202  
2422.000000	64.854001  
2421.000000	64.900255  
2420.000000	64.956068  
2419.000000	65.011858  
2418.000000	65.059518  
2417.000000	65.093994  
2416.000000	65.114283  
2415.000000	65.122961  
2414.000000	65.125465  
2413.000000	65.128207  
2412.000000	65.136957  
2411.000000	65.155267  
2410.000000	65.183854  
2409.000000	65.221214  
2408.000000	65.263915  
2407.000000	65.308451  
2406.000000	65.351438  
2405.000000	65.390944  
2404.000000	65.425920  
2403.000000	65.455913  
2402.000000	65.480494  
2401.000000	65.498828  
2400.000000	65.509629  
2399.000000	65.511727  
2398.000000	65.504169  
2397.000000	65.487861  
2396.000000	65.464305  
2395.000000	65.435910  
2394.000000	65.405225  
2393.000000	65.375018  
2392.000000	65.347194  
2391.000000	65.322852  
2390.000000	65.302491  
2389.000000	65.286159  
2388.000000	65.274119  
2387.000000	65.267062  
2386.000000	65.265679  
2385.000000	65.270447  
2384.000000	65.281391  
2383.000000	65.297698  
2382.000000	65.317392  
2381.000000	65.337753  
2380.000000	65.355730  
2379.000000	65.368914  
2378.000000	65.375518  
2377.000000	65.375375  
2376.000000	65.369319  
2375.000000	65.359592  
2374.000000	65.348410  
2373.000000	65.338373  
2372.000000	65.331816  
2371.000000	65.330743  
2370.000000	65.336418  
2369.000000	65.349054  
2368.000000	65.368008  
2367.000000	65.391540  
2366.000000	65.417027  
2365.000000	65.441036  
2364.000000	65.459990  
2363.000000	65.470790  
2362.000000	65.471482  
2361.000000	65.461659  
2360.000000	65.442585  
2359.000000	65.417218  
2358.000000	65.389728  
2357.000000	65.364336  
2356.000000	65.344500  
2355.000000	65.332317  
2354.000000	65.328001  
2353.000000	65.330147  
2352.000000	65.336108  
2351.000000	65.342903  
2350.000000	65.347790  
2349.000000	65.348935  
2348.000000	65.345835  
2347.000000	65.338993  
2346.000000	65.330028  
2345.000000	65.320944  
2344.000000	65.313839  
2343.000000	65.310144  
2342.000000	65.310478  
2341.000000	65.314745  
2340.000000	65.321874  
2339.000000	65.330338  
2338.000000	65.338659  
2337.000000	65.345788  
2336.000000	65.351176  
2335.000000	65.354967  
2334.000000	65.357756  
2333.000000	65.360426  
2332.000000	65.363764  
2331.000000	65.368294  
2330.000000	65.373897  
2329.000000	65.380001  
2328.000000	65.385818  
2327.000000	65.390658  
2326.000000	65.393948  
2325.000000	65.395689  
2324.000000	65.396499  
2323.000000	65.397405  
2322.000000	65.399575  
2321.000000	65.403723  
2320.000000	65.410041  
2319.000000	65.417861  
2318.000000	65.425777  
2317.000000	65.431642  
2316.000000	65.433311  
2315.000000	65.428948  
2314.000000	65.417528  
2313.000000	65.399098  
2312.000000	65.374922  
2311.000000	65.347623  
2310.000000	65.320658  
2309.000000	65.297770  
2308.000000	65.282368  
2307.000000	65.276861  
2306.000000	65.282368  
2305.000000	65.298295  
2304.000000	65.322494  
2303.000000	65.351843  
2302.000000	65.382909  
2301.000000	65.412259  
2300.000000	65.437316  
2299.000000	65.456461  
2298.000000	65.469312  
2297.000000	65.476489  
2296.000000	65.479302  
2295.000000	65.479516  
2294.000000	65.478897  
2293.000000	65.479087  
2292.000000	65.481090  
2291.000000	65.485405  
2290.000000	65.491700  
2289.000000	65.499377  
2288.000000	65.507268  
2287.000000	65.514206  
2286.000000	65.519070  
2285.000000	65.521073  
2284.000000	65.519928  
2283.000000	65.515899  
2282.000000	65.509724  
2281.000000	65.502595  
2280.000000	65.495371  
2279.000000	65.488696  
2278.000000	65.482616  
2277.000000	65.476775  
2276.000000	65.470576  
2275.000000	65.463566  
2274.000000	65.455412  
2273.000000	65.446400  
2272.000000	65.437364  
2271.000000	65.429615  
2270.000000	65.424251  
2269.000000	65.422153  
2268.000000	65.423965  
2267.000000	65.429592  
2266.000000	65.438127  
2265.000000	65.447926  
2264.000000	65.456962  
2263.000000	65.462946  
2262.000000	65.463781  
2261.000000	65.458106  
2260.000000	65.445446  
2259.000000	65.426564  
2258.000000	65.403366  
2257.000000	65.378928  
2256.000000	65.356922  
2255.000000	65.340924  
2254.000000	65.333819  
2253.000000	65.337085  
2252.000000	65.350341  
2251.000000	65.371370  
2250.000000	65.396523  
2249.000000	65.421438  
2248.000000	65.441823  
2247.000000	65.454435  
2246.000000	65.457558  
2245.000000	65.451121  
2244.000000	65.436673  
2243.000000	65.416669  
2242.000000	65.394139  
2241.000000	65.371990  
2240.000000	65.352463  
2239.000000	65.337371  
2238.000000	65.327668  
2237.000000	65.323686  
2236.000000	65.325164  
2235.000000	65.331530  
2234.000000	65.342020  
2233.000000	65.355515  
2232.000000	65.370655  
2231.000000	65.385866  
2230.000000	65.399670  
2229.000000	65.410733  
2228.000000	65.418195  
2227.000000	65.421772  
2226.000000	65.421748  
2225.000000	65.418791  
2224.000000	65.413904  
2223.000000	65.408110  
2222.000000	65.402102  
2221.000000	65.396070  
2220.000000	65.389776  
2219.000000	65.382909  
2218.000000	65.375065  
2217.000000	65.366220  
2216.000000	65.356707  
2215.000000	65.347504  
2214.000000	65.339994  
2213.000000	65.335798  
2212.000000	65.336203  
2211.000000	65.341901  
2210.000000	65.352725  
2209.000000	65.367555  
2208.000000	65.384292  
2207.000000	65.400409  
2206.000000	65.413403  
2205.000000	65.421366  
2204.000000	65.423345  
2203.000000	65.419483  
2202.000000	65.410876  
2201.000000	65.399456  
2200.000000	65.387511  
2199.000000	65.377354  
2198.000000	65.370869  
2197.000000	65.369319  
2196.000000	65.373206  
2195.000000	65.382170  
2194.000000	65.395307  
2193.000000	65.411353  
2192.000000	65.428900  
2191.000000	65.446639  
2190.000000	65.463328  
2189.000000	65.478062  
2188.000000	65.489864  
2187.000000	65.497612  
2186.000000	65.499997  
2185.000000	65.495824  
2184.000000	65.484237  
2183.000000	65.464901  
2182.000000	65.438556  
2181.000000	65.407085  
2180.000000	65.374016  
2179.000000	65.344047  
2178.000000	65.322065  
2177.000000	65.312242  
2176.000000	65.316724  
2175.000000	65.335345  
2174.000000	65.365099  
2173.000000	65.400743  
2172.000000	65.436124  
2171.000000	65.465569  
2170.000000	65.485191  
2169.000000	65.493583  
2168.000000	65.491771  
2167.000000	65.482926  
2166.000000	65.470886  
2165.000000	65.459799  
2164.000000	65.452814  
2163.000000	65.451598  
2162.000000	65.456819  
2161.000000	65.467953  
2160.000000	65.484356  
2159.000000	65.504455  
2158.000000	65.526819  
2157.000000	65.548944  
2156.000000	65.567636  
2155.000000	65.578699  
2154.000000	65.577626  
2153.000000	65.560674  
2152.000000	65.525817  
2151.000000	65.474152  
2150.000000	65.409970  
2149.000000	65.340209  
2148.000000	65.273189  
2147.000000	65.216898  
2146.000000	65.177559  
2145.000000	65.158128  
2144.000000	65.157985  
2143.000000	65.173578  
2142.000000	65.199685  
2141.000000	65.230727  
2140.000000	65.262341  
2139.000000	65.291738  
2138.000000	65.318250  
2137.000000	65.342235  
2136.000000	65.364646  
2135.000000	65.385556  
2134.000000	65.403890  
2133.000000	65.417861  
2132.000000	65.424942  
2131.000000	65.423560  
2130.000000	65.412950  
2129.000000	65.394067  
2128.000000	65.369319  
2127.000000	65.342259  
2126.000000	65.316820  
2125.000000	65.296459  
2124.000000	65.283703  
2123.000000	65.279603  
2122.000000	65.284037  
2121.000000	65.295815  
2120.000000	65.313363  
2119.000000	65.335273  
2118.000000	65.360784  
2117.000000	65.389776  
2116.000000	65.422630  
2115.000000	65.459513  
2114.000000	65.499877  
2113.000000	65.541720  
2112.000000	65.581822  
2111.000000	65.615415  
2110.000000	65.637350  
2109.000000	65.642881  
2108.000000	65.629076  
2107.000000	65.595459  
2106.000000	65.544629  
2105.000000	65.481901  
2104.000000	65.415191  
2103.000000	65.353012  
2102.000000	65.302777  
2101.000000	65.269446  
2100.000000	65.254974  
2099.000000	65.258002  
2098.000000	65.274643  
2097.000000	65.299272  
2096.000000	65.325856  
2095.000000	65.348958  
2094.000000	65.364670  
2093.000000	65.370655  
2092.000000	65.365862  
2091.000000	65.350270  
2090.000000	65.324521  
2089.000000	65.289449  
2088.000000	65.246176  
2087.000000	65.196895  
2086.000000	65.145111  
2085.000000	65.095090  
2084.000000	65.052628  
2083.000000	65.023803  
2082.000000	65.015053  
2081.000000	65.031266  
2080.000000	65.075802  
2079.000000	65.149497  
2078.000000	65.250349  
2077.000000	65.373563  
2076.000000	65.510845  
2075.000000	65.651559  
2074.000000	65.783262  
2073.000000	65.893721  
2072.000000	65.972137  
2071.000000	66.010737  
2070.000000	66.006541  
2069.000000	65.962219  
2068.000000	65.885210  
2067.000000	65.786528  
2066.000000	65.678763  
2065.000000	65.573787  
2064.000000	65.480327  
2063.000000	65.402603  
2062.000000	65.340280  
2061.000000	65.289735  
2060.000000	65.245723  
2059.000000	65.203952  
2058.000000	65.162014  
2057.000000	65.121054  
2056.000000	65.084195  
2055.000000	65.056705  
2054.000000	65.042519  
2053.000000	65.044784  
2052.000000	65.063691  
2051.000000	65.097546  
2050.000000	65.142273  
2049.000000	65.193152  
2048.000000	65.245580  
2047.000000	65.295863  
2046.000000	65.341138  
2045.000000	65.379786  
2044.000000	65.411090  
2043.000000	65.434741  
2042.000000	65.450334  
2041.000000	65.458083  
2040.000000	65.458703  
2039.000000	65.453529  
2038.000000	65.444660  
2037.000000	65.434360  
2036.000000	65.424776  
2035.000000	65.417551  
2034.000000	65.413618  
2033.000000	65.412950  
2032.000000	65.414428  
2031.000000	65.417075  
2030.000000	65.419673  
2029.000000	65.420985  
2028.000000	65.419745  
2027.000000	65.414953  
2026.000000	65.405845  
2025.000000	65.391993  
2024.000000	65.373706  
2023.000000	65.352129  
2022.000000	65.329408  
2021.000000	65.308427  
2020.000000	65.292477  
2019.000000	65.284633  
2018.000000	65.287065  
2017.000000	65.300583  
2016.000000	65.323853  
2015.000000	65.353751  
2014.000000	65.385770  
2013.000000	65.414977  
2012.000000	65.436840  
2011.000000	65.448188  
2010.000000	65.447592  
2009.000000	65.435624  
2008.000000	65.414571  
2007.000000	65.387749  
2006.000000	65.358972  
2005.000000	65.331888  
2004.000000	65.309643  
2003.000000	65.294289  
2002.000000	65.286612  
2001.000000	65.286016  
2000.000000	65.291237  
1999.000000	65.300416  
1998.000000	65.311360  
1997.000000	65.322184  
1996.000000	65.331196  
1995.000000	65.337395  
1994.000000	65.340256  
1993.000000	65.339946  
1992.000000	65.336966  
1991.000000	65.332055  
1990.000000	65.326189  
1989.000000	65.320253  
1988.000000	65.315008  
1987.000000	65.310835  
1986.000000	65.307712  
1985.000000	65.305304  
1984.000000	65.303039  
1983.000000	65.300107  
1982.000000	65.296077  
1981.000000	65.290665  
1980.000000	65.284299  
1979.000000	65.278244  
1978.000000	65.274739  
1977.000000	65.276455  
1976.000000	65.285897  
1975.000000	65.304756  
1974.000000	65.333271  
1973.000000	65.369987  
1972.000000	65.411853  
1971.000000	65.454530  
1970.000000	65.493059  
1969.000000	65.523076  
1968.000000	65.541195  
1967.000000	65.545940  
1966.000000	65.537500  
1965.000000	65.517807  
1964.000000	65.490150  
1963.000000	65.458679  
1962.000000	65.427446  
1961.000000	65.399980  
1960.000000	65.378546  
1959.000000	65.364122  
1958.000000	65.356230  
1957.000000	65.353393  
1956.000000	65.353202  
1955.000000	65.353083  
1954.000000	65.350818  
1953.000000	65.345144  
1952.000000	65.335774  
1951.000000	65.323948  
1950.000000	65.311789  
1949.000000	65.301990  
1948.000000	65.297269  
1947.000000	65.299701  
1946.000000	65.310120  
1945.000000	65.327978  
1944.000000	65.351390  
1943.000000	65.377259  
1942.000000	65.401983  
1941.000000	65.421867  
1940.000000	65.433716  
1939.000000	65.435504  
1938.000000	65.426492  
1937.000000	65.407514  
1936.000000	65.380930  
1935.000000	65.350413  
1934.000000	65.320301  
1933.000000	65.294790  
1932.000000	65.277409  
1931.000000	65.270400  
1930.000000	65.274453  
1929.000000	65.288591  
1928.000000	65.310168  
1927.000000	65.335583  
1926.000000	65.361166  
1925.000000	65.383267  
1924.000000	65.399312  
1923.000000	65.407967  
1922.000000	65.409135  
1921.000000	65.403723  
1920.000000	65.393400  
1919.000000	65.380048  
1918.000000	65.365433  
1917.000000	65.351057  
1916.000000	65.337920  
1915.000000	65.326786  
1914.000000	65.318059  
1913.000000	65.312170  
1912.000000	65.309286  
1911.000000	65.309548  
1910.000000	65.312957  
1909.000000	65.319442  
1908.000000	65.328645  
1907.000000	65.339946  
1906.000000	65.352582  
1905.000000	65.365552  
1904.000000	65.377998  
1903.000000	65.389180  
1902.000000	65.398693  
1901.000000	65.406394  
1900.000000	65.412425  
1899.000000	65.417194  
1898.000000	65.421319  
1897.000000	65.425419  
1896.000000	65.429854  
1895.000000	65.434718  
1894.000000	65.439701  
1893.000000	65.444493  
1892.000000	65.448498  
1891.000000	65.451264  
1890.000000	65.452623  
1889.000000	65.452575  
1888.000000	65.451598  
1887.000000	65.450191  
1886.000000	65.448737  
1885.000000	65.447235  
1884.000000	65.445399  
1883.000000	65.442538  
1882.000000	65.437817  
1881.000000	65.430545  
1880.000000	65.420413  
1879.000000	65.407729  
1878.000000	65.393304  
1877.000000	65.378308  
1876.000000	65.364003  
1875.000000	65.351390  
1874.000000	65.340948  
1873.000000	65.332484  
1872.000000	65.325474  
1871.000000	65.319204  
1870.000000	65.313220  
1869.000000	65.307331  
1868.000000	65.302038  
1867.000000	65.298247  
1866.000000	65.297126  
1865.000000	65.299630  
1864.000000	65.306019  
1863.000000	65.315842  
1862.000000	65.328025  
1861.000000	65.340805  
1860.000000	65.352320  
1859.000000	65.361070  
1858.000000	65.366244  
1857.000000	65.367841  
1856.000000	65.366911  
1855.000000	65.365076  
1854.000000	65.364313  
1853.000000	65.366363  
1852.000000	65.372538  
1851.000000	65.383243  
1850.000000	65.397906  
1849.000000	65.415334  
1848.000000	65.433716  
1847.000000	65.451169  
1846.000000	65.465807  
1845.000000	65.476417  
1844.000000	65.482234  
1843.000000	65.483283  
1842.000000	65.480184  
1841.000000	65.474295  
1840.000000	65.467214  
1839.000000	65.460729  
1838.000000	65.456581  
1837.000000	65.455889  
1836.000000	65.459108  
1835.000000	65.465807  
1834.000000	65.474653  
1833.000000	65.483736  
1832.000000	65.491008  
1831.000000	65.494775  
1830.000000	65.494036  
1829.000000	65.488910  
1828.000000	65.480637  
1827.000000	65.471291  
1826.000000	65.463256  
1825.000000	65.458559  
1824.000000	65.458512  
1823.000000	65.463089  
1822.000000	65.471124  
1821.000000	65.480399  
1820.000000	65.488386  
1819.000000	65.492868  
1818.000000	65.492367  
1817.000000	65.486598  
1816.000000	65.476560  
1815.000000	65.464043  
1814.000000	65.451359  
1813.000000	65.440654  
1812.000000	65.433454  
1811.000000	65.430355  
1810.000000	65.431141  
1809.000000	65.434837  
1808.000000	65.440058  
1807.000000	65.445542  
1806.000000	65.450239  
1805.000000	65.453481  
1804.000000	65.455031  
1803.000000	65.454888  
1802.000000	65.453219  
1801.000000	65.449929  
1800.000000	65.444684  
1799.000000	65.436983  
1798.000000	65.426063  
1797.000000	65.411257  
1796.000000	65.392184  
1795.000000	65.368890  
1794.000000	65.342092  
1793.000000	65.313267  
1792.000000	65.284395  
1791.000000	65.257906  
1790.000000	65.236377  
1789.000000	65.222024  
1788.000000	65.216350  
1787.000000	65.219640  
1786.000000	65.231156  
1785.000000	65.248966  
1784.000000	65.270209  
1783.000000	65.291953  
1782.000000	65.311312  
1781.000000	65.326380  
1780.000000	65.336322  
1779.000000	65.341615  
1778.000000	65.343761  
1777.000000	65.344715  
1776.000000	65.346455  
1775.000000	65.350317  
1774.000000	65.356659  
1773.000000	65.364837  
1772.000000	65.373516  
1771.000000	65.381073  
1770.000000	65.386223  
1769.000000	65.388178  
1768.000000	65.387010  
1767.000000	65.383315  
1766.000000	65.377998  
1765.000000	65.371608  
1764.000000	65.364313  
1763.000000	65.355682  
1762.000000	65.345048  
1761.000000	65.331721  
1760.000000	65.315604  
1759.000000	65.297365  
1758.000000	65.278530  
1757.000000	65.261197  
1756.000000	65.247702  
1755.000000	65.239667  
1754.000000	65.237951  
1753.000000	65.242218  
1752.000000	65.251088  
1751.000000	65.262675  
1750.000000	65.274953  
1749.000000	65.286350  
1748.000000	65.295958  
1747.000000	65.303373  
1746.000000	65.308570  
1745.000000	65.311622  
1744.000000	65.312385  
1743.000000	65.310263  
1742.000000	65.304279  
1741.000000	65.293574  
1740.000000	65.277433  
1739.000000	65.255641  
1738.000000	65.228748  
1737.000000	65.198016  
1736.000000	65.165305  
1735.000000	65.132904  
1734.000000	65.102887  
1733.000000	65.077114  
1732.000000	65.056991  
1731.000000	65.043663  
1730.000000	65.037560  
1729.000000	65.038847  
1728.000000	65.047025  
1727.000000	65.061712  
1726.000000	65.081810  
1725.000000	65.106558  
1724.000000	65.134930  
1723.000000	65.166282  
1722.000000	65.199851  
1721.000000	65.234947  
1720.000000	65.270543  
1719.000000	65.305519  
1718.000000	65.338540  
1717.000000	65.368342  
1716.000000	65.393996  
1715.000000	65.414977  
1714.000000	65.431213  
1713.000000	65.442895  
1712.000000	65.450048  
1711.000000	65.452408  
1710.000000	65.449237  
1709.000000	65.439343  
1708.000000	65.421485  
1707.000000	65.394949  
1706.000000	65.360188  
1705.000000	65.319132  
1704.000000	65.275120  
1703.000000	65.232920  
1702.000000	65.197515  
1701.000000	65.172982  
1700.000000	65.161967  
1699.000000	65.164732  
1698.000000	65.179681  
1697.000000	65.203571  
1696.000000	65.232491  
1695.000000	65.262556  
1694.000000	65.290832  
1693.000000	65.315580  
1692.000000	65.336203  
1691.000000	65.352606  
1690.000000	65.365147  
1689.000000	65.374183  
1688.000000	65.379762  
1687.000000	65.381622  
1686.000000	65.379381  
1685.000000	65.372848  
1684.000000	65.362071  
1683.000000	65.347623  
1682.000000	65.330290  
1681.000000	65.311264  
1680.000000	65.291810  
1679.000000	65.273594  
1678.000000	65.258359  
1677.000000	65.248394  
1676.000000	65.245938  
1675.000000	65.252900  
1674.000000	65.270352  
1673.000000	65.298080  
1672.000000	65.334391  
1671.000000	65.375995  
1670.000000	65.418386  
1669.000000	65.456771  
1668.000000	65.486741  
1667.000000	65.505075  
1666.000000	65.510344  
1665.000000	65.502953  
1664.000000	65.484929  
1663.000000	65.459489  
1662.000000	65.430426  
1661.000000	65.401220  
1660.000000	65.374541  
1659.000000	65.351963  
1658.000000	65.333986  
1657.000000	65.320277  
1656.000000	65.309810  
1655.000000	65.301346  
1654.000000	65.293765  
1653.000000	65.286087  
1652.000000	65.278100  
1651.000000	65.269827  
1650.000000	65.261888  
1649.000000	65.255069  
1648.000000	65.250325  
1647.000000	65.248250  
1646.000000	65.249037  
1645.000000	65.252327  
1644.000000	65.257096  
1643.000000	65.262198  
1642.000000	65.266275  
1641.000000	65.268182  
1640.000000	65.266990  
1639.000000	65.262365  
1638.000000	65.254426  
1637.000000	65.243506  
1636.000000	65.230345  
1635.000000	65.215826  
1634.000000	65.200877  
1633.000000	65.186452  
1632.000000	65.173411  
1631.000000	65.162587  
1630.000000	65.154838  
1629.000000	65.151023  
1628.000000	65.151953  
1627.000000	65.158271  
1626.000000	65.170216  
1625.000000	65.187668  
1624.000000	65.209722  
1623.000000	65.234899  
1622.000000	65.261220  
1621.000000	65.286159  
1620.000000	65.307188  
1619.000000	65.322113  
1618.000000	65.329384  
1617.000000	65.328383  
1616.000000	65.319418  
1615.000000	65.303730  
1614.000000	65.283465  
1613.000000	65.261054  
1612.000000	65.239071  
1611.000000	65.219640  
1610.000000	65.204501  
1609.000000	65.194749  
1608.000000	65.190815  
1607.000000	65.192461  
1606.000000	65.198874  
1605.000000	65.208911  
1604.000000	65.221381  
1603.000000	65.234780  
1602.000000	65.247869  
1601.000000	65.259695  
1600.000000	65.269565  
1599.000000	65.277194  
1598.000000	65.282440  
1597.000000	65.285420  
1596.000000	65.286278  
1595.000000	65.285134  
1594.000000	65.282130  
1593.000000	65.277409  
1592.000000	65.271472  
1591.000000	65.264964  
1590.000000	65.259265  
1589.000000	65.256118  
1588.000000	65.257358  
1587.000000	65.264558  
1586.000000	65.278363  
1585.000000	65.298271  
1584.000000	65.322232  
1583.000000	65.347075  
1582.000000	65.368676  
1581.000000	65.382838  
1580.000000	65.386128  
1579.000000	65.376782  
1578.000000	65.354800  
1577.000000	65.322136  
1576.000000	65.282249  
1575.000000	65.239500  
1574.000000	65.197992  
1573.000000	65.161061  
1572.000000	65.130925  
1571.000000	65.108537  
1570.000000	65.093970  
1569.000000	65.086889  
1568.000000	65.086483  
1567.000000	65.091991  
1566.000000	65.102458  
1565.000000	65.116834  
1564.000000	65.133213  
1563.000000	65.149545  
1562.000000	65.163302  
1561.000000	65.172219  
1560.000000	65.174698  
1559.000000	65.170359  
1558.000000	65.160226  
1557.000000	65.146493  
1556.000000	65.132117  
1555.000000	65.120005  
1554.000000	65.112376  
1553.000000	65.110445  
1552.000000	65.114283  
1551.000000	65.123343  
1550.000000	65.136885  
1549.000000	65.154457  
1548.000000	65.175890  
1547.000000	65.200805  
1546.000000	65.228199  
1545.000000	65.256142  
1544.000000	65.281796  
1543.000000	65.301561  
1542.000000	65.312290  
1541.000000	65.311956  
1540.000000	65.300345  
1539.000000	65.279459  
1538.000000	65.252995  
1537.000000	65.225863  
1536.000000	65.202760  
1535.000000	65.187358  
1534.000000	65.181159  
1533.000000	65.183568  
1532.000000	65.191960  
1531.000000	65.202713  
1530.000000	65.212178  
1529.000000	65.217685  
1528.000000	65.218138  
1527.000000	65.214133  
1526.000000	65.207552  
1525.000000	65.200924  
1524.000000	65.196824  
1523.000000	65.197181  
1522.000000	65.202856  
1521.000000	65.213274  
1520.000000	65.226626  
1519.000000	65.240240  
1518.000000	65.250849  
1517.000000	65.255594  
1516.000000	65.252232  
1515.000000	65.240049  
1514.000000	65.219712  
1513.000000	65.193724  
1512.000000	65.165710  
1511.000000	65.140128  
1510.000000	65.121316  
1509.000000	65.112781  
1508.000000	65.116405  
1507.000000	65.132236  
1506.000000	65.158534  
1505.000000	65.192008  
1504.000000	65.228843  
1503.000000	65.265083  
1502.000000	65.297436  
1501.000000	65.323209  
1500.000000	65.340542  
1499.000000	65.348148  
1498.000000	65.345454  
1497.000000	65.332722  
1496.000000	65.310955  
1495.000000	65.282511  
1494.000000	65.250587  
1493.000000	65.219044  
1492.000000	65.191841  
1491.000000	65.172362  
1490.000000	65.162706  
1489.000000	65.163397  
1488.000000	65.173196  
1487.000000	65.189385  
1486.000000	65.208339  
1485.000000	65.226221  
1484.000000	65.239930  
1483.000000	65.247392  
1482.000000	65.248155  
1481.000000	65.242958  
1480.000000	65.233659  
1479.000000	65.222501  
1478.000000	65.211725  
1477.000000	65.203022  
1476.000000	65.197253  
1475.000000	65.194654  
1474.000000	65.195131  
1473.000000	65.198302  
1472.000000	65.203762  
1471.000000	65.211176  
1470.000000	65.220308  
1469.000000	65.230894  
1468.000000	65.242218  
1467.000000	65.253114  
1466.000000	65.262031  
1465.000000	65.267276  
1464.000000	65.267229  
1463.000000	65.260934  
1462.000000	65.248346  
1461.000000	65.230703  
1460.000000	65.210270  
1459.000000	65.190458  
1458.000000	65.174651  
1457.000000	65.165853  
1456.000000	65.166115  
1455.000000	65.175819  
1454.000000	65.193605  
1453.000000	65.216803  
1452.000000	65.241718  
1451.000000	65.264821  
1450.000000	65.283298  
1449.000000	65.295863  
1448.000000	65.302586  
1447.000000	65.304803  
1446.000000	65.304255  
1445.000000	65.302610  
1444.000000	65.300655  
1443.000000	65.298008  
1442.000000	65.293216  
1441.000000	65.284466  
1440.000000	65.270066  
1439.000000	65.249419  
1438.000000	65.223312  
1437.000000	65.194082  
1436.000000	65.165281  
1435.000000	65.140891  
1434.000000	65.124821  
1433.000000	65.119552  
1432.000000	65.125894  
1431.000000	65.142941  
1430.000000	65.168142  
1429.000000	65.197968  
1428.000000	65.228676  
1427.000000	65.256881  
1426.000000	65.280270  
1425.000000	65.297412  
1424.000000	65.308141  
1423.000000	65.313196  
1422.000000	65.313768  
1421.000000	65.311217  
1420.000000	65.306925  
1419.000000	65.302324  
1418.000000	65.298724  
1417.000000	65.297126  
1416.000000	65.298485  
1415.000000	65.303397  
1414.000000	65.312051  
1413.000000	65.323972  
1412.000000	65.338039  
1411.000000	65.352511  
1410.000000	65.365290  
1409.000000	65.374493  
1408.000000	65.378570  
1407.000000	65.376877  
1406.000000	65.369844  
1405.000000	65.358614  
1404.000000	65.345215  
1403.000000	65.331625  
1402.000000	65.319657  
1401.000000	65.310168  
1400.000000	65.303134  
1399.000000	65.297484  
1398.000000	65.291523  
1397.000000	65.283536  
1396.000000	65.272164  
1395.000000	65.256810  
1394.000000	65.237832  
1393.000000	65.216708  
1392.000000	65.195512  
1391.000000	65.176486  
1390.000000	65.161561  
1389.000000	65.152025  
1388.000000	65.148186  
1387.000000	65.149521  
1386.000000	65.154767  
1385.000000	65.162444  
1384.000000	65.171074  
1383.000000	65.179419  
1382.000000	65.186357  
1381.000000	65.190935  
1380.000000	65.192127  
1379.000000	65.188860  
1378.000000	65.180325  
1377.000000	65.166068  
1376.000000	65.146589  
1375.000000	65.123319  
1374.000000	65.098571  
1373.000000	65.075230  
1372.000000	65.056514  
1371.000000	65.044784  
1370.000000	65.041494  
1369.000000	65.046763  
1368.000000	65.059399  
1367.000000	65.077209  
1366.000000	65.097784  
1365.000000	65.118908  
1364.000000	65.139079  
1363.000000	65.157580  
1362.000000	65.174126  
1361.000000	65.188622  
1360.000000	65.200829  
1359.000000	65.210199  
1358.000000	65.215921  
1357.000000	65.217113  
1356.000000	65.213489  
1355.000000	65.205430  
1354.000000	65.194129  
1353.000000	65.181136  
1352.000000	65.168476  
1351.000000	65.157747  
1350.000000	65.150046  
1349.000000	65.145730  
1348.000000	65.144276  
1347.000000	65.144443  
1346.000000	65.144777  
1345.000000	65.143704  
1344.000000	65.139985  
1343.000000	65.133166  
1342.000000	65.123319  
1341.000000	65.111422  
1340.000000	65.098762  
1339.000000	65.087008  
1338.000000	65.077781  
1337.000000	65.072464  
1336.000000	65.072107  
1335.000000	65.077018  
1334.000000	65.086984  
1333.000000	65.101051  
1332.000000	65.117979  
1331.000000	65.136265  
1330.000000	65.154552  
1329.000000	65.171718  
1328.000000	65.187168  
1327.000000	65.200638  
1326.000000	65.212082  
1325.000000	65.221595  
1324.000000	65.229010  
1323.000000	65.233802  
1322.000000	65.234947  
1321.000000	65.231323  
1320.000000	65.221714  
1319.000000	65.205216  
1318.000000	65.181660  
1317.000000	65.151739  
1316.000000	65.117311  
1315.000000	65.080928  
1314.000000	65.045595  
1313.000000	65.014219  
1312.000000	64.989280  
1311.000000	64.972281  
1310.000000	64.963746  
1309.000000	64.963173  
1308.000000	64.969277  
1307.000000	64.980411  
1306.000000	64.994955  
1305.000000	65.011644  
1304.000000	65.029788  
1303.000000	65.049242  
1302.000000	65.070056  
1301.000000	65.092229  
1300.000000	65.115571  
1299.000000	65.139269  
1298.000000	65.161943  
1297.000000	65.181803  
1296.000000	65.197110  
1295.000000	65.206336  
1294.000000	65.208911  
1293.000000	65.205025  
1292.000000	65.195870  
1291.000000	65.183019  
1290.000000	65.168523  
1289.000000	65.153765  
1288.000000	65.139436  
1287.000000	65.125203  
1286.000000	65.110325  
1285.000000	65.093874  
1284.000000	65.075206  
1283.000000	65.054678  
1282.000000	65.033745  
1281.000000	65.014457  
1280.000000	64.999175  
1279.000000	64.989686  
1278.000000	64.986705  
1277.000000	64.989280  
1276.000000	64.995074  
1275.000000	65.000772  
1274.000000	65.002989  
1273.000000	64.999318  
1272.000000	64.988899  
1271.000000	64.972662  
1270.000000	64.953255  
1269.000000	64.934134  
1268.000000	64.919257  
1267.000000	64.911365  
1266.000000	64.912104  
1265.000000	64.921712  
1264.000000	64.938879  
1263.000000	64.961528  
1262.000000	64.986896  
1261.000000	65.012240  
1260.000000	65.035080  
1259.000000	65.053486  
1258.000000	65.065932  
1257.000000	65.071392  
1256.000000	65.069556  
1255.000000	65.060830  
1254.000000	65.046644  
1253.000000	65.029096  
1252.000000	65.011215  
1251.000000	64.996123  
1250.000000	64.986419  
1249.000000	64.983510  
1248.000000	64.987349  
1247.000000	64.996409  
1246.000000	65.008044  
1245.000000	65.019059  
1244.000000	65.026736  
1243.000000	65.029287  
1242.000000	65.026092  
1241.000000	65.018057  
1240.000000	65.006732  
1239.000000	64.994382  
1238.000000	64.982962  
1237.000000	64.974308  
1236.000000	64.969396  
1235.000000	64.968705  
1234.000000	64.972233  
1233.000000	64.979600  
1232.000000	64.990258  
1231.000000	65.003371  
1230.000000	65.018010  
1229.000000	65.032911  
1228.000000	65.046644  
1227.000000	65.058159  
1226.000000	65.066885  
1225.000000	65.072965  
1224.000000	65.077280  
1223.000000	65.081167  
1222.000000	65.085983  
1221.000000	65.092778  
1220.000000	65.102028  
1219.000000	65.113306  
1218.000000	65.125560  
1217.000000	65.137457  
1216.000000	65.147519  
1215.000000	65.154552  
1214.000000	65.157723  
1213.000000	65.156674  
1212.000000	65.151572  
1211.000000	65.142965  
1210.000000	65.131640  
1209.000000	65.118527  
1208.000000	65.104627  
1207.000000	65.090918  
1206.000000	65.078425  
1205.000000	65.067982  
1204.000000	65.060234  
1203.000000	65.055418  
1202.000000	65.053296  
1201.000000	65.053176  
1200.000000	65.054059  
1199.000000	65.054893  
1198.000000	65.054607  
1197.000000	65.052533  
1196.000000	65.048623  
1195.000000	65.043330  
1194.000000	65.037369  
1193.000000	65.031623  
1192.000000	65.026617  
1191.000000	65.022659  
1190.000000	65.019536  
1189.000000	65.016818  
1188.000000	65.014123  
1187.000000	65.011239  
1186.000000	65.008354  
1185.000000	65.005970  
1184.000000	65.004730  
1183.000000	65.005207  
1182.000000	65.007424  
1181.000000	65.011215  
1180.000000	65.016007  
1179.000000	65.021347  
1178.000000	65.026783  
1177.000000	65.031981  
1176.000000	65.036678  
1175.000000	65.040731  
1174.000000	65.043830  
1173.000000	65.045642  
1172.000000	65.045762  
1171.000000	65.043592  
1170.000000	65.038800  
1169.000000	65.031099  
1168.000000	65.020513  
1167.000000	65.007472  
1166.000000	64.992904  
1165.000000	64.978361  
1164.000000	64.965581  
1163.000000	64.956307  
1162.000000	64.951896  
1161.000000	64.952874  
1160.000000	64.958548  
1159.000000	64.967298  
1158.000000	64.976596  
1157.000000	64.983797  
1156.000000	64.986443  
1155.000000	64.983224  
1154.000000	64.974069  
1153.000000	64.960050  
1152.000000	64.943456  
1151.000000	64.927077  
1150.000000	64.913368  
1149.000000	64.903879  
1148.000000	64.899110  
1147.000000	64.898514  
1146.000000	64.900875  
1145.000000	64.904761  
1144.000000	64.909052  
1143.000000	64.913105  
1142.000000	64.916944  
1141.000000	64.920997  
1140.000000	64.925646  
1139.000000	64.930629  
1138.000000	64.935374  
1137.000000	64.938545  
1136.000000	64.938855  
1135.000000	64.935040  
1134.000000	64.926218  
1133.000000	64.912390  
1132.000000	64.894556  
1131.000000	64.874672  
1130.000000	64.855265  
1129.000000	64.839220  
1128.000000	64.829087  
1127.000000	64.826965  
1126.000000	64.834547  
1125.000000	64.852309  
1124.000000	64.879560  
1123.000000	64.914536  
1122.000000	64.954376  
1121.000000	64.995241  
1120.000000	65.032553  
1119.000000	65.061521  
1118.000000	65.077733  
1117.000000	65.078091  
1116.000000	65.061306  
1115.000000	65.028071  
1114.000000	64.981365  
1113.000000	64.926195  
1112.000000	64.868927  
1111.000000	64.816427  
1110.000000	64.774823  
1109.000000	64.749097  
1108.000000	64.741826  
1107.000000	64.752984  
1106.000000	64.779663  
1105.000000	64.816975  
1104.000000	64.858150  
1103.000000	64.895987  
1102.000000	64.923501  
1101.000000	64.935111  
1100.000000	64.927077  
1099.000000	64.897823  
1098.000000	64.848208  
1097.000000	64.781475  
1096.000000	64.702653  
1095.000000	64.618229  
1094.000000	64.535188  
1093.000000	64.460372  
1092.000000	64.399671  
1091.000000	64.357686  
1090.000000	64.336848  
1089.000000	64.337539  
1088.000000	64.358162  
1087.000000	64.395880  
1086.000000	64.446663  
1085.000000	64.506340  
1084.000000	64.570617  
1083.000000	64.635729  
1082.000000	64.698219  
1081.000000	64.755415  
1080.000000	64.804577  
1079.000000	64.843487  
1078.000000	64.870762  
1077.000000	64.885640  
1076.000000	64.888525  
1075.000000	64.880919  
1074.000000	64.865946  
1073.000000	64.847326  
1072.000000	64.829468  
1071.000000	64.815926  
1070.000000	64.809036  
1069.000000	64.809274  
1068.000000	64.815568  
1067.000000	64.825272  
1066.000000	64.835333  
1065.000000	64.843034  
1064.000000	64.846920  
1063.000000	64.847302  
1062.000000	64.846515  
1061.000000	64.847970  
1060.000000	64.855122  
1059.000000	64.870882  
1058.000000	64.896154  
1057.000000	64.929580  
1056.000000	64.967799  
1055.000000	65.005922  
1054.000000	65.039229  
1053.000000	65.064764  
1052.000000	65.081906  
1051.000000	65.092206  
1050.000000	65.098786  
1049.000000	65.105557  
1048.000000	65.114974  
1047.000000	65.127277  
1046.000000	65.140175  
1045.000000	65.149569  
1044.000000	65.150642  
1043.000000	65.139603  
1042.000000	65.114617  
1041.000000	65.076875  
1040.000000	65.030360  
1039.000000	64.981245  
1038.000000	64.936685  
1037.000000	64.903354  
1036.000000	64.886093  
1035.000000	64.887118  
1034.000000	64.905977  
1033.000000	64.939498  
1032.000000	64.982891  
1031.000000	65.030169  
1030.000000	65.075206  
1029.000000	65.112090  
1028.000000	65.136027  
1027.000000	65.143585  
1026.000000	65.132808  
1025.000000	65.103268  
1024.000000	65.056347  
1023.000000	64.994978  
1022.000000	64.923763  
1021.000000	64.848184  
1020.000000	64.774298  
1019.000000	64.707803  
1018.000000	64.653682  
1017.000000	64.615178  
1016.000000	64.593529  
1015.000000	64.587521  
1014.000000	64.593958  
1013.000000	64.607882  
1012.000000	64.623832  
1011.000000	64.636611  
1010.000000	64.642667  
1009.000000	64.640283  
1008.000000	64.630484  
1007.000000	64.616346  
1006.000000	64.602684  
1005.000000	64.594864  
1004.000000	64.597487  
1003.000000	64.613437  
1002.000000	64.642810  
1001.000000	64.683246  
1000.000000	64.729881  
999.000000	 64.776635  
998.000000	 64.817190  
997.000000	 64.846229  
996.000000	 64.860534  
995.000000	 64.859056  
994.000000	 64.843416  
993.000000	 64.817142  
992.000000	 64.785146  
991.000000	 64.752721  
990.000000	 64.724731  
989.000000	 64.705133  
988.000000	 64.696168  
987.000000	 64.698410  
986.000000	 64.710855  
985.000000	 64.731264  
984.000000	 64.756155  
983.000000	 64.781498  
982.000000	 64.803457  
981.000000	 64.819169  
980.000000	 64.827203  
979.000000	 64.828085  
978.000000	 64.823818  
977.000000	 64.817953  
976.000000	 64.814281  
975.000000	 64.816403  
974.000000	 64.826560  
973.000000	 64.845013  
972.000000	 64.870905  
971.000000	 64.901590  
970.000000	 64.933586  
969.000000	 64.962816  
968.000000	 64.986348  
967.000000	 65.001344  
966.000000	 65.005540  
965.000000	 64.997172  
964.000000	 64.975595  
963.000000	 64.941024  
962.000000	 64.894819  
961.000000	 64.840292  
960.000000	 64.782786  
959.000000	 64.729642  
958.000000	 64.689230  
957.000000	 64.669346  
956.000000	 64.675664  
955.000000	 64.710140  
954.000000	 64.770269  
953.000000	 64.849328  
952.000000	 64.937591  
951.000000	 65.023803  
950.000000	 65.096974  
949.000000	 65.149044  
948.000000	 65.174841  
947.000000	 65.173196  
946.000000	 65.145301  
945.000000	 65.094637  
944.000000	 65.024638  
943.000000	 64.939212  
942.000000	 64.841032  
941.000000	 64.732456  
940.000000	 64.615845  
939.000000	 64.495038  
938.000000	 64.375615  
937.000000	 64.264965  
936.000000	 64.171218  
935.000000	 64.101481  
934.000000	 64.061093  
933.000000	 64.052081  
932.000000	 64.072513  
931.000000	 64.116406  
930.000000	 64.175176  
929.000000	 64.239144  
928.000000	 64.299464  
927.000000	 64.349293  
926.000000	 64.384222  
925.000000	 64.402461  
924.000000	 64.403986  
923.000000	 64.390349  
922.000000	 64.363241  
921.000000	 64.325189  
920.000000	 64.279007  
919.000000	 64.229083  
918.000000	 64.181900  
917.000000	 64.145231  
916.000000	 64.127635  
915.000000	 64.135813  
914.000000	 64.173173  
913.000000	 64.237308  
912.000000	 64.320087  
911.000000	 64.407634  
910.000000	 64.482593  
909.000000	 64.528274  
908.000000	 64.532494  
907.000000	 64.490604  
906.000000	 64.406681  
905.000000	 64.293694  
904.000000	 64.170885  
903.000000	 64.059519  
902.000000	 63.978219  
901.000000	 63.939762  
900.000000	 63.948345  
899.000000	 63.999986  
898.000000	 64.083623  
897.000000	 64.184331  
896.000000	 64.286541  
895.000000	 64.376759  
894.000000	 64.445686  
893.000000	 64.488244  
892.000000	 64.503860  
891.000000	 64.494848  
890.000000	 64.465951  
889.000000	 64.422869  
888.000000	 64.371418  
887.000000	 64.317393  
886.000000	 64.265918  
885.000000	 64.222288  
884.000000	 64.190506  
883.000000	 64.173722  
882.000000	 64.173150  
881.000000	 64.187884  
880.000000	 64.215087  
879.000000	 64.250564  
878.000000	 64.289069  
877.000000	 64.325213  
876.000000	 64.354920  
875.000000	 64.376115  
874.000000	 64.388895  
873.000000	 64.395308  
872.000000	 64.398336  
871.000000	 64.401388  
870.000000	 64.407658  
869.000000	 64.419269  
868.000000	 64.437031  
867.000000	 64.460468  
866.000000	 64.488148  
865.000000	 64.518070  
864.000000	 64.548420  
863.000000	 64.577746  
862.000000	 64.604854  
861.000000	 64.629006  
860.000000	 64.650011  
859.000000	 64.667630  
858.000000	 64.681696  
857.000000	 64.691066  
856.000000	 64.694166  
855.000000	 64.688611  
854.000000	 64.672231  
853.000000	 64.643144  
852.000000	 64.600706  
851.000000	 64.546251  
850.000000	 64.483284  
849.000000	 64.417314  
848.000000	 64.354991  
847.000000	 64.302873  
846.000000	 64.266133  
845.000000	 64.247775  
844.000000	 64.248013  
843.000000	 64.263963  
842.000000	 64.290785  
841.000000	 64.322710  
840.000000	 64.354729  
839.000000	 64.383244  
838.000000	 64.406704  
837.000000	 64.425444  
836.000000	 64.440870  
835.000000	 64.454436  
834.000000	 64.466381  
833.000000	 64.475536  
832.000000	 64.479255  
831.000000	 64.474344  
830.000000	 64.458656  
829.000000	 64.432454  
828.000000	 64.399003  
827.000000	 64.364457  
826.000000	 64.336037  
825.000000	 64.320397  
824.000000	 64.321470  
823.000000	 64.339184  
822.000000	 64.369821  
821.000000	 64.406728  
820.000000	 64.442038  
819.000000	 64.468455  
818.000000	 64.480948  
817.000000	 64.477944  
816.000000	 64.460992  
815.000000	 64.434623  
814.000000	 64.405059  
813.000000	 64.378595  
812.000000	 64.360594  
811.000000	 64.353728  
810.000000	 64.357995  
809.000000	 64.370226  
808.000000	 64.385509  
807.000000	 64.398121  
806.000000	 64.402890  
805.000000	 64.396810  
804.000000	 64.379549  
803.000000	 64.354038  
802.000000	 64.325523  
801.000000	 64.300155  
800.000000	 64.283466  
799.000000	 64.278054  
798.000000	 64.282703  
797.000000	 64.292216  
796.000000	 64.298772  
795.000000	 64.293313  
794.000000	 64.268112  
793.000000	 64.219093  
792.000000	 64.147090  
791.000000	 64.057588  
790.000000	 63.959407  
789.000000	 63.862729  
788.000000	 63.777017  
787.000000	 63.708806  
786.000000	 63.661265  
785.000000	 63.633775  
784.000000	 63.623642  
783.000000	 63.627552  
782.000000	 63.642811  
781.000000	 63.667845  
780.000000	 63.702154  
779.000000	 63.744926  
778.000000	 63.794541  
777.000000	 63.846874  
776.000000	 63.896799  
775.000000	 63.938450  
774.000000	 63.967156  
773.000000	 63.980197  
772.000000	 63.978958  
771.000000	 63.968801  
770.000000	 63.957762  
769.000000	 63.954377  
768.000000	 63.965654  
767.000000	 63.995099  
766.000000	 64.041733  
765.000000	 64.100432  
764.000000	 64.163947  
763.000000	 64.224052  
762.000000	 64.274120  
761.000000	 64.309406  
760.000000	 64.327263  
759.000000	 64.327025  
758.000000	 64.309430  
757.000000	 64.276695  
756.000000	 64.231991  
755.000000	 64.179372  
754.000000	 64.125490  
753.000000	 64.076280  
752.000000	 64.037466  
751.000000	 64.011287  
750.000000	 63.997006  
749.000000	 63.988947  
748.000000	 63.978099  
747.000000	 63.953781  
746.000000	 63.906049  
745.000000	 63.829874  
744.000000	 63.726520  
743.000000	 63.604140  
742.000000	 63.475966  
741.000000	 63.357067  
740.000000	 63.260674  
739.000000	 63.194227  
738.000000	 63.158273  
737.000000	 63.146877  
736.000000	 63.150501  
735.000000	 63.158726  
734.000000	 63.164258  
733.000000	 63.163971  
732.000000	 63.160943  
731.000000	 63.160824  
730.000000	 63.172125  
729.000000	 63.202118  
728.000000	 63.255476  
727.000000	 63.332223  
726.000000	 63.427209  
725.000000	 63.531541  
724.000000	 63.633394  
723.000000	 63.721656  
722.000000	 63.786244  
721.000000	 63.820171  
720.000000	 63.820481  
719.000000	 63.788723  
718.000000	 63.730144  
717.000000	 63.652396  
716.000000	 63.564705  
715.000000	 63.476562  
714.000000	 63.395714  
713.000000	 63.327407  
712.000000	 63.274002  
711.000000	 63.235640  
710.000000	 63.210749  
709.000000	 63.197016  
708.000000	 63.192534  
707.000000	 63.196039  
706.000000	 63.206005  
705.000000	 63.220882  
704.000000	 63.237500  
703.000000	 63.252401  
702.000000	 63.261318  
701.000000	 63.261318  
700.000000	 63.250327  
699.000000	 63.229465  
698.000000	 63.202619  
697.000000	 63.176274  
696.000000	 63.158202  
695.000000	 63.155269  
694.000000	 63.172030  
693.000000	 63.208913  
692.000000	 63.261771  
691.000000	 63.322997  
690.000000	 63.383436  
689.000000	 63.433909  
688.000000	 63.467311  
687.000000	 63.479638  
686.000000	 63.470602  
685.000000	 63.443350  
684.000000	 63.403296  
683.000000	 63.356566  
682.000000	 63.308429  
681.000000	 63.263535  
680.000000	 63.224554  
679.000000	 63.192367  
678.000000	 63.166236  
677.000000	 63.144540  
676.000000	 63.125824  
675.000000	 63.109111  
674.000000	 63.094830  
673.000000	 63.083744  
672.000000	 63.077569  
671.000000	 63.078188  
670.000000	 63.087081  
669.000000	 63.104224  
668.000000	 63.127636  
667.000000	 63.153457  
666.000000	 63.175988  
665.000000	 63.188815  
664.000000	 63.186383  
663.000000	 63.165640  
662.000000	 63.126897  
661.000000	 63.074088  
660.000000	 63.014507  
659.000000	 62.957501  
658.000000	 62.912440  
657.000000	 62.886857  
656.000000	 62.885475  
655.000000	 62.908411  
654.000000	 62.952208  
653.000000	 63.009047  
652.000000	 63.068318  
651.000000	 63.118052  
650.000000	 63.147211  
649.000000	 63.148045  
648.000000	 63.117027  
647.000000	 63.056206  
646.000000	 62.972807  
645.000000	 62.877655  
644.000000	 62.783384  
643.000000	 62.701177  
642.000000	 62.638950  
641.000000	 62.599349  
640.000000	 62.580204  
639.000000	 62.574791  
638.000000	 62.574052  
637.000000	 62.568926  
636.000000	 62.552642  
635.000000	 62.522602  
634.000000	 62.480831  
633.000000	 62.433004  
632.000000	 62.386822  
631.000000	 62.350010  
630.000000	 62.328839  
629.000000	 62.326574  
628.000000	 62.343168  
627.000000	 62.375855  
626.000000	 62.419533  
625.000000	 62.468361  
624.000000	 62.516617  
623.000000	 62.559413  
622.000000	 62.593150  
621.000000	 62.615871  
620.000000	 62.626218  
619.000000	 62.623620  
618.000000	 62.606930  
617.000000	 62.574934  
616.000000	 62.526226  
615.000000	 62.459945  
614.000000	 62.377548  
613.000000	 62.283086  
612.000000	 62.184953  
611.000000	 62.094759  
610.000000	 62.026476  
609.000000	 61.993503  
608.000000	 62.006592  
607.000000	 62.070775  
606.000000	 62.183284  
605.000000	 62.333178  
604.000000	 62.502646  
603.000000	 62.669682  
602.000000	 62.812471  
601.000000	 62.913298  
600.000000	 62.961673  
599.000000	 62.955999  
598.000000	 62.903332  
597.000000	 62.817192  
596.000000	 62.714695  
595.000000	 62.611865  
594.000000	 62.522029  
593.000000	 62.451934  
592.000000	 62.403249  
591.000000	 62.371420  
590.000000	 62.349462  
589.000000	 62.329006  
588.000000	 62.303090  
587.000000	 62.268352  
586.000000	 62.225151  
585.000000	 62.178492  
584.000000	 62.135529  
583.000000	 62.104678  
582.000000	 62.092375  
581.000000	 62.102532  
580.000000	 62.134861  
579.000000	 62.184596  
578.000000	 62.243056  
577.000000	 62.299036  
576.000000	 62.340831  
575.000000	 62.358808  
574.000000	 62.347483  
573.000000	 62.305450  
572.000000	 62.236356  
571.000000	 62.149405  
570.000000	 62.056612  
569.000000	 61.971020  
568.000000	 61.903071  
567.000000	 61.859107  
566.000000	 61.839509  
565.000000	 61.839270  
564.000000	 61.849498  
563.000000	 61.859774  
562.000000	 61.861824  
561.000000	 61.850976  
560.000000	 61.828851  
559.000000	 61.802005  
558.000000	 61.781477  
557.000000	 61.778688  
556.000000	 61.803531  
555.000000	 61.860942  
554.000000	 61.949157  
553.000000	 62.059068  
552.000000	 62.174582  
551.000000	 62.275528  
550.000000	 62.341117  
549.000000	 62.354660  
548.000000	 62.306141  
547.000000	 62.195634  
546.000000	 62.033557  
545.000000	 61.839675  
544.000000	 61.640405  
543.000000	 61.462855  
542.000000	 61.330938  
541.000000	 61.258411  
540.000000	 61.247277  
539.000000	 61.286449  
538.000000	 61.354827  
537.000000	 61.426568  
536.000000	 61.477708  
535.000000	 61.491823  
534.000000	 61.462855  
533.000000	 61.395955  
532.000000	 61.303949  
531.000000	 61.203885  
530.000000	 61.110854  
529.000000	 61.036181  
528.000000	 60.984754  
527.000000	 60.956692  
526.000000	 60.948848  
525.000000	 60.957169  
524.000000	 60.978507  
523.000000	 61.011004  
522.000000	 61.054277  
521.000000	 61.108207  
520.000000	 61.171674  
519.000000	 61.240315  
518.000000	 61.306786  
517.000000	 61.361908  
516.000000	 61.395978  
515.000000	 61.402440  
514.000000	 61.377358  
513.000000	 61.320781  
512.000000	 61.235904  
511.000000	 61.129641  
510.000000	 61.010408  
509.000000	 60.886406  
508.000000	 60.765600  
507.000000	 60.654711  
506.000000	 60.559821  
505.000000	 60.486435  
504.000000	 60.439586  
503.000000	 60.423183  
502.000000	 60.440254  
501.000000	 60.491919  
500.000000	 60.575580  
499.000000	 60.683917  
498.000000	 60.803651  
497.000000	 60.917162  
496.000000	 61.004090  
495.000000	 61.045885  
494.000000	 61.029648  
493.000000	 60.952568  
492.000000	 60.823392  
491.000000	 60.662078  
490.000000	 60.496687  
489.000000	 60.357117  
488.000000	 60.270118  
487.000000	 60.251593  
486.000000	 60.303664  
485.000000	 60.413312  
484.000000	 60.556006  
483.000000	 60.701227  
482.000000	 60.820603  
481.000000	 60.893273  
480.000000	 60.909652  
479.000000	 60.872435  
478.000000	 60.793590  
477.000000	 60.690474  
476.000000	 60.580062  
475.000000	 60.475373  
474.000000	 60.382771  
473.000000	 60.302758  
472.000000	 60.231900  
471.000000	 60.165381  
470.000000	 60.100436  
469.000000	 60.035777  
468.000000	 59.973645  
467.000000	 59.919524  
466.000000	 59.882044  
465.000000	 59.868264  
464.000000	 59.883975  
463.000000	 59.933447  
462.000000	 60.017013  
461.000000	 60.132360  
460.000000	 60.270643  
459.000000	 60.417890  
458.000000	 60.554075  
457.000000	 60.656619  
456.000000	 60.703492  
455.000000	 60.677170  
454.000000	 60.570454  
453.000000	 60.388970  
452.000000	 60.151958  
451.000000	 59.889435  
450.000000	 59.637069  
449.000000	 59.429788  
448.000000	 59.292745  
447.000000	 59.236478  
446.000000	 59.252524  
445.000000	 59.315705  
444.000000	 59.388160  
443.000000	 59.428811  
442.000000	 59.400439  
441.000000	 59.279775  
440.000000	 59.061908  
439.000000	 58.763694  
438.000000	 58.417916  
437.000000	 58.068680  
436.000000	 57.762336  
435.000000	 57.537436  
434.000000	 57.420492  
433.000000	 57.417321  
432.000000	 57.507872  
431.000000	 57.656860  
430.000000	 57.823061  
429.000000	 57.971072  
428.000000	 58.078145  
427.000000	 58.140969  
426.000000	 58.166003  
425.000000	 58.177232  
424.000000	 58.209466  
423.000000	 58.291840  
422.000000	 58.440184  
421.000000	 58.640646  
420.000000	 58.848547  
419.000000	 59.009122  
418.000000	 59.073114  
417.000000	 59.007596  
416.000000	 58.804798  
415.000000	 58.487248  
414.000000	 58.099794  
413.000000	 57.686257  
412.000000	 57.288813  
411.000000	 56.918811  
410.000000	 56.588816  
409.000000	 56.318664  
408.000000	 56.154847  
407.000000	 56.202721  
406.000000	 56.572318  
405.000000	 57.319140  
404.000000	 58.420896  
403.000000	 59.841609  
402.000000	 61.416530  
401.000000	 62.838792  
400.000000	 63.756966  
399.000000	 63.804578  
398.000000	 62.810754  
397.000000	 60.884308  
396.000000	 58.403301  
395.000000	 55.947947  
394.000000	 54.127502  
393.000000	 53.417181  
392.000000	 54.042434  
391.000000	 55.909252  
390.000000	 58.713793  
389.000000	 61.997652  
388.000000	 65.261340  
387.000000	 68.043375  
386.000000	 69.880580  
385.000000	 70.477128  
384.000000	 69.547843  
383.000000	 67.169737  
382.000000	 63.769292  
381.000000	 60.312342  
380.000000	 58.132767  
379.000000	 58.733010  
378.000000	 63.594579  
377.000000	 73.509311  
376.000000	 88.498473  
375.000000	 107.267212 
374.000000	 127.346992 
373.000000	 145.513653 
372.000000	 158.360958 
371.000000	 163.390445 
370.000000	 159.689068 

