PE IR       SPECTRUM    SPECTRUM    ASCII       PEDS        1.60        
  -1
C-1E6E~1.ASC
17/03/27
22:23:43.00
17/03/27
22:23:43.00
tln
$C-4040-8_t0096$<tbV0>[-5.2,7.8,8.0,0.0,27,1,0]
370.000000
64









2002,4.07    
MIRTGS : RIGHTBACK : INTERNAL 2
MIR : ON : INTERNAL 2
OPTKBR

0.200000
8
8.000000
FILLER
RATIO
SPECTRUM
UNLOCKED 256

DOUBLE
64
COMBINED
1
0
0


1.000000
RATIO


1
0
TRUE
51149
0
LEFT NOT FITTED RIGHT NOT FITTED 0
NONE
NONE
15600
12.000000
4.427000
51148
TRUE
1 0 8 72 0 0 0 0 

15798.010000






#HDR
-1
-1
#GR
CM-1
%T
0.00002384185791015625
0.0
5000.000000
-1.000000
4631
8
115.331935
48.914647
#DATA
5000.000000	65.533947  
4999.000000	65.520167  
4998.000000	65.478968  
4997.000000	65.415430  
4996.000000	65.339589  
4995.000000	65.264177  
4994.000000	65.202426  
4993.000000	65.165615  
4992.000000	65.160560  
4991.000000	65.189027  
4990.000000	65.246152  
4989.000000	65.322518  
4988.000000	65.404200  
4987.000000	65.475654  
4986.000000	65.522241  
4985.000000	65.532851  
4984.000000	65.502715  
4983.000000	65.434288  
4982.000000	65.337729  
4981.000000	65.228199  
4980.000000	65.123200  
4979.000000	65.037679  
4978.000000	64.981341  
4977.000000	64.955329  
4976.000000	64.952635  
4975.000000	64.959311  
4974.000000	64.957690  
4973.000000	64.932084  
4972.000000	64.872407  
4971.000000	64.779019  
4970.000000	64.660835  
4969.000000	64.536666  
4968.000000	64.429068  
4967.000000	64.361047  
4966.000000	64.349055  
4965.000000	64.400029  
4964.000000	64.509296  
4963.000000	64.661884  
4962.000000	64.835858  
4961.000000	65.007686  
4960.000000	65.157032  
4959.000000	65.271234  
4958.000000	65.346837  
4957.000000	65.389752  
4956.000000	65.411949  
4955.000000	65.427589  
4954.000000	65.447783  
4953.000000	65.477418  
4952.000000	65.512847  
4951.000000	65.544128  
4950.000000	65.557193  
4949.000000	65.538835  
4948.000000	65.480518  
4947.000000	65.382266  
4946.000000	65.253186  
4945.000000	65.108942  
4944.000000	64.969229  
4943.000000	64.852643  
4942.000000	64.773249  
4941.000000	64.737558  
4940.000000	64.743638  
4939.000000	64.782571  
4938.000000	64.840650  
4937.000000	64.902806  
4936.000000	64.955949  
4935.000000	64.991188  
4934.000000	65.005111  
4933.000000	64.998984  
4932.000000	64.978218  
4931.000000	64.949655  
4930.000000	64.920926  
4929.000000	64.898157  
4928.000000	64.885020  
4927.000000	64.881825  
4926.000000	64.885425  
4925.000000	64.889979  
4924.000000	64.888167  
4923.000000	64.873456  
4922.000000	64.841890  
4921.000000	64.794063  
4920.000000	64.735174  
4919.000000	64.674758  
4918.000000	64.624404  
4917.000000	64.595293  
4916.000000	64.595293  
4915.000000	64.627146  
4914.000000	64.687156  
4913.000000	64.766502  
4912.000000	64.853096  
4911.000000	64.934659  
4910.000000	65.001344  
4909.000000	65.048003  
4908.000000	65.074729  
4907.000000	65.086650  
4906.000000	65.091753  
4905.000000	65.098905  
4904.000000	65.115046  
4903.000000	65.145015  
4902.000000	65.190315  
4901.000000	65.249776  
4900.000000	65.319752  
4899.000000	65.394115  
4898.000000	65.464997  
4897.000000	65.523910  
4896.000000	65.563178  
4895.000000	65.577149  
4894.000000	65.563440  
4893.000000	65.524101  
4892.000000	65.465116  
4891.000000	65.396380  
4890.000000	65.328407  
4889.000000	65.271496  
4888.000000	65.231776  
4887.000000	65.211105  
4886.000000	65.205526  
4885.000000	65.207290  
4884.000000	65.206313  
4883.000000	65.193223  
4882.000000	65.161824  
4881.000000	65.110778  
4880.000000	65.043973  
4879.000000	64.969253  
4878.000000	64.896559  
4877.000000	64.834928  
4876.000000	64.792084  
4875.000000	64.772725  
4874.000000	64.778327  
4873.000000	64.807033  
4872.000000	64.854717  
4871.000000	64.915537  
4870.000000	64.982509  
4869.000000	65.048480  
4868.000000	65.106678  
4867.000000	65.151333  
4866.000000	65.177655  
4865.000000	65.182399  
4864.000000	65.164232  
4863.000000	65.124273  
4862.000000	65.065646  
4861.000000	64.994215  
4860.000000	64.917945  
4859.000000	64.846754  
4858.000000	64.791202  
4857.000000	64.760708  
4856.000000	64.761996  
4855.000000	64.797353  
4854.000000	64.864468  
4853.000000	64.955520  
4852.000000	65.058231  
4851.000000	65.157723  
4850.000000	65.239167  
4849.000000	65.290737  
4848.000000	65.305852  
4847.000000	65.284872  
4846.000000	65.234708  
4845.000000	65.167164  
4844.000000	65.095949  
4843.000000	65.034365  
4842.000000	64.991641  
4841.000000	64.971494  
4840.000000	64.970850  
4839.000000	64.981985  
4838.000000	64.994001  
4837.000000	64.995694  
4836.000000	64.978909  
4835.000000	64.939641  
4834.000000	64.880418  
4833.000000	64.808845  
4832.000000	64.737057  
4831.000000	64.677929  
4830.000000	64.642763  
4829.000000	64.638376  
4828.000000	64.665484  
4827.000000	64.718770  
4826.000000	64.788055  
4825.000000	64.860796  
4824.000000	64.924812  
4823.000000	64.970707  
4822.000000	64.993906  
4821.000000	64.995241  
4820.000000	64.980173  
4819.000000	64.957165  
4818.000000	64.936375  
4817.000000	64.927220  
4816.000000	64.936852  
4815.000000	64.968633  
4814.000000	65.022373  
4813.000000	65.093946  
4812.000000	65.176963  
4811.000000	65.263152  
4810.000000	65.343666  
4809.000000	65.410423  
4808.000000	65.457248  
4807.000000	65.480470  
4806.000000	65.479707  
4805.000000	65.456938  
4804.000000	65.416836  
4803.000000	65.364623  
4802.000000	65.305566  
4801.000000	65.243721  
4800.000000	65.181994  
4799.000000	65.121960  
4798.000000	65.064549  
4797.000000	65.010786  
4796.000000	64.962625  
4795.000000	64.922809  
4794.000000	64.894580  
4793.000000	64.880442  
4792.000000	64.881372  
4791.000000	64.896225  
4790.000000	64.921569  
4789.000000	64.951992  
4788.000000	64.981102  
4787.000000	65.002942  
4786.000000	65.013289  
4785.000000	65.010404  
4784.000000	64.995336  
4783.000000	64.971256  
4782.000000	64.942693  
4781.000000	64.913940  
4780.000000	64.888262  
4779.000000	64.867520  
4778.000000	64.851713  
4777.000000	64.839839  
4776.000000	64.830303  
4775.000000	64.821958  
4774.000000	64.814472  
4773.000000	64.808392  
4772.000000	64.804863  
4771.000000	64.804983  
4770.000000	64.809703  
4769.000000	64.819264  
4768.000000	64.833474  
4767.000000	64.851450  
4766.000000	64.872503  
4765.000000	64.896035  
4764.000000	64.921402  
4763.000000	64.947628  
4762.000000	64.973163  
4761.000000	64.996027  
4760.000000	65.013837  
4759.000000	65.024447  
4758.000000	65.026354  
4757.000000	65.019202  
4756.000000	65.004515  
4755.000000	64.985132  
4754.000000	64.965367  
4753.000000	64.949393  
4752.000000	64.940404  
4751.000000	64.939880  
4750.000000	64.947152  
4749.000000	64.959597  
4748.000000	64.973258  
4747.000000	64.983797  
4746.000000	64.987826  
4745.000000	64.983510  
4744.000000	64.971041  
4743.000000	64.952635  
4742.000000	64.931821  
4741.000000	64.912724  
4740.000000	64.898824  
4739.000000	64.892244  
4738.000000	64.893150  
4737.000000	64.899301  
4736.000000	64.906692  
4735.000000	64.910125  
4734.000000	64.905095  
4733.000000	64.888453  
4732.000000	64.860415  
4731.000000	64.824080  
4730.000000	64.786052  
4729.000000	64.755034  
4728.000000	64.739990  
4727.000000	64.747977  
4726.000000	64.781832  
4725.000000	64.839029  
4724.000000	64.911794  
4723.000000	64.988350  
4722.000000	65.055966  
4721.000000	65.103793  
4720.000000	65.125918  
4719.000000	65.122509  
4718.000000	65.099692  
4717.000000	65.067577  
4716.000000	65.037870  
4715.000000	65.020442  
4714.000000	65.021276  
4713.000000	65.041303  
4712.000000	65.077114  
4711.000000	65.122032  
4710.000000	65.168404  
4709.000000	65.209341  
4708.000000	65.240454  
4707.000000	65.260028  
4706.000000	65.268206  
4705.000000	65.266633  
4704.000000	65.257000  
4703.000000	65.241050  
4702.000000	65.220189  
4701.000000	65.195751  
4700.000000	65.170121  
4699.000000	65.145564  
4698.000000	65.124654  
4697.000000	65.109014  
4696.000000	65.098929  
4695.000000	65.093302  
4694.000000	65.089750  
4693.000000	65.085601  
4692.000000	65.078282  
4691.000000	65.066862  
4690.000000	65.052676  
4689.000000	65.038871  
4688.000000	65.029501  
4687.000000	65.028333  
4686.000000	65.037679  
4685.000000	65.057444  
4684.000000	65.085124  
4683.000000	65.116167  
4682.000000	65.145444  
4681.000000	65.168833  
4680.000000	65.184712  
4679.000000	65.193939  
4678.000000	65.200066  
4677.000000	65.207862  
4676.000000	65.222120  
4675.000000	65.246772  
4674.000000	65.283107  
4673.000000	65.329766  
4672.000000	65.382027  
4671.000000	65.433192  
4670.000000	65.475106  
4669.000000	65.500378  
4668.000000	65.503382  
4667.000000	65.481734  
4666.000000	65.436840  
4665.000000	65.373754  
4664.000000	65.300297  
4663.000000	65.225505  
4662.000000	65.158390  
4661.000000	65.106511  
4660.000000	65.074920  
4659.000000	65.065717  
4658.000000	65.078377  
4657.000000	65.110206  
4656.000000	65.156888  
4655.000000	65.213179  
4654.000000	65.273547  
4653.000000	65.332412  
4652.000000	65.384268  
4651.000000	65.424227  
4650.000000	65.447640  
4649.000000	65.451312  
4648.000000	65.434312  
4647.000000	65.397882  
4646.000000	65.346002  
4645.000000	65.284395  
4644.000000	65.220212  
4643.000000	65.160250  
4642.000000	65.109777  
4641.000000	65.072154  
4640.000000	65.048694  
4639.000000	65.038967  
4638.000000	65.040707  
4637.000000	65.051651  
4636.000000	65.069866  
4635.000000	65.094494  
4634.000000	65.125322  
4633.000000	65.162897  
4632.000000	65.207338  
4631.000000	65.258288  
4630.000000	65.314078  
4629.000000	65.371489  
4628.000000	65.425872  
4627.000000	65.472435  
4626.000000	65.506601  
4625.000000	65.524911  
4624.000000	65.525412  
4623.000000	65.508747  
4622.000000	65.477037  
4621.000000	65.434622  
4620.000000	65.385627  
4619.000000	65.334606  
4618.000000	65.283823  
4617.000000	65.233564  
4616.000000	65.181660  
4615.000000	65.124869  
4614.000000	65.060067  
4613.000000	64.985752  
4612.000000	64.903473  
4611.000000	64.818120  
4610.000000	64.737629  
4609.000000	64.670968  
4608.000000	64.626479  
4607.000000	64.609289  
4606.000000	64.620661  
4605.000000	64.657592  
4604.000000	64.713406  
4603.000000	64.779472  
4602.000000	64.847683  
4601.000000	64.912295  
4600.000000	64.970469  
4599.000000	65.022516  
4598.000000	65.070605  
4597.000000	65.117502  
4596.000000	65.164709  
4595.000000	65.212106  
4594.000000	65.257930  
4593.000000	65.299153  
4592.000000	65.333485  
4591.000000	65.359210  
4590.000000	65.376472  
4589.000000	65.386438  
4588.000000	65.391945  
4587.000000	65.395188  
4586.000000	65.396976  
4585.000000	65.396404  
4584.000000	65.391707  
4583.000000	65.380001  
4582.000000	65.358638  
4581.000000	65.326285  
4580.000000	65.284061  
4579.000000	65.234637  
4578.000000	65.181994  
4577.000000	65.130829  
4576.000000	65.085768  
4575.000000	65.050911  
4574.000000	65.029311  
4573.000000	65.022444  
4572.000000	65.030527  
4571.000000	65.052843  
4570.000000	65.087890  
4569.000000	65.131831  
4568.000000	65.180325  
4567.000000	65.228962  
4566.000000	65.274453  
4565.000000	65.313601  
4564.000000	65.345048  
4563.000000	65.369582  
4562.000000	65.389728  
4561.000000	65.408635  
4560.000000	65.429401  
4559.000000	65.454077  
4558.000000	65.483260  
4557.000000	65.515804  
4556.000000	65.550065  
4555.000000	65.584492  
4554.000000	65.618562  
4553.000000	65.653109  
4552.000000	65.689420  
4551.000000	65.728330  
4550.000000	65.769720  
4549.000000	65.811157  
4548.000000	65.847587  
4547.000000	65.871167  
4546.000000	65.874147  
4545.000000	65.849089  
4544.000000	65.790557  
4543.000000	65.695810  
4542.000000	65.566372  
4541.000000	65.407657  
4540.000000	65.228295  
4539.000000	65.039658  
4538.000000	64.853811  
4537.000000	64.683127  
4536.000000	64.539504  
4535.000000	64.432477  
4534.000000	64.367771  
4533.000000	64.346456  
4532.000000	64.364695  
4531.000000	64.413976  
4530.000000	64.481258  
4529.000000	64.552950  
4528.000000	64.616584  
4527.000000	64.664244  
4526.000000	64.693236  
4525.000000	64.707660  
4524.000000	64.716672  
4523.000000	64.732384  
4522.000000	64.766478  
4521.000000	64.827466  
4520.000000	64.918088  
4519.000000	65.035080  
4518.000000	65.169024  
4517.000000	65.307283  
4516.000000	65.434694  
4515.000000	65.538549  
4514.000000	65.608358  
4513.000000	65.637826  
4512.000000	65.624618  
4511.000000	65.570855  
4510.000000	65.481805  
4509.000000	65.364933  
4508.000000	65.229535  
4507.000000	65.087151  
4506.000000	64.949488  
4505.000000	64.827513  
4504.000000	64.730215  
4503.000000	64.664196  
4502.000000	64.632010  
4501.000000	64.632058  
4500.000000	64.659214  
4499.000000	64.705228  
4498.000000	64.761233  
4497.000000	64.819192  
4496.000000	64.872908  
4495.000000	64.918446  
4494.000000	64.954400  
4493.000000	64.981198  
4492.000000	64.999747  
4491.000000	65.010857  
4490.000000	65.015006  
4489.000000	65.012526  
4488.000000	65.003991  
4487.000000	64.990735  
4486.000000	64.975905  
4485.000000	64.963698  
4484.000000	64.958477  
4483.000000	64.963769  
4482.000000	64.981889  
4481.000000	65.012717  
4480.000000	65.053558  
4479.000000	65.099263  
4478.000000	65.143060  
4477.000000	65.178227  
4476.000000	65.199732  
4475.000000	65.205311  
4474.000000	65.196037  
4473.000000	65.175819  
4472.000000	65.150356  
4471.000000	65.125584  
4470.000000	65.106201  
4469.000000	65.094566  
4468.000000	65.090537  
4467.000000	65.092110  
4466.000000	65.096139  
4465.000000	65.099668  
4464.000000	65.100169  
4463.000000	65.095710  
4462.000000	65.084815  
4461.000000	65.065956  
4460.000000	65.038013  
4459.000000	64.999890  
4458.000000	64.952135  
4457.000000	64.896488  
4456.000000	64.837098  
4455.000000	64.780735  
4454.000000	64.734840  
4453.000000	64.706683  
4452.000000	64.699935  
4451.000000	64.713907  
4450.000000	64.741921  
4449.000000	64.772009  
4448.000000	64.790105  
4447.000000	64.783501  
4446.000000	64.744234  
4445.000000	64.671421  
4444.000000	64.571309  
4443.000000	64.456129  
4442.000000	64.341926  
4441.000000	64.245128  
4440.000000	64.179968  
4439.000000	64.155459  
4438.000000	64.176225  
4437.000000	64.240217  
4436.000000	64.337897  
4435.000000	64.453887  
4434.000000	64.569044  
4433.000000	64.665007  
4432.000000	64.727735  
4431.000000	64.749717  
4430.000000	64.732813  
4429.000000	64.684081  
4428.000000	64.612627  
4427.000000	64.526629  
4426.000000	64.431238  
4425.000000	64.328718  
4424.000000	64.219141  
4423.000000	64.103794  
4422.000000	63.991904  
4421.000000	63.890695  
4420.000000	63.799786  
4419.000000	63.724684  
4418.000000	63.678359  
4417.000000	63.671302  
4416.000000	63.710021  
4415.000000	63.796877  
4414.000000	63.927912  
4413.000000	64.108681  
4412.000000	64.347958  
4411.000000	64.637017  
4410.000000	64.953374  
4409.000000	65.264272  
4408.000000	65.534853  
4407.000000	65.741252  
4406.000000	65.872216  
4405.000000	65.937304  
4404.000000	65.956377  
4403.000000	65.943217  
4402.000000	65.911388  
4401.000000	65.869116  
4400.000000	65.827417  
4399.000000	65.799260  
4398.000000	65.812730  
4397.000000	65.876793  
4396.000000	66.050648  
4395.000000	66.398358  
4394.000000	67.077469  
4393.000000	68.313312  
4392.000000	70.313358  
4391.000000	73.212075  
4390.000000	76.836228  
4389.000000	80.700635  
4388.000000	84.015297  
4387.000000	85.883927  
4386.000000	85.645866  
4385.000000	83.062767  
4384.000000	78.527092  
4383.000000	72.913312  
4382.000000	67.290782  
4381.000000	62.651538  
4380.000000	59.537744  
4379.000000	58.036303  
4378.000000	57.855796  
4377.000000	58.467864  
4376.000000	59.443020  
4375.000000	60.458183  
4374.000000	61.378359  
4373.000000	62.223410  
4372.000000	62.976670  
4371.000000	63.672733  
4370.000000	64.281988  
4369.000000	64.783835  
4368.000000	65.176057  
4367.000000	65.461683  
4366.000000	65.663957  
4365.000000	65.797567  
4364.000000	65.865111  
4363.000000	65.869641  
4362.000000	65.817880  
4361.000000	65.724420  
4360.000000	65.611529  
4359.000000	65.497469  
4358.000000	65.395069  
4357.000000	65.305066  
4356.000000	65.220379  
4355.000000	65.142631  
4354.000000	65.076899  
4353.000000	65.033316  
4352.000000	65.021061  
4351.000000	65.029597  
4350.000000	65.042495  
4349.000000	65.053391  
4348.000000	65.058016  
4347.000000	65.048623  
4346.000000	65.022039  
4345.000000	64.980816  
4344.000000	64.931488  
4343.000000	64.884757  
4342.000000	64.848613  
4341.000000	64.822459  
4340.000000	64.803504  
4339.000000	64.789080  
4338.000000	64.776301  
4337.000000	64.764094  
4336.000000	64.753055  
4335.000000	64.745831  
4334.000000	64.743494  
4333.000000	64.745759  
4332.000000	64.753150  
4331.000000	64.767265  
4330.000000	64.792704  
4329.000000	64.834809  
4328.000000	64.897799  
4327.000000	64.981865  
4326.000000	65.081739  
4325.000000	65.186309  
4324.000000	65.280389  
4323.000000	65.347552  
4322.000000	65.375161  
4321.000000	65.356349  
4320.000000	65.292286  
4319.000000	65.191698  
4318.000000	65.069293  
4317.000000	64.942240  
4316.000000	64.826226  
4315.000000	64.732575  
4314.000000	64.666700  
4313.000000	64.627552  
4312.000000	64.609336  
4311.000000	64.604187  
4310.000000	64.605355  
4309.000000	64.608478  
4308.000000	64.612340  
4307.000000	64.618396  
4306.000000	64.629364  
4305.000000	64.647316  
4304.000000	64.672517  
4303.000000	64.702677  
4302.000000	64.733266  
4301.000000	64.758920  
4300.000000	64.774560  
4299.000000	64.777326  
4298.000000	64.766478  
4297.000000	64.743447  
4296.000000	64.711403  
4295.000000	64.673900  
4294.000000	64.635038  
4293.000000	64.598894  
4292.000000	64.569330  
4291.000000	64.549684  
4290.000000	64.542651  
4289.000000	64.550137  
4288.000000	64.573144  
4287.000000	64.611053  
4286.000000	64.662671  
4285.000000	64.725708  
4284.000000	64.797377  
4283.000000	64.874529  
4282.000000	64.953160  
4281.000000	65.028715  
4280.000000	65.095782  
4279.000000	65.149116  
4278.000000	65.184164  
4277.000000	65.198326  
4276.000000	65.192174  
4275.000000	65.169811  
4274.000000	65.139222  
4273.000000	65.110158  
4272.000000	65.093159  
4271.000000	65.095877  
4270.000000	65.121841  
4269.000000	65.168595  
4268.000000	65.228462  
4267.000000	65.290141  
4266.000000	65.341782  
4265.000000	65.373682  
4264.000000	65.381598  
4263.000000	65.366196  
4262.000000	65.333056  
4261.000000	65.289688  
4260.000000	65.243339  
4259.000000	65.198135  
4258.000000	65.154218  
4257.000000	65.108346  
4256.000000	65.055775  
4255.000000	64.993429  
4254.000000	64.922308  
4253.000000	64.848375  
4252.000000	64.781546  
4251.000000	64.733695  
4250.000000	64.715027  
4249.000000	64.729928  
4248.000000	64.775371  
4247.000000	64.841175  
4246.000000	64.912605  
4245.000000	64.973521  
4244.000000	65.011286  
4243.000000	65.020275  
4242.000000	65.003395  
4241.000000	64.970660  
4240.000000	64.936518  
4239.000000	64.914941  
4238.000000	64.915966  
4237.000000	64.942741  
4236.000000	64.990782  
4235.000000	65.049862  
4234.000000	65.106940  
4233.000000	65.150594  
4232.000000	65.173411  
4231.000000	65.174245  
4230.000000	65.157008  
4229.000000	65.129256  
4228.000000	65.099239  
4227.000000	65.073323  
4226.000000	65.054297  
4225.000000	65.040898  
4224.000000	65.029239  
4223.000000	65.014171  
4222.000000	64.991378  
4221.000000	64.958405  
4220.000000	64.915442  
4219.000000	64.865326  
4218.000000	64.811801  
4217.000000	64.759540  
4216.000000	64.711666  
4215.000000	64.671301  
4214.000000	64.640522  
4213.000000	64.622092  
4212.000000	64.619374  
4211.000000	64.635801  
4210.000000	64.673948  
4209.000000	64.733672  
4208.000000	64.811253  
4207.000000	64.898586  
4206.000000	64.984011  
4205.000000	65.054440  
4204.000000	65.098047  
4203.000000	65.106725  
4202.000000	65.078306  
4201.000000	65.015721  
4200.000000	64.926242  
4199.000000	64.818501  
4198.000000	64.700603  
4197.000000	64.577460  
4196.000000	64.451169  
4195.000000	64.322590  
4194.000000	64.193987  
4193.000000	64.070749  
4192.000000	63.962483  
4191.000000	63.882827  
4190.000000	63.845872  
4189.000000	63.861918  
4188.000000	63.933563  
4187.000000	64.052605  
4186.000000	64.201188  
4185.000000	64.353585  
4184.000000	64.482975  
4183.000000	64.566612  
4182.000000	64.592146  
4181.000000	64.559793  
4180.000000	64.482498  
4179.000000	64.381933  
4178.000000	64.282441  
4177.000000	64.204812  
4176.000000	64.161539  
4175.000000	64.154839  
4174.000000	64.178514  
4173.000000	64.221644  
4172.000000	64.273142  
4171.000000	64.325833  
4170.000000	64.377832  
4169.000000	64.432597  
4168.000000	64.495921  
4167.000000	64.573431  
4166.000000	64.666771  
4165.000000	64.772439  
4164.000000	64.882469  
4163.000000	64.985489  
4162.000000	65.070199  
4161.000000	65.127253  
4160.000000	65.152788  
4159.000000	65.148282  
4158.000000	65.120410  
4157.000000	65.079259  
4156.000000	65.036129  
4155.000000	65.001344  
4154.000000	64.982628  
4153.000000	64.983391  
4152.000000	65.003228  
4151.000000	65.037465  
4150.000000	65.079092  
4149.000000	65.119481  
4148.000000	65.150785  
4147.000000	65.167379  
4146.000000	65.167093  
4145.000000	65.152168  
4144.000000	65.128350  
4143.000000	65.103292  
4142.000000	65.084099  
4141.000000	65.075397  
4140.000000	65.077614  
4139.000000	65.086817  
4138.000000	65.095520  
4137.000000	65.094566  
4136.000000	65.076136  
4135.000000	65.036416  
4134.000000	64.977359  
4133.000000	64.905905  
4132.000000	64.833331  
4131.000000	64.772009  
4130.000000	64.733171  
4129.000000	64.722776  
4128.000000	64.742064  
4127.000000	64.787101  
4126.000000	64.850616  
4125.000000	64.924001  
4124.000000	64.999341  
4123.000000	65.070676  
4122.000000	65.134549  
4121.000000	65.189456  
4120.000000	65.235471  
4119.000000	65.273094  
4118.000000	65.302848  
4117.000000	65.324735  
4116.000000	65.339016  
4115.000000	65.346217  
4114.000000	65.348196  
4113.000000	65.347146  
4112.000000	65.345549  
4111.000000	65.344810  
4110.000000	65.345287  
4109.000000	65.345740  
4108.000000	65.343618  
4107.000000	65.335941  
4106.000000	65.320420  
4105.000000	65.296125  
4104.000000	65.264391  
4103.000000	65.228533  
4102.000000	65.193128  
4101.000000	65.163111  
4100.000000	65.142631  
4099.000000	65.133738  
4098.000000	65.136384  
4097.000000	65.147757  
4096.000000	65.163183  
4095.000000	65.176939  
4094.000000	65.183472  
4093.000000	65.179014  
4092.000000	65.162467  
4091.000000	65.135502  
4090.000000	65.102148  
4089.000000	65.068268  
4088.000000	65.039968  
4087.000000	65.022373  
4086.000000	65.018129  
4085.000000	65.026974  
4084.000000	65.045714  
4083.000000	65.068769  
4082.000000	65.089392  
4081.000000	65.101099  
4080.000000	65.099525  
4079.000000	65.082931  
4078.000000	65.053081  
4077.000000	65.014076  
4076.000000	64.971876  
4075.000000	64.932870  
4074.000000	64.902234  
4073.000000	64.882493  
4072.000000	64.873552  
4071.000000	64.873027  
4070.000000	64.877128  
4069.000000	64.881634  
4068.000000	64.883732  
4067.000000	64.882564  
4066.000000	64.879560  
4065.000000	64.877843  
4064.000000	64.881062  
4063.000000	64.892077  
4062.000000	64.911818  
4061.000000	64.938592  
4060.000000	64.968609  
4059.000000	64.996767  
4058.000000	65.017819  
4057.000000	65.028333  
4056.000000	65.027523  
4055.000000	65.017557  
4054.000000	65.002942  
4053.000000	64.989519  
4052.000000	64.982724  
4051.000000	64.986991  
4050.000000	65.004444  
4049.000000	65.035176  
4048.000000	65.077257  
4047.000000	65.127396  
4046.000000	65.182042  
4045.000000	65.237665  
4044.000000	65.291500  
4043.000000	65.341186  
4042.000000	65.384602  
4041.000000	65.419816  
4040.000000	65.445041  
4039.000000	65.458893  
4038.000000	65.460848  
4037.000000	65.451645  
4036.000000	65.433382  
4035.000000	65.409874  
4034.000000	65.385961  
4033.000000	65.366768  
4032.000000	65.356397  
4031.000000	65.357780  
4030.000000	65.371298  
4029.000000	65.395259  
4028.000000	65.425634  
4027.000000	65.457081  
4026.000000	65.483832  
4025.000000	65.500998  
4024.000000	65.505528  
4023.000000	65.496659  
4022.000000	65.476131  
4021.000000	65.447783  
4020.000000	65.416359  
4019.000000	65.386414  
4018.000000	65.361309  
4017.000000	65.342712  
4016.000000	65.330219  
4015.000000	65.321922  
4014.000000	65.314841  
4013.000000	65.305924  
4012.000000	65.292739  
4011.000000	65.273928  
4010.000000	65.249013  
4009.000000	65.218424  
4008.000000	65.183091  
4007.000000	65.144324  
4006.000000	65.103268  
4005.000000	65.061354  
4004.000000	65.020561  
4003.000000	64.983773  
4002.000000	64.954423  
4001.000000	64.936089  
4000.000000	64.931726  
3999.000000	64.943194  
3998.000000	64.969801  
3997.000000	65.009331  
3996.000000	65.057301  
3995.000000	65.108966  
3994.000000	65.159320  
3993.000000	65.204691  
3992.000000	65.243101  
3991.000000	65.274667  
3990.000000	65.300846  
3989.000000	65.323925  
3988.000000	65.346217  
3987.000000	65.368962  
3986.000000	65.392017  
3985.000000	65.413761  
3984.000000	65.431404  
3983.000000	65.441918  
3982.000000	65.442800  
3981.000000	65.432620  
3980.000000	65.411567  
3979.000000	65.381479  
3978.000000	65.345573  
3977.000000	65.307903  
3976.000000	65.272688  
3975.000000	65.243649  
3974.000000	65.223360  
3973.000000	65.212821  
3972.000000	65.211629  
3971.000000	65.218305  
3970.000000	65.230846  
3969.000000	65.247249  
3968.000000	65.265822  
3967.000000	65.285420  
3966.000000	65.304803  
3965.000000	65.322494  
3964.000000	65.336060  
3963.000000	65.342211  
3962.000000	65.337419  
3961.000000	65.318799  
3960.000000	65.284919  
3959.000000	65.236282  
3958.000000	65.176153  
3957.000000	65.110135  
3956.000000	65.045094  
3955.000000	64.987754  
3954.000000	64.943194  
3953.000000	64.913630  
3952.000000	64.898228  
3951.000000	64.893436  
3950.000000	64.894556  
3949.000000	64.896965  
3948.000000	64.897513  
3947.000000	64.895606  
3946.000000	64.892196  
3945.000000	64.890146  
3944.000000	64.892339  
3943.000000	64.901494  
3942.000000	64.918637  
3941.000000	64.943289  
3940.000000	64.973592  
3939.000000	65.006279  
3938.000000	65.037631  
3937.000000	65.063476  
3936.000000	65.080094  
3935.000000	65.084362  
3934.000000	65.074610  
3933.000000	65.050649  
3932.000000	65.014147  
3931.000000	64.968609  
3930.000000	64.919209  
3929.000000	64.872121  
3928.000000	64.833498  
3927.000000	64.808058  
3926.000000	64.798235  
3925.000000	64.803838  
3924.000000	64.822530  
3923.000000	64.850020  
3922.000000	64.881896  
3921.000000	64.914512  
3920.000000	64.946246  
3919.000000	64.977240  
3918.000000	65.009260  
3917.000000	65.044283  
3916.000000	65.083479  
3915.000000	65.126395  
3914.000000	65.170550  
3913.000000	65.211820  
3912.000000	65.245294  
3911.000000	65.266919  
3910.000000	65.274143  
3909.000000	65.266895  
3908.000000	65.247082  
3907.000000	65.218281  
3906.000000	65.184521  
3905.000000	65.149378  
3904.000000	65.115904  
3903.000000	65.086388  
3902.000000	65.062642  
3901.000000	65.046238  
3900.000000	65.038609  
3899.000000	65.040898  
3898.000000	65.053629  
3897.000000	65.076255  
3896.000000	65.106368  
3895.000000	65.140175  
3894.000000	65.172648  
3893.000000	65.198826  
3892.000000	65.214991  
3891.000000	65.219140  
3890.000000	65.211820  
3889.000000	65.195274  
3888.000000	65.172767  
3887.000000	65.147638  
3886.000000	65.121984  
3885.000000	65.096879  
3884.000000	65.072679  
3883.000000	65.049171  
3882.000000	65.026545  
3881.000000	65.005230  
3880.000000	64.986157  
3879.000000	64.970231  
3878.000000	64.958024  
3877.000000	64.949297  
3876.000000	64.942932  
3875.000000	64.937686  
3874.000000	64.932537  
3873.000000	64.927148  
3872.000000	64.922285  
3871.000000	64.919757  
3870.000000	64.921736  
3869.000000	64.929914  
3868.000000	64.944887  
3867.000000	64.965462  
3866.000000	64.988946  
3865.000000	65.012454  
3864.000000	65.032911  
3863.000000	65.048623  
3862.000000	65.058612  
3861.000000	65.063142  
3860.000000	65.062642  
3859.000000	65.057206  
3858.000000	65.046763  
3857.000000	65.031218  
3856.000000	65.011191  
3855.000000	64.988303  
3854.000000	64.965677  
3853.000000	64.947533  
3852.000000	64.938855  
3851.000000	64.944171  
3850.000000	64.966297  
3849.000000	65.005207  
3848.000000	65.057754  
3847.000000	65.118050  
3846.000000	65.178370  
3845.000000	65.230441  
3844.000000	65.267252  
3843.000000	65.284299  
3842.000000	65.280127  
3841.000000	65.256381  
3840.000000	65.217208  
3839.000000	65.168237  
3838.000000	65.115642  
3837.000000	65.064573  
3836.000000	65.019035  
3835.000000	64.980363  
3834.000000	64.947962  
3833.000000	64.919328  
3832.000000	64.891028  
3831.000000	64.860105  
3830.000000	64.824891  
3829.000000	64.786553  
3828.000000	64.748144  
3827.000000	64.715194  
3826.000000	64.693689  
3825.000000	64.689159  
3824.000000	64.704847  
3823.000000	64.740800  
3822.000000	64.793395  
3821.000000	64.856195  
3820.000000	64.921212  
3819.000000	64.980340  
3818.000000	65.027189  
3817.000000	65.058183  
3816.000000	65.072941  
3815.000000	65.073752  
3814.000000	65.064287  
3813.000000	65.048432  
3812.000000	65.029311  
3811.000000	65.008831  
3810.000000	64.987587  
3809.000000	64.965701  
3808.000000	64.943289  
3807.000000	64.921092  
3806.000000	64.900612  
3805.000000	64.884424  
3804.000000	64.875268  
3803.000000	64.875078  
3802.000000	64.884662  
3801.000000	64.903187  
3800.000000	64.928674  
3799.000000	64.957952  
3798.000000	64.988088  
3797.000000	65.016746  
3796.000000	65.043139  
3795.000000	65.068101  
3794.000000	65.093731  
3793.000000	65.122437  
3792.000000	65.156435  
3791.000000	65.196585  
3790.000000	65.242028  
3789.000000	65.289926  
3788.000000	65.336370  
3787.000000	65.376877  
3786.000000	65.407299  
3785.000000	65.424633  
3784.000000	65.427756  
3783.000000	65.417599  
3782.000000	65.397071  
3781.000000	65.370559  
3780.000000	65.343189  
3779.000000	65.320014  
3778.000000	65.305662  
3777.000000	65.302896  
3776.000000	65.312671  
3775.000000	65.333366  
3774.000000	65.361499  
3773.000000	65.391707  
3772.000000	65.417909  
3771.000000	65.434241  
3770.000000	65.436077  
3769.000000	65.421271  
3768.000000	65.390419  
3767.000000	65.346813  
3766.000000	65.295767  
3765.000000	65.243792  
3764.000000	65.196967  
3763.000000	65.160036  
3762.000000	65.135502  
3761.000000	65.123701  
3760.000000	65.123081  
3759.000000	65.130805  
3758.000000	65.143728  
3757.000000	65.158867  
3756.000000	65.174317  
3755.000000	65.188527  
3754.000000	65.200972  
3753.000000	65.211272  
3752.000000	65.219426  
3751.000000	65.225124  
3750.000000	65.228128  
3749.000000	65.228414  
3748.000000	65.226340  
3747.000000	65.222787  
3746.000000	65.218997  
3745.000000	65.216493  
3744.000000	65.216612  
3743.000000	65.220189  
3742.000000	65.227389  
3741.000000	65.237784  
3740.000000	65.250301  
3739.000000	65.263605  
3738.000000	65.276122  
3737.000000	65.286636  
3736.000000	65.294384  
3735.000000	65.299272  
3734.000000	65.301823  
3733.000000	65.303015  
3732.000000	65.304279  
3731.000000	65.306973  
3730.000000	65.312123  
3729.000000	65.319824  
3728.000000	65.329575  
3727.000000	65.339779  
3726.000000	65.348577  
3725.000000	65.353751  
3724.000000	65.353441  
3723.000000	65.346384  
3722.000000	65.332221  
3721.000000	65.311622  
3720.000000	65.285968  
3719.000000	65.257525  
3718.000000	65.228939  
3717.000000	65.202856  
3716.000000	65.181756  
3715.000000	65.167522  
3714.000000	65.161418  
3713.000000	65.163874  
3712.000000	65.174484  
3711.000000	65.192127  
3710.000000	65.215086  
3709.000000	65.240931  
3708.000000	65.266919  
3707.000000	65.289855  
3706.000000	65.306782  
3705.000000	65.315032  
3704.000000	65.313148  
3703.000000	65.300941  
3702.000000	65.279984  
3701.000000	65.253353  
3700.000000	65.225219  
3699.000000	65.199875  
3698.000000	65.180921  
3697.000000	65.170621  
3696.000000	65.169072  
3695.000000	65.174555  
3694.000000	65.183711  
3693.000000	65.192532  
3692.000000	65.197372  
3691.000000	65.195727  
3690.000000	65.187072  
3689.000000	65.172481  
3688.000000	65.154552  
3687.000000	65.136480  
3686.000000	65.121293  
3685.000000	65.111088  
3684.000000	65.106844  
3683.000000	65.108227  
3682.000000	65.113949  
3681.000000	65.122270  
3680.000000	65.131545  
3679.000000	65.140604  
3678.000000	65.148735  
3677.000000	65.155839  
3676.000000	65.162038  
3675.000000	65.167665  
3674.000000	65.173077  
3673.000000	65.178346  
3672.000000	65.183401  
3671.000000	65.187978  
3670.000000	65.191960  
3669.000000	65.195012  
3668.000000	65.196800  
3667.000000	65.196919  
3666.000000	65.195178  
3665.000000	65.191388  
3664.000000	65.185618  
3663.000000	65.178227  
3662.000000	65.169978  
3661.000000	65.161466  
3660.000000	65.153002  
3659.000000	65.144467  
3658.000000	65.135145  
3657.000000	65.123701  
3656.000000	65.108680  
3655.000000	65.089011  
3654.000000	65.064740  
3653.000000	65.037035  
3652.000000	65.008568  
3651.000000	64.983034  
3650.000000	64.964652  
3649.000000	64.957308  
3648.000000	64.963531  
3647.000000	64.983510  
3646.000000	65.015220  
3645.000000	65.054416  
3644.000000	65.095686  
3643.000000	65.133166  
3642.000000	65.162038  
3641.000000	65.179419  
3640.000000	65.184974  
3639.000000	65.180754  
3638.000000	65.170598  
3637.000000	65.159106  
3636.000000	65.150570  
3635.000000	65.147972  
3634.000000	65.152645  
3633.000000	65.164065  
3632.000000	65.180540  
3631.000000	65.200042  
3630.000000	65.221023  
3629.000000	65.242958  
3628.000000	65.266203  
3627.000000	65.291690  
3626.000000	65.319895  
3625.000000	65.350008  
3624.000000	65.379905  
3623.000000	65.406012  
3622.000000	65.424060  
3621.000000	65.430045  
3620.000000	65.421915  
3619.000000	65.399718  
3618.000000	65.365886  
3617.000000	65.324687  
3616.000000	65.281677  
3615.000000	65.242099  
3614.000000	65.210151  
3613.000000	65.188074  
3612.000000	65.176200  
3611.000000	65.173125  
3610.000000	65.176534  
3609.000000	65.183711  
3608.000000	65.192365  
3607.000000	65.200686  
3606.000000	65.207576  
3605.000000	65.212297  
3604.000000	65.214347  
3603.000000	65.213346  
3602.000000	65.209102  
3601.000000	65.201854  
3600.000000	65.192389  
3599.000000	65.182328  
3598.000000	65.173959  
3597.000000	65.169644  
3596.000000	65.171456  
3595.000000	65.180754  
3594.000000	65.197777  
3593.000000	65.221071  
3592.000000	65.248250  
3591.000000	65.276455  
3590.000000	65.303134  
3589.000000	65.326213  
3588.000000	65.344953  
3587.000000	65.359902  
3586.000000	65.372681  
3585.000000	65.385031  
3584.000000	65.398573  
3583.000000	65.414023  
3582.000000	65.431046  
3581.000000	65.448284  
3580.000000	65.463900  
3579.000000	65.476179  
3578.000000	65.484166  
3577.000000	65.487837  
3576.000000	65.488243  
3575.000000	65.487170  
3574.000000	65.486693  
3573.000000	65.488266  
3572.000000	65.492248  
3571.000000	65.497517  
3570.000000	65.502047  
3569.000000	65.502977  
3568.000000	65.497565  
3567.000000	65.483498  
3566.000000	65.460228  
3565.000000	65.428113  
3564.000000	65.388989  
3563.000000	65.345096  
3562.000000	65.298843  
3561.000000	65.251946  
3560.000000	65.205550  
3559.000000	65.159654  
3558.000000	65.113782  
3557.000000	65.067052  
3556.000000	65.018892  
3555.000000	64.969229  
3554.000000	64.918756  
3553.000000	64.869213  
3552.000000	64.822769  
3551.000000	64.782047  
3550.000000	64.749574  
3549.000000	64.727282  
3548.000000	64.716482  
3547.000000	64.717435  
3546.000000	64.729523  
3545.000000	64.751267  
3544.000000	64.780688  
3543.000000	64.815497  
3542.000000	64.853477  
3541.000000	64.892363  
3540.000000	64.930272  
3539.000000	64.965534  
3538.000000	64.996862  
3537.000000	65.023040  
3536.000000	65.042948  
3535.000000	65.055918  
3534.000000	65.061736  
3533.000000	65.060877  
3532.000000	65.054774  
3531.000000	65.045833  
3530.000000	65.037155  
3529.000000	65.032124  
3528.000000	65.033841  
3527.000000	65.044760  
3526.000000	65.065813  
3525.000000	65.096163  
3524.000000	65.133500  
3523.000000	65.174484  
3522.000000	65.214920  
3521.000000	65.250897  
3520.000000	65.279579  
3519.000000	65.299701  
3518.000000	65.311789  
3517.000000	65.317797  
3516.000000	65.320682  
3515.000000	65.323257  
3514.000000	65.327978  
3513.000000	65.335607  
3512.000000	65.345549  
3511.000000	65.355253  
3510.000000	65.361666  
3509.000000	65.360879  
3508.000000	65.349769  
3507.000000	65.326046  
3506.000000	65.289235  
3505.000000	65.240550  
3504.000000	65.182805  
3503.000000	65.120053  
3502.000000	65.056729  
3501.000000	64.997768  
3500.000000	64.947748  
3499.000000	64.910936  
3498.000000	64.890789  
3497.000000	64.889502  
3496.000000	64.907526  
3495.000000	64.943146  
3494.000000	64.992213  
3493.000000	65.048336  
3492.000000	65.103888  
3491.000000	65.151047  
3490.000000	65.183258  
3489.000000	65.196490  
3488.000000	65.190005  
3487.000000	65.166544  
3486.000000	65.131115  
3485.000000	65.090179  
3484.000000	65.049600  
3483.000000	65.013766  
3482.000000	64.984893  
3481.000000	64.963030  
3480.000000	64.947438  
3479.000000	64.937734  
3478.000000	64.934563  
3477.000000	64.940285  
3476.000000	64.957690  
3475.000000	64.989018  
3474.000000	65.034604  
3473.000000	65.091705  
3472.000000	65.154743  
3471.000000	65.215969  
3470.000000	65.267658  
3469.000000	65.303945  
3468.000000	65.322256  
3467.000000	65.323829  
3466.000000	65.313792  
3465.000000	65.299367  
3464.000000	65.287828  
3463.000000	65.284276  
3462.000000	65.290713  
3461.000000	65.305113  
3460.000000	65.323019  
3459.000000	65.338158  
3458.000000	65.344929  
3457.000000	65.339326  
3456.000000	65.320706  
3455.000000	65.291142  
3454.000000	65.254688  
3453.000000	65.216565  
3452.000000	65.181589  
3451.000000	65.153479  
3450.000000	65.134072  
3449.000000	65.123414  
3448.000000	65.120077  
3447.000000	65.121912  
3446.000000	65.126729  
3445.000000	65.132999  
3444.000000	65.140295  
3443.000000	65.149235  
3442.000000	65.161299  
3441.000000	65.178513  
3440.000000	65.202856  
3439.000000	65.235733  
3438.000000	65.276980  
3437.000000	65.325093  
3436.000000	65.376496  
3435.000000	65.426230  
3434.000000	65.468025  
3433.000000	65.495729  
3432.000000	65.503883  
3431.000000	65.489506  
3430.000000	65.452122  
3429.000000	65.394425  
3428.000000	65.321612  
3427.000000	65.241169  
3426.000000	65.161156  
3425.000000	65.089201  
3424.000000	65.031218  
3423.000000	64.991044  
3422.000000	64.969706  
3421.000000	64.965820  
3420.000000	64.976310  
3419.000000	64.997243  
3418.000000	65.024495  
3417.000000	65.054464  
3416.000000	65.084218  
3415.000000	65.111637  
3414.000000	65.135431  
3413.000000	65.154886  
3412.000000	65.169620  
3411.000000	65.179514  
3410.000000	65.184688  
3409.000000	65.185713  
3408.000000	65.183377  
3407.000000	65.178966  
3406.000000	65.174150  
3405.000000	65.170907  
3404.000000	65.170812  
3403.000000	65.175127  
3402.000000	65.184545  
3401.000000	65.199065  
3400.000000	65.217900  
3399.000000	65.239691  
3398.000000	65.262937  
3397.000000	65.286254  
3396.000000	65.308594  
3395.000000	65.329360  
3394.000000	65.348076  
3393.000000	65.364551  
3392.000000	65.378665  
3391.000000	65.390110  
3390.000000	65.398144  
3389.000000	65.402007  
3388.000000	65.401220  
3387.000000	65.395736  
3386.000000	65.386223  
3385.000000	65.374064  
3384.000000	65.360856  
3383.000000	65.347933  
3382.000000	65.335774  
3381.000000	65.323853  
3380.000000	65.310740  
3379.000000	65.294456  
3378.000000	65.273189  
3377.000000	65.246081  
3376.000000	65.213656  
3375.000000	65.177679  
3374.000000	65.141320  
3373.000000	65.107917  
3372.000000	65.080833  
3371.000000	65.062642  
3370.000000	65.054774  
3369.000000	65.057015  
3368.000000	65.068006  
3367.000000	65.085482  
3366.000000	65.106773  
3365.000000	65.129184  
3364.000000	65.150523  
3363.000000	65.169405  
3362.000000	65.185308  
3361.000000	65.198445  
3360.000000	65.209674  
3359.000000	65.220308  
3358.000000	65.231823  
3357.000000	65.245723  
3356.000000	65.263223  
3355.000000	65.285038  
3354.000000	65.311169  
3353.000000	65.340447  
3352.000000	65.371489  
3351.000000	65.401792  
3350.000000	65.428566  
3349.000000	65.448665  
3348.000000	65.459012  
3347.000000	65.456891  
3346.000000	65.440773  
3345.000000	65.410685  
3344.000000	65.368437  
3343.000000	65.317702  
3342.000000	65.263724  
3341.000000	65.212345  
3340.000000	65.168905  
3339.000000	65.137434  
3338.000000	65.120315  
3337.000000	65.118026  
3336.000000	65.129423  
3335.000000	65.152192  
3334.000000	65.183329  
3333.000000	65.219664  
3332.000000	65.258121  
3331.000000	65.295290  
3330.000000	65.327405  
3329.000000	65.350794  
3328.000000	65.361762  
3327.000000	65.357208  
3326.000000	65.335297  
3325.000000	65.296578  
3324.000000	65.243816  
3323.000000	65.182280  
3322.000000	65.118551  
3321.000000	65.059900  
3320.000000	65.012621  
3319.000000	64.980721  
3318.000000	64.965772  
3317.000000	64.966702  
3316.000000	64.980745  
3315.000000	65.004014  
3314.000000	65.032720  
3313.000000	65.063643  
3312.000000	65.094828  
3311.000000	65.125274  
3310.000000	65.154552  
3309.000000	65.181946  
3308.000000	65.206408  
3307.000000	65.226387  
3306.000000	65.239906  
3305.000000	65.244603  
3304.000000	65.239071  
3303.000000	65.222930  
3302.000000	65.197324  
3301.000000	65.164566  
3300.000000	65.127921  
3299.000000	65.090656  
3298.000000	65.055489  
3297.000000	65.024042  
3296.000000	64.996457  
3295.000000	64.971971  
3294.000000	64.949131  
3293.000000	64.926815  
3292.000000	64.904522  
3291.000000	64.883279  
3290.000000	64.865016  
3289.000000	64.852690  
3288.000000	64.849209  
3287.000000	64.856815  
3286.000000	64.876151  
3285.000000	64.906167  
3284.000000	64.943957  
3283.000000	64.985871  
3282.000000	65.028166  
3281.000000	65.067720  
3280.000000	65.102434  
3279.000000	65.131688  
3278.000000	65.156269  
3277.000000	65.177536  
3276.000000	65.197014  
3275.000000	65.216159  
3274.000000	65.235781  
3273.000000	65.256357  
3272.000000	65.277552  
3271.000000	65.298771  
3270.000000	65.318822  
3269.000000	65.336799  
3268.000000	65.351581  
3267.000000	65.362286  
3266.000000	65.368413  
3265.000000	65.370154  
3264.000000	65.368294  
3263.000000	65.364098  
3262.000000	65.359139  
3261.000000	65.355300  
3260.000000	65.353679  
3259.000000	65.354490  
3258.000000	65.356588  
3257.000000	65.357780  
3256.000000	65.355014  
3255.000000	65.345144  
3254.000000	65.325546  
3253.000000	65.295028  
3252.000000	65.253877  
3251.000000	65.204167  
3250.000000	65.149283  
3249.000000	65.093517  
3248.000000	65.041518  
3247.000000	64.997529  
3246.000000	64.964890  
3245.000000	64.945459  
3244.000000	64.939618  
3243.000000	64.946103  
3242.000000	64.962339  
3241.000000	64.985084  
3240.000000	65.010714  
3239.000000	65.036535  
3238.000000	65.060043  
3237.000000	65.080428  
3236.000000	65.097880  
3235.000000	65.113830  
3234.000000	65.129780  
3233.000000	65.146946  
3232.000000	65.165734  
3231.000000	65.185427  
3230.000000	65.204310  
3229.000000	65.220499  
3228.000000	65.232753  
3227.000000	65.240931  
3226.000000	65.246105  
3225.000000	65.250420  
3224.000000	65.256571  
3223.000000	65.266990  
3222.000000	65.283274  
3221.000000	65.305447  
3220.000000	65.332126  
3219.000000	65.361094  
3218.000000	65.389513  
3217.000000	65.414786  
3216.000000	65.434408  
3215.000000	65.446972  
3214.000000	65.451502  
3213.000000	65.447378  
3212.000000	65.434074  
3211.000000	65.411520  
3210.000000	65.379953  
3209.000000	65.340828  
3208.000000	65.296053  
3207.000000	65.248775  
3206.000000	65.201520  
3205.000000	65.156340  
3204.000000	65.113592  
3203.000000	65.072321  
3202.000000	65.030431  
3201.000000	64.985871  
3200.000000	64.937663  
3199.000000	64.886856  
3198.000000	64.837145  
3197.000000	64.794445  
3196.000000	64.765334  
3195.000000	64.755630  
3194.000000	64.768385  
3193.000000	64.803242  
3192.000000	64.855575  
3191.000000	64.918017  
3190.000000	64.981651  
3189.000000	65.038347  
3188.000000	65.082287  
3187.000000	65.110898  
3186.000000	65.124845  
3185.000000	65.127778  
3184.000000	65.124177  
3183.000000	65.119242  
3182.000000	65.117311  
3181.000000	65.121674  
3180.000000	65.134525  
3179.000000	65.156340  
3178.000000	65.186452  
3177.000000	65.222692  
3176.000000	65.262174  
3175.000000	65.300726  
3174.000000	65.333724  
3173.000000	65.356731  
3172.000000	65.366482  
3171.000000	65.361666  
3170.000000	65.343308  
3169.000000	65.315341  
3168.000000	65.283846  
3167.000000	65.255975  
3166.000000	65.238165  
3165.000000	65.235066  
3164.000000	65.248012  
3163.000000	65.274810  
3162.000000	65.310049  
3161.000000	65.346837  
3160.000000	65.377736  
3159.000000	65.396714  
3158.000000	65.400218  
3157.000000	65.387415  
3156.000000	65.360403  
3155.000000	65.323138  
3154.000000	65.280532  
3153.000000	65.236711  
3152.000000	65.195083  
3151.000000	65.157890  
3150.000000	65.126419  
3149.000000	65.101289  
3148.000000	65.083336  
3147.000000	65.073895  
3146.000000	65.074372  
3145.000000	65.085887  
3144.000000	65.108346  
3143.000000	65.140414  
3142.000000	65.178561  
3141.000000	65.218234  
3140.000000	65.253996  
3139.000000	65.281319  
3138.000000	65.297412  
3137.000000	65.302443  
3136.000000	65.299296  
3135.000000	65.293216  
3134.000000	65.290737  
3133.000000	65.297532  
3132.000000	65.317273  
3131.000000	65.349674  
3130.000000	65.391302  
3129.000000	65.434741  
3128.000000	65.471172  
3127.000000	65.491127  
3126.000000	65.487456  
3125.000000	65.456295  
3124.000000	65.398144  
3123.000000	65.318036  
3122.000000	65.224647  
3121.000000	65.128946  
3120.000000	65.042209  
3119.000000	64.974617  
3118.000000	64.933395  
3117.000000	64.921975  
3116.000000	64.939785  
3115.000000	64.982748  
3114.000000	65.044140  
3113.000000	65.116000  
3112.000000	65.190720  
3111.000000	65.261363  
3110.000000	65.322971  
3109.000000	65.372395  
3108.000000	65.408468  
3107.000000	65.431380  
3106.000000	65.442323  
3105.000000	65.443325  
3104.000000	65.436482  
3103.000000	65.424609  
3102.000000	65.409898  
3101.000000	65.394711  
3100.000000	65.380454  
3099.000000	65.368294  
3098.000000	65.358233  
3097.000000	65.349817  
3096.000000	65.342044  
3095.000000	65.333652  
3094.000000	65.323734  
3093.000000	65.311932  
3092.000000	65.298748  
3091.000000	65.285444  
3090.000000	65.273332  
3089.000000	65.263509  
3088.000000	65.256381  
3087.000000	65.251874  
3086.000000	65.248990  
3085.000000	65.246653  
3084.000000	65.243840  
3083.000000	65.240311  
3082.000000	65.237092  
3081.000000	65.236139  
3080.000000	65.239620  
3079.000000	65.249466  
3078.000000	65.266537  
3077.000000	65.290141  
3076.000000	65.317773  
3075.000000	65.345525  
3074.000000	65.368747  
3073.000000	65.383315  
3072.000000	65.386533  
3071.000000	65.377712  
3070.000000	65.358448  
3069.000000	65.332150  
3068.000000	65.303182  
3067.000000	65.276050  
3066.000000	65.254306  
3065.000000	65.240025  
3064.000000	65.233469  
3063.000000	65.233254  
3062.000000	65.236878  
3061.000000	65.241622  
3060.000000	65.244984  
3059.000000	65.245127  
3058.000000	65.241241  
3057.000000	65.233302  
3056.000000	65.222358  
3055.000000	65.209865  
3054.000000	65.197825  
3053.000000	65.188193  
3052.000000	65.182924  
3051.000000	65.183687  
3050.000000	65.191459  
3049.000000	65.206670  
3048.000000	65.228819  
3047.000000	65.256309  
3046.000000	65.286684  
3045.000000	65.316820  
3044.000000	65.343284  
3043.000000	65.362644  
3042.000000	65.372061  
3041.000000	65.369677  
3040.000000	65.355038  
3039.000000	65.329170  
3038.000000	65.294504  
3037.000000	65.254688  
3036.000000	65.214109  
3035.000000	65.177273  
3034.000000	65.148258  
3033.000000	65.129852  
3032.000000	65.123367  
3031.000000	65.128231  
3030.000000	65.142083  
3029.000000	65.161585  
3028.000000	65.182757  
3027.000000	65.202379  
3026.000000	65.218019  
3025.000000	65.229368  
3024.000000	65.237402  
3023.000000	65.244626  
3022.000000	65.254044  
3021.000000	65.268397  
3020.000000	65.289235  
3019.000000	65.316295  
3018.000000	65.347695  
3017.000000	65.380144  
3016.000000	65.409970  
3015.000000	65.433669  
3014.000000	65.448641  
3013.000000	65.453696  
3012.000000	65.449047  
3011.000000	65.435981  
3010.000000	65.416431  
3009.000000	65.392398  
3008.000000	65.365695  
3007.000000	65.337944  
3006.000000	65.310549  
3005.000000	65.284705  
3004.000000	65.261721  
3003.000000	65.243005  
3002.000000	65.230083  
3001.000000	65.223908  
3000.000000	65.225028  
2999.000000	65.233016  
2998.000000	65.246820  
2997.000000	65.264701  
2996.000000	65.284633  
2995.000000	65.304303  
2994.000000	65.321421  
2993.000000	65.333795  
2992.000000	65.339446  
2991.000000	65.336751  
2990.000000	65.324497  
2989.000000	65.302276  
2988.000000	65.270781  
2987.000000	65.231990  
2986.000000	65.189242  
2985.000000	65.146899  
2984.000000	65.109562  
2983.000000	65.081381  
2982.000000	65.065193  
2981.000000	65.061974  
2980.000000	65.070557  
2979.000000	65.088319  
2978.000000	65.111517  
2977.000000	65.136504  
2976.000000	65.160536  
2975.000000	65.182042  
2974.000000	65.200376  
2973.000000	65.215563  
2972.000000	65.227651  
2971.000000	65.236496  
2970.000000	65.241265  
2969.000000	65.241003  
2968.000000	65.235042  
2967.000000	65.223479  
2966.000000	65.207839  
2965.000000	65.190649  
2964.000000	65.175294  
2963.000000	65.164828  
2962.000000	65.161371  
2961.000000	65.164995  
2960.000000	65.173864  
2959.000000	65.184712  
2958.000000	65.193724  
2957.000000	65.197801  
2956.000000	65.195322  
2955.000000	65.186595  
2954.000000	65.173602  
2953.000000	65.159344  
2952.000000	65.146923  
2951.000000	65.138745  
2950.000000	65.135788  
2949.000000	65.137600  
2948.000000	65.142583  
2947.000000	65.148520  
2946.000000	65.153288  
2945.000000	65.155434  
2944.000000	65.154314  
2943.000000	65.150356  
2942.000000	65.144848  
2941.000000	65.138959  
2940.000000	65.133881  
2939.000000	65.130233  
2938.000000	65.128135  
2937.000000	65.127301  
2936.000000	65.127015  
2935.000000	65.126490  
2934.000000	65.124845  
2933.000000	65.121436  
2932.000000	65.115690  
2931.000000	65.107131  
2930.000000	65.095400  
2929.000000	65.080380  
2928.000000	65.061902  
2927.000000	65.039944  
2926.000000	65.014767  
2925.000000	64.987158  
2924.000000	64.958405  
2923.000000	64.930200  
2922.000000	64.904618  
2921.000000	64.883494  
2920.000000	64.867997  
2919.000000	64.858603  
2918.000000	64.854621  
2917.000000	64.854812  
2916.000000	64.857578  
2915.000000	64.861822  
2914.000000	64.866852  
2913.000000	64.872956  
2912.000000	64.880990  
2911.000000	64.892411  
2910.000000	64.908337  
2909.000000	64.929389  
2908.000000	64.954924  
2907.000000	64.983415  
2906.000000	65.012574  
2905.000000	65.040111  
2904.000000	65.064144  
2903.000000	65.083599  
2902.000000	65.098381  
2901.000000	65.109324  
2900.000000	65.117764  
2899.000000	65.125083  
2898.000000	65.132236  
2897.000000	65.139913  
2896.000000	65.148091  
2895.000000	65.156793  
2894.000000	65.165662  
2893.000000	65.174055  
2892.000000	65.180850  
2891.000000	65.185165  
2890.000000	65.185952  
2889.000000	65.182662  
2888.000000	65.175271  
2887.000000	65.164566  
2886.000000	65.152430  
2885.000000	65.141963  
2884.000000	65.136551  
2883.000000	65.139150  
2882.000000	65.151381  
2881.000000	65.173077  
2880.000000	65.201592  
2879.000000	65.232086  
2878.000000	65.258193  
2877.000000	65.273523  
2876.000000	65.272688  
2875.000000	65.252971  
2874.000000	65.214729  
2873.000000	65.161705  
2872.000000	65.100383  
2871.000000	65.039157  
2870.000000	64.986610  
2869.000000	64.950251  
2868.000000	64.935350  
2867.000000	64.944005  
2866.000000	64.974904  
2865.000000	65.023207  
2864.000000	65.081667  
2863.000000	65.141367  
2862.000000	65.193200  
2861.000000	65.229058  
2860.000000	65.242695  
2859.000000	65.231108  
2858.000000	65.194535  
2857.000000	65.136694  
2856.000000	65.064072  
2855.000000	64.984846  
2854.000000	64.907670  
2853.000000	64.840435  
2852.000000	64.789128  
2851.000000	64.757156  
2850.000000	64.745473  
2849.000000	64.752721  
2848.000000	64.776158  
2847.000000	64.812302  
2846.000000	64.858222  
2845.000000	64.911317  
2844.000000	64.969825  
2843.000000	65.032291  
2842.000000	65.097284  
2841.000000	65.162992  
2840.000000	65.226435  
2839.000000	65.283656  
2838.000000	65.330123  
2837.000000	65.361881  
2836.000000	65.375924  
2835.000000	65.371346  
2834.000000	65.349411  
2833.000000	65.314078  
2832.000000	65.270638  
2831.000000	65.225315  
2830.000000	65.183496  
2829.000000	65.149450  
2828.000000	65.125036  
2827.000000	65.110158  
2826.000000	65.102982  
2825.000000	65.101099  
2824.000000	65.101838  
2823.000000	65.103006  
2822.000000	65.103578  
2821.000000	65.103673  
2820.000000	65.104031  
2819.000000	65.105557  
2818.000000	65.108752  
2817.000000	65.113687  
2816.000000	65.119695  
2815.000000	65.125751  
2814.000000	65.130543  
2813.000000	65.132904  
2812.000000	65.132570  
2811.000000	65.130066  
2810.000000	65.126228  
2809.000000	65.122532  
2808.000000	65.120244  
2807.000000	65.120553  
2806.000000	65.123724  
2805.000000	65.129828  
2804.000000	65.138626  
2803.000000	65.149903  
2802.000000	65.163660  
2801.000000	65.180110  
2800.000000	65.199565  
2799.000000	65.222430  
2798.000000	65.248751  
2797.000000	65.277957  
2796.000000	65.308713  
2795.000000	65.339088  
2794.000000	65.366840  
2793.000000	65.389800  
2792.000000	65.406084  
2791.000000	65.414738  
2790.000000	65.415692  
2789.000000	65.409874  
2788.000000	65.398979  
2787.000000	65.385460  
2786.000000	65.371704  
2785.000000	65.360021  
2784.000000	65.351891  
2783.000000	65.348339  
2782.000000	65.349054  
2781.000000	65.353107  
2780.000000	65.358686  
2779.000000	65.363645  
2778.000000	65.365958  
2777.000000	65.364289  
2776.000000	65.358090  
2775.000000	65.347695  
2774.000000	65.334272  
2773.000000	65.319371  
2772.000000	65.304446  
2771.000000	65.290570  
2770.000000	65.278077  
2769.000000	65.266752  
2768.000000	65.255951  
2767.000000	65.244841  
2766.000000	65.233159  
2765.000000	65.221357  
2764.000000	65.210485  
2763.000000	65.202403  
2762.000000	65.199184  
2761.000000	65.202808  
2760.000000	65.214347  
2759.000000	65.233874  
2758.000000	65.260243  
2757.000000	65.291047  
2756.000000	65.323328  
2755.000000	65.353465  
2754.000000	65.378069  
2753.000000	65.394258  
2752.000000	65.400171  
2751.000000	65.395188  
2750.000000	65.380072  
2749.000000	65.356636  
2748.000000	65.327644  
2747.000000	65.296030  
2746.000000	65.264892  
2745.000000	65.236711  
2744.000000	65.213274  
2743.000000	65.195488  
2742.000000	65.183568  
2741.000000	65.177059  
2740.000000	65.175437  
2739.000000	65.177941  
2738.000000	65.183901  
2737.000000	65.192675  
2736.000000	65.203738  
2735.000000	65.216541  
2734.000000	65.230417  
2733.000000	65.244579  
2732.000000	65.258264  
2731.000000	65.270757  
2730.000000	65.281772  
2729.000000	65.291357  
2728.000000	65.299701  
2727.000000	65.307259  
2726.000000	65.314126  
2725.000000	65.320420  
2724.000000	65.325689  
2723.000000	65.329480  
2722.000000	65.331196  
2721.000000	65.330505  
2720.000000	65.327286  
2719.000000	65.321898  
2718.000000	65.315246  
2717.000000	65.308547  
2716.000000	65.303254  
2715.000000	65.300631  
2714.000000	65.301775  
2713.000000	65.307235  
2712.000000	65.316748  
2711.000000	65.329360  
2710.000000	65.343284  
2709.000000	65.356302  
2708.000000	65.366005  
2707.000000	65.370368  
2706.000000	65.367817  
2705.000000	65.357995  
2704.000000	65.341734  
2703.000000	65.321063  
2702.000000	65.298986  
2701.000000	65.278744  
2700.000000	65.263223  
2699.000000	65.254473  
2698.000000	65.253162  
2697.000000	65.258526  
2696.000000	65.268921  
2695.000000	65.281963  
2694.000000	65.295243  
2693.000000	65.306615  
2692.000000	65.314841  
2691.000000	65.319514  
2690.000000	65.320801  
2689.000000	65.319490  
2688.000000	65.316605  
2687.000000	65.313243  
2686.000000	65.310263  
2685.000000	65.308260  
2684.000000	65.307569  
2683.000000	65.308308  
2682.000000	65.310645  
2681.000000	65.314579  
2680.000000	65.320158  
2679.000000	65.327239  
2678.000000	65.335845  
2677.000000	65.345692  
2676.000000	65.356540  
2675.000000	65.367937  
2674.000000	65.379190  
2673.000000	65.389466  
2672.000000	65.397667  
2671.000000	65.402698  
2670.000000	65.403485  
2669.000000	65.399312  
2668.000000	65.389776  
2667.000000	65.375208  
2666.000000	65.356135  
2665.000000	65.333652  
2664.000000	65.309047  
2663.000000	65.283775  
2662.000000	65.259408  
2661.000000	65.237569  
2660.000000	65.219831  
2659.000000	65.207600  
2658.000000	65.201926  
2657.000000	65.203571  
2656.000000	65.212535  
2655.000000	65.228128  
2654.000000	65.248870  
2653.000000	65.272879  
2652.000000	65.297865  
2651.000000	65.321707  
2650.000000	65.342593  
2649.000000	65.359282  
2648.000000	65.371084  
2647.000000	65.377664  
2646.000000	65.378975  
2645.000000	65.374994  
2644.000000	65.365600  
2643.000000	65.350818  
2642.000000	65.331172  
2641.000000	65.307664  
2640.000000	65.282034  
2639.000000	65.256667  
2638.000000	65.234112  
2637.000000	65.216827  
2636.000000	65.206336  
2635.000000	65.202951  
2634.000000	65.205597  
2633.000000	65.212225  
2632.000000	65.220403  
2631.000000	65.227746  
2630.000000	65.232753  
2629.000000	65.235090  
2628.000000	65.235614  
2627.000000	65.235877  
2626.000000	65.237641  
2625.000000	65.242123  
2624.000000	65.249562  
2623.000000	65.259337  
2622.000000	65.269970  
2621.000000	65.279603  
2620.000000	65.286254  
2619.000000	65.288996  
2618.000000	65.287423  
2617.000000	65.281844  
2616.000000	65.273261  
2615.000000	65.262866  
2614.000000	65.251851  
2613.000000	65.241169  
2612.000000	65.231418  
2611.000000	65.223073  
2610.000000	65.216398  
2609.000000	65.211915  
2608.000000	65.209913  
2607.000000	65.210437  
2606.000000	65.213489  
2605.000000	65.218520  
2604.000000	65.224790  
2603.000000	65.231323  
2602.000000	65.237283  
2601.000000	65.241789  
2600.000000	65.244460  
2599.000000	65.245008  
2598.000000	65.243434  
2597.000000	65.239691  
2596.000000	65.233802  
2595.000000	65.225863  
2594.000000	65.215921  
2593.000000	65.204501  
2592.000000	65.192198  
2591.000000	65.179967  
2590.000000	65.168976  
2589.000000	65.160465  
2588.000000	65.155363  
2587.000000	65.154194  
2586.000000	65.156912  
2585.000000	65.163207  
2584.000000	65.172266  
2583.000000	65.183353  
2582.000000	65.195822  
2581.000000	65.209221  
2580.000000	65.223050  
2579.000000	65.236783  
2578.000000	65.249657  
2577.000000	65.260672  
2576.000000	65.268445  
2575.000000	65.271711  
2574.000000	65.269422  
2573.000000	65.261268  
2572.000000	65.247559  
2571.000000	65.229582  
2570.000000	65.209269  
2569.000000	65.189170  
2568.000000	65.171813  
2567.000000	65.159344  
2566.000000	65.153312  
2565.000000	65.154409  
2564.000000	65.162444  
2563.000000	65.176606  
2562.000000	65.195751  
2561.000000	65.218329  
2560.000000	65.242886  
2559.000000	65.267872  
2558.000000	65.291810  
2557.000000	65.313267  
2556.000000	65.330886  
2555.000000	65.343499  
2554.000000	65.350484  
2553.000000	65.351963  
2552.000000	65.348887  
2551.000000	65.342926  
2550.000000	65.336370  
2549.000000	65.331435  
2548.000000	65.329980  
2547.000000	65.332818  
2546.000000	65.339493  
2545.000000	65.348267  
2544.000000	65.356588  
2543.000000	65.361714  
2542.000000	65.361595  
2541.000000	65.355134  
2540.000000	65.342903  
2539.000000	65.326786  
2538.000000	65.309381  
2537.000000	65.293312  
2536.000000	65.280723  
2535.000000	65.272545  
2534.000000	65.268683  
2533.000000	65.267777  
2532.000000	65.268206  
2531.000000	65.267968  
2530.000000	65.265536  
2529.000000	65.260004  
2528.000000	65.251111  
2527.000000	65.239524  
2526.000000	65.226483  
2525.000000	65.213489  
2524.000000	65.201997  
2523.000000	65.193486  
2522.000000	65.189075  
2521.000000	65.189599  
2520.000000	65.195345  
2519.000000	65.206122  
2518.000000	65.221142  
2517.000000	65.239191  
2516.000000	65.258693  
2515.000000	65.277910  
2514.000000	65.295147  
2513.000000	65.308690  
2512.000000	65.317392  
2511.000000	65.320444  
2510.000000	65.317773  
2509.000000	65.309977  
2508.000000	65.298748  
2507.000000	65.286850  
2506.000000	65.277671  
2505.000000	65.274667  
2504.000000	65.280485  
2503.000000	65.296268  
2502.000000	65.320849  
2501.000000	65.350890  
2500.000000	65.381503  
2499.000000	65.407514  
2498.000000	65.424466  
2497.000000	65.429949  
2496.000000	65.424275  
2495.000000	65.410494  
2494.000000	65.393686  
2493.000000	65.379476  
2492.000000	65.372467  
2491.000000	65.375161  
2490.000000	65.387415  
2489.000000	65.406537  
2488.000000	65.428566  
2487.000000	65.449118  
2486.000000	65.465116  
2485.000000	65.474843  
2484.000000	65.478396  
2483.000000	65.476727  
2482.000000	65.471291  
2481.000000	65.463042  
2480.000000	65.452361  
2479.000000	65.438723  
2478.000000	65.421295  
2477.000000	65.399169  
2476.000000	65.372037  
2475.000000	65.340280  
2474.000000	65.305233  
2473.000000	65.268754  
2472.000000	65.233087  
2471.000000	65.200233  
2470.000000	65.171670  
2469.000000	65.148401  
2468.000000	65.130949  
2467.000000	65.119385  
2466.000000	65.113568  
2465.000000	65.113329  
2464.000000	65.118670  
2463.000000	65.129184  
2462.000000	65.144491  
2461.000000	65.163731  
2460.000000	65.186166  
2459.000000	65.210533  
2458.000000	65.235567  
2457.000000	65.260052  
2456.000000	65.283131  
2455.000000	65.303921  
2454.000000	65.321826  
2453.000000	65.336322  
2452.000000	65.347337  
2451.000000	65.355443  
2450.000000	65.361261  
2449.000000	65.365409  
2448.000000	65.368533  
2447.000000	65.371584  
2446.000000	65.375041  
2445.000000	65.378832  
2444.000000	65.382266  
2443.000000	65.384125  
2442.000000	65.382814  
2441.000000	65.376567  
2440.000000	65.364122  
2439.000000	65.344905  
2438.000000	65.319299  
2437.000000	65.288233  
2436.000000	65.253448  
2435.000000	65.216493  
2434.000000	65.178465  
2433.000000	65.139889  
2432.000000	65.100169  
2431.000000	65.059256  
2430.000000	65.017366  
2429.000000	64.977002  
2428.000000	64.941859  
2427.000000	64.918231  
2426.000000	64.913272  
2425.000000	64.933800  
2424.000000	64.984154  
2423.000000	65.064573  
2422.000000	65.170168  
2421.000000	65.290927  
2420.000000	65.413117  
2419.000000	65.521478  
2418.000000	65.602278  
2417.000000	65.646052  
2416.000000	65.649485  
2415.000000	65.616106  
2414.000000	65.555143  
2413.000000	65.479683  
2412.000000	65.403366  
2411.000000	65.337800  
2410.000000	65.289735  
2409.000000	65.261197  
2408.000000	65.249085  
2407.000000	65.247750  
2406.000000	65.250492  
2405.000000	65.251994  
2404.000000	65.249681  
2403.000000	65.243196  
2402.000000	65.234947  
2401.000000	65.227770  
2400.000000	65.224766  
2399.000000	65.227293  
2398.000000	65.235471  
2397.000000	65.247988  
2396.000000	65.262603  
2395.000000	65.277123  
2394.000000	65.289783  
2393.000000	65.299797  
2392.000000	65.307116  
2391.000000	65.312409  
2390.000000	65.316414  
2389.000000	65.319323  
2388.000000	65.321326  
2387.000000	65.322113  
2386.000000	65.321350  
2385.000000	65.318250  
2384.000000	65.312385  
2383.000000	65.303349  
2382.000000	65.291070  
2381.000000	65.275859  
2380.000000	65.258073  
2379.000000	65.238761  
2378.000000	65.219473  
2377.000000	65.202426  
2376.000000	65.189981  
2375.000000	65.184307  
2374.000000	65.187025  
2373.000000	65.198540  
2372.000000	65.218186  
2371.000000	65.243911  
2370.000000	65.272593  
2369.000000	65.300536  
2368.000000	65.324187  
2367.000000	65.340781  
2366.000000	65.348935  
2365.000000	65.348911  
2364.000000	65.342330  
2363.000000	65.331745  
2362.000000	65.319991  
2361.000000	65.309619  
2360.000000	65.302443  
2359.000000	65.299153  
2358.000000	65.299344  
2357.000000	65.301585  
2356.000000	65.304160  
2355.000000	65.305304  
2354.000000	65.303993  
2353.000000	65.299940  
2352.000000	65.293598  
2351.000000	65.286231  
2350.000000	65.279269  
2349.000000	65.273666  
2348.000000	65.269851  
2347.000000	65.267586  
2346.000000	65.266180  
2345.000000	65.264821  
2344.000000	65.263032  
2343.000000	65.260863  
2342.000000	65.259051  
2341.000000	65.258741  
2340.000000	65.261006  
2339.000000	65.266203  
2338.000000	65.273857  
2337.000000	65.282416  
2336.000000	65.289735  
2335.000000	65.293359  
2334.000000	65.291643  
2333.000000	65.284299  
2332.000000	65.272736  
2331.000000	65.259528  
2330.000000	65.248107  
2329.000000	65.241909  
2328.000000	65.243291  
2327.000000	65.253424  
2326.000000	65.271830  
2325.000000	65.297150  
2324.000000	65.327262  
2323.000000	65.359854  
2322.000000	65.392994  
2321.000000	65.424871  
2320.000000	65.454149  
2319.000000	65.479373  
2318.000000	65.499067  
2317.000000	65.511751  
2316.000000	65.516066  
2315.000000	65.511178  
2314.000000	65.497231  
2313.000000	65.475368  
2312.000000	65.447950  
2311.000000	65.417909  
2310.000000	65.388250  
2309.000000	65.361380  
2308.000000	65.338802  
2307.000000	65.320968  
2306.000000	65.307211  
2305.000000	65.296363  
2304.000000	65.287137  
2303.000000	65.278649  
2302.000000	65.270686  
2301.000000	65.263414  
2300.000000	65.257787  
2299.000000	65.254664  
2298.000000	65.255188  
2297.000000	65.259766  
2296.000000	65.268540  
2295.000000	65.280842  
2294.000000	65.295720  
2293.000000	65.311622  
2292.000000	65.326809  
2291.000000	65.339636  
2290.000000	65.348863  
2289.000000	65.353608  
2288.000000	65.353894  
2287.000000	65.350723  
2286.000000	65.345788  
2285.000000	65.341424  
2284.000000	65.339708  
2283.000000	65.342140  
2282.000000	65.349102  
2281.000000	65.359807  
2280.000000	65.372419  
2279.000000	65.384316  
2278.000000	65.393042  
2277.000000	65.396833  
2276.000000	65.394830  
2275.000000	65.387201  
2274.000000	65.375185  
2273.000000	65.360307  
2272.000000	65.344047  
2271.000000	65.327405  
2270.000000	65.310692  
2269.000000	65.293693  
2268.000000	65.276265  
2267.000000	65.258479  
2266.000000	65.241050  
2265.000000	65.225243  
2264.000000	65.212512  
2263.000000	65.204143  
2262.000000	65.200495  
2261.000000	65.201020  
2260.000000	65.204167  
2259.000000	65.207934  
2258.000000	65.210247  
2257.000000	65.209913  
2256.000000	65.206933  
2255.000000	65.202546  
2254.000000	65.199041  
2253.000000	65.199017  
2252.000000	65.204620  
2251.000000	65.216851  
2250.000000	65.235018  
2249.000000	65.256929  
2248.000000	65.279030  
2247.000000	65.297579  
2246.000000	65.308976  
2245.000000	65.310978  
2244.000000	65.302705  
2243.000000	65.285062  
2242.000000	65.260434  
2241.000000	65.231943  
2240.000000	65.203285  
2239.000000	65.177774  
2238.000000	65.158247  
2237.000000	65.146660  
2236.000000	65.143799  
2235.000000	65.149664  
2234.000000	65.163373  
2233.000000	65.183281  
2232.000000	65.207171  
2231.000000	65.232348  
2230.000000	65.256142  
2229.000000	65.276217  
2228.000000	65.290808  
2227.000000	65.299034  
2226.000000	65.301036  
2225.000000	65.297913  
2224.000000	65.291380  
2223.000000	65.283632  
2222.000000	65.276932  
2221.000000	65.272903  
2220.000000	65.272617  
2219.000000	65.276050  
2218.000000	65.282487  
2217.000000	65.290641  
2216.000000	65.298771  
2215.000000	65.305471  
2214.000000	65.309786  
2213.000000	65.311527  
2212.000000	65.311241  
2211.000000	65.309691  
2210.000000	65.307903  
2209.000000	65.306591  
2208.000000	65.305829  
2207.000000	65.304946  
2206.000000	65.302753  
2205.000000	65.297985  
2204.000000	65.289783  
2203.000000	65.278291  
2202.000000	65.264844  
2201.000000	65.251946  
2200.000000	65.242648  
2199.000000	65.239715  
2198.000000	65.244889  
2197.000000	65.258002  
2196.000000	65.277099  
2195.000000	65.298604  
2194.000000	65.318465  
2193.000000	65.332889  
2192.000000	65.339398  
2191.000000	65.337443  
2190.000000	65.328454  
2189.000000	65.315508  
2188.000000	65.302157  
2187.000000	65.291619  
2186.000000	65.285706  
2185.000000	65.284705  
2184.000000	65.287232  
2183.000000	65.290927  
2182.000000	65.293121  
2181.000000	65.291976  
2180.000000	65.286922  
2179.000000	65.278673  
2178.000000	65.269517  
2177.000000	65.262174  
2176.000000	65.259432  
2175.000000	65.263199  
2174.000000	65.274095  
2173.000000	65.291118  
2172.000000	65.311932  
2171.000000	65.333223  
2170.000000	65.351414  
2169.000000	65.363359  
2168.000000	65.366911  
2167.000000	65.361475  
2166.000000	65.347909  
2165.000000	65.328788  
2164.000000	65.307617  
2163.000000	65.288233  
2162.000000	65.274190  
2161.000000	65.267944  
2160.000000	65.270566  
2159.000000	65.281605  
2158.000000	65.299034  
2157.000000	65.320134  
2156.000000	65.342068  
2155.000000	65.362763  
2154.000000	65.381145  
2153.000000	65.397477  
2152.000000	65.412950  
2151.000000	65.429067  
2150.000000	65.446805  
2149.000000	65.466141  
2148.000000	65.485644  
2147.000000	65.502667  
2146.000000	65.514183  
2145.000000	65.517830  
2144.000000	65.512824  
2143.000000	65.500640  
2142.000000	65.484595  
2141.000000	65.469360  
2140.000000	65.459370  
2139.000000	65.458011  
2138.000000	65.466189  
2137.000000	65.482425  
2136.000000	65.502643  
2135.000000	65.521526  
2134.000000	65.533375  
2133.000000	65.533518  
2132.000000	65.519380  
2131.000000	65.490865  
2130.000000	65.450596  
2129.000000	65.403032  
2128.000000	65.353989  
2127.000000	65.309143  
2126.000000	65.273451  
2125.000000	65.250229  
2124.000000	65.240740  
2123.000000	65.244197  
2122.000000	65.258002  
2121.000000	65.278601  
2120.000000	65.301990  
2119.000000	65.324544  
2118.000000	65.344119  
2117.000000	65.360307  
2116.000000	65.374302  
2115.000000	65.387988  
2114.000000	65.403461  
2113.000000	65.421843  
2112.000000	65.442657  
2111.000000	65.463638  
2110.000000	65.481281  
2109.000000	65.491628  
2108.000000	65.491676  
2107.000000	65.479969  
2106.000000	65.457034  
2105.000000	65.425419  
2104.000000	65.389490  
2103.000000	65.354084  
2102.000000	65.323400  
2101.000000	65.300321  
2100.000000	65.286445  
2099.000000	65.281391  
2098.000000	65.283250  
2097.000000	65.289330  
2096.000000	65.297102  
2095.000000	65.303874  
2094.000000	65.307426  
2093.000000	65.305757  
2092.000000	65.297317  
2091.000000	65.281105  
2090.000000	65.256643  
2089.000000	65.224218  
2088.000000	65.184712  
2087.000000	65.140175  
2086.000000	65.093612  
2085.000000	65.048217  
2084.000000	65.007281  
2083.000000	64.973759  
2082.000000	64.950251  
2081.000000	64.938116  
2080.000000	64.938449  
2079.000000	64.951443  
2078.000000	64.977717  
2077.000000	65.017151  
2076.000000	65.069961  
2075.000000	65.135669  
2074.000000	65.213155  
2073.000000	65.300130  
2072.000000	65.392470  
2071.000000	65.484404  
2070.000000	65.569138  
2069.000000	65.639805  
2068.000000	65.690135  
2067.000000	65.715575  
2066.000000	65.714049  
2065.000000	65.686416  
2064.000000	65.635704  
2063.000000	65.566587  
2062.000000	65.484809  
2061.000000	65.396118  
2060.000000	65.306115  
2059.000000	65.219497  
2058.000000	65.140557  
2057.000000	65.072846  
2056.000000	65.019035  
2055.000000	64.981174  
2054.000000	64.960050  
2053.000000	64.955615  
2052.000000	64.966011  
2051.000000	64.988732  
2050.000000	65.019726  
2049.000000	65.055227  
2048.000000	65.091419  
2047.000000	65.125656  
2046.000000	65.156030  
2045.000000	65.181899  
2044.000000	65.203499  
2043.000000	65.221524  
2042.000000	65.236520  
2041.000000	65.249037  
2040.000000	65.259552  
2039.000000	65.268397  
2038.000000	65.275764  
2037.000000	65.281653  
2036.000000	65.285825  
2035.000000	65.287804  
2034.000000	65.286874  
2033.000000	65.282082  
2032.000000	65.272760  
2031.000000	65.259075  
2030.000000	65.242242  
2029.000000	65.224170  
2028.000000	65.207743  
2027.000000	65.196180  
2026.000000	65.192580  
2025.000000	65.198564  
2024.000000	65.214347  
2023.000000	65.238165  
2022.000000	65.266895  
2021.000000	65.296435  
2020.000000	65.322756  
2019.000000	65.342617  
2018.000000	65.354323  
2017.000000	65.357780  
2016.000000	65.354418  
2015.000000	65.346527  
2014.000000	65.336918  
2013.000000	65.328240  
2012.000000	65.322613  
2011.000000	65.321111  
2010.000000	65.323972  
2009.000000	65.330648  
2008.000000	65.340089  
2007.000000	65.350890  
2006.000000	65.361762  
2005.000000	65.371632  
2004.000000	65.379643  
2003.000000	65.385365  
2002.000000	65.388488  
2001.000000	65.389013  
2000.000000	65.387082  
1999.000000	65.383124  
1998.000000	65.377402  
1997.000000	65.370464  
1996.000000	65.363025  
1995.000000	65.355968  
1994.000000	65.350270  
1993.000000	65.347075  
1992.000000	65.347194  
1991.000000	65.351033  
1990.000000	65.358257  
1989.000000	65.367603  
1988.000000	65.376973  
1987.000000	65.383911  
1986.000000	65.386080  
1985.000000	65.381765  
1984.000000	65.370178  
1983.000000	65.351772  
1982.000000	65.328192  
1981.000000	65.301942  
1980.000000	65.276169  
1979.000000	65.253829  
1978.000000	65.237641  
1977.000000	65.229535  
1976.000000	65.230512  
1975.000000	65.240573  
1974.000000	65.258765  
1973.000000	65.283203  
1972.000000	65.311360  
1971.000000	65.340328  
1970.000000	65.367054  
1969.000000	65.388655  
1968.000000	65.402913  
1967.000000	65.408396  
1966.000000	65.404677  
1965.000000	65.392780  
1964.000000	65.374517  
1963.000000	65.352487  
1962.000000	65.329384  
1961.000000	65.307807  
1960.000000	65.289616  
1959.000000	65.275764  
1958.000000	65.266346  
1957.000000	65.260791  
1956.000000	65.258240  
1955.000000	65.258049  
1954.000000	65.259790  
1953.000000	65.263509  
1952.000000	65.269398  
1951.000000	65.277838  
1950.000000	65.288758  
1949.000000	65.302014  
1948.000000	65.316820  
1947.000000	65.332221  
1946.000000	65.347361  
1945.000000	65.361404  
1944.000000	65.374064  
1943.000000	65.385270  
1942.000000	65.395212  
1941.000000	65.404105  
1940.000000	65.412235  
1939.000000	65.419673  
1938.000000	65.426278  
1937.000000	65.431857  
1936.000000	65.436267  
1935.000000	65.439486  
1934.000000	65.441679  
1933.000000	65.442895  
1932.000000	65.442991  
1931.000000	65.441632  
1930.000000	65.438389  
1929.000000	65.432834  
1928.000000	65.424776  
1927.000000	65.414714  
1926.000000	65.403652  
1925.000000	65.393018  
1924.000000	65.384292  
1923.000000	65.378713  
1922.000000	65.376543  
1921.000000	65.377116  
1920.000000	65.378642  
1919.000000	65.378880  
1918.000000	65.375304  
1917.000000	65.365862  
1916.000000	65.349769  
1915.000000	65.327334  
1914.000000	65.300416  
1913.000000	65.271902  
1912.000000	65.245270  
1911.000000	65.223741  
1910.000000	65.209913  
1909.000000	65.205144  
1908.000000	65.209603  
1907.000000	65.221905  
1906.000000	65.239906  
1905.000000	65.260910  
1904.000000	65.282130  
1903.000000	65.301227  
1902.000000	65.316724  
1901.000000	65.328240  
1900.000000	65.336251  
1899.000000	65.341854  
1898.000000	65.346527  
1897.000000	65.351414  
1896.000000	65.357446  
1895.000000	65.364837  
1894.000000	65.373182  
1893.000000	65.381574  
1892.000000	65.389204  
1891.000000	65.395355  
1890.000000	65.399718  
1889.000000	65.402364  
1888.000000	65.403890  
1887.000000	65.404820  
1886.000000	65.405631  
1885.000000	65.406298  
1884.000000	65.406560  
1883.000000	65.405702  
1882.000000	65.402841  
1881.000000	65.397191  
1880.000000	65.388631  
1879.000000	65.377306  
1878.000000	65.363812  
1877.000000	65.349125  
1876.000000	65.334200  
1875.000000	65.319728  
1874.000000	65.306258  
1873.000000	65.293955  
1872.000000	65.282964  
1871.000000	65.273737  
1870.000000	65.267014  
1869.000000	65.263676  
1868.000000	65.264797  
1867.000000	65.271234  
1866.000000	65.283179  
1865.000000	65.299844  
1864.000000	65.319681  
1863.000000	65.340042  
1862.000000	65.358233  
1861.000000	65.371727  
1860.000000	65.378856  
1859.000000	65.379333  
1858.000000	65.374040  
1857.000000	65.364933  
1856.000000	65.354514  
1855.000000	65.345001  
1854.000000	65.337944  
1853.000000	65.334033  
1852.000000	65.333271  
1851.000000	65.335130  
1850.000000	65.339183  
1849.000000	65.345335  
1848.000000	65.353870  
1847.000000	65.365362  
1846.000000	65.380215  
1845.000000	65.398168  
1844.000000	65.418100  
1843.000000	65.438199  
1842.000000	65.456080  
1841.000000	65.469503  
1840.000000	65.476870  
1839.000000	65.477895  
1838.000000	65.473532  
1837.000000	65.465855  
1836.000000	65.457487  
1835.000000	65.450835  
1834.000000	65.447592  
1833.000000	65.448260  
1832.000000	65.452623  
1831.000000	65.459537  
1830.000000	65.467715  
1829.000000	65.475916  
1828.000000	65.483474  
1827.000000	65.489935  
1826.000000	65.495061  
1825.000000	65.498423  
1824.000000	65.499234  
1823.000000	65.496325  
1822.000000	65.488481  
1821.000000	65.474700  
1820.000000	65.454602  
1819.000000	65.428924  
1818.000000	65.399384  
1817.000000	65.368604  
1816.000000	65.339565  
1815.000000	65.315032  
1814.000000	65.297007  
1813.000000	65.286707  
1812.000000	65.284180  
1811.000000	65.288567  
1810.000000	65.298318  
1809.000000	65.311431  
1808.000000	65.325641  
1807.000000	65.338730  
1806.000000	65.348458  
1805.000000	65.352892  
1804.000000	65.350341  
1803.000000	65.339827  
1802.000000	65.321397  
1801.000000	65.296077  
1800.000000	65.266156  
1799.000000	65.234756  
1798.000000	65.205597  
1797.000000	65.182256  
1796.000000	65.167593  
1795.000000	65.163207  
1794.000000	65.169286  
1793.000000	65.184450  
1792.000000	65.206122  
1791.000000	65.230989  
1790.000000	65.255546  
1789.000000	65.276718  
1788.000000	65.291953  
1787.000000	65.300059  
1786.000000	65.300703  
1785.000000	65.294909  
1784.000000	65.284538  
1783.000000	65.271949  
1782.000000	65.259909  
1781.000000	65.250730  
1780.000000	65.246272  
1779.000000	65.247368  
1778.000000	65.253782  
1777.000000	65.264368  
1776.000000	65.277194  
1775.000000	65.290212  
1774.000000	65.301704  
1773.000000	65.310788  
1772.000000	65.317559  
1771.000000	65.322995  
1770.000000	65.328502  
1769.000000	65.335416  
1768.000000	65.344619  
1767.000000	65.355992  
1766.000000	65.368366  
1765.000000	65.379810  
1764.000000	65.388011  
1763.000000	65.390849  
1762.000000	65.386652  
1761.000000	65.374827  
1760.000000	65.355682  
1759.000000	65.330672  
1758.000000	65.301680  
1757.000000	65.270876  
1756.000000	65.240192  
1755.000000	65.211224  
1754.000000	65.184926  
1753.000000	65.161919  
1752.000000	65.142369  
1751.000000	65.126347  
1750.000000	65.113902  
1749.000000	65.105056  
1748.000000	65.099835  
1747.000000	65.097951  
1746.000000	65.098929  
1745.000000	65.102076  
1744.000000	65.106225  
1743.000000	65.109848  
1742.000000	65.111541  
1741.000000	65.110135  
1740.000000	65.104794  
1739.000000	65.095281  
1738.000000	65.081930  
1737.000000	65.065717  
1736.000000	65.047812  
1735.000000	65.029287  
1734.000000	65.011191  
1733.000000	64.994192  
1732.000000	64.978885  
1731.000000	64.965534  
1730.000000	64.954233  
1729.000000	64.945054  
1728.000000	64.937710  
1727.000000	64.932036  
1726.000000	64.927601  
1725.000000	64.924526  
1724.000000	64.922904  
1723.000000	64.923691  
1722.000000	64.928174  
1721.000000	64.937996  
1720.000000	64.954662  
1719.000000	64.979290  
1718.000000	65.012097  
1717.000000	65.052175  
1716.000000	65.097522  
1715.000000	65.145421  
1714.000000	65.192723  
1713.000000	65.236616  
1712.000000	65.274930  
1711.000000	65.306448  
1710.000000	65.330839  
1709.000000	65.348410  
1708.000000	65.359807  
1707.000000	65.365719  
1706.000000	65.366673  
1705.000000	65.363240  
1704.000000	65.355873  
1703.000000	65.345740  
1702.000000	65.334057  
1701.000000	65.322160  
1700.000000	65.311193  
1699.000000	65.302157  
1698.000000	65.295457  
1697.000000	65.291094  
1696.000000	65.288615  
1695.000000	65.287494  
1694.000000	65.287089  
1693.000000	65.286993  
1692.000000	65.286874  
1691.000000	65.286421  
1690.000000	65.285325  
1689.000000	65.283179  
1688.000000	65.279364  
1687.000000	65.273118  
1686.000000	65.263938  
1685.000000	65.252089  
1684.000000	65.238237  
1683.000000	65.223670  
1682.000000	65.210390  
1681.000000	65.200614  
1680.000000	65.196061  
1679.000000	65.197849  
1678.000000	65.206503  
1677.000000	65.221405  
1676.000000	65.241193  
1675.000000	65.263557  
1674.000000	65.285634  
1673.000000	65.304374  
1672.000000	65.317106  
1671.000000	65.321898  
1670.000000	65.318155  
1669.000000	65.306782  
1668.000000	65.290069  
1667.000000	65.271043  
1666.000000	65.252876  
1665.000000	65.238165  
1664.000000	65.228295  
1663.000000	65.223217  
1662.000000	65.221691  
1661.000000	65.221619  
1660.000000	65.220761  
1659.000000	65.217566  
1658.000000	65.211486  
1657.000000	65.202927  
1656.000000	65.193128  
1655.000000	65.183687  
1654.000000	65.176129  
1653.000000	65.171146  
1652.000000	65.169024  
1651.000000	65.169429  
1650.000000	65.172195  
1649.000000	65.177369  
1648.000000	65.185284  
1647.000000	65.196728  
1646.000000	65.212321  
1645.000000	65.232014  
1644.000000	65.255236  
1643.000000	65.280485  
1642.000000	65.305685  
1641.000000	65.328431  
1640.000000	65.346550  
1639.000000	65.358734  
1638.000000	65.364432  
1637.000000	65.364098  
1636.000000	65.358662  
1635.000000	65.349245  
1634.000000	65.336775  
1633.000000	65.321731  
1632.000000	65.304422  
1631.000000	65.284991  
1630.000000	65.263915  
1629.000000	65.242028  
1628.000000	65.220594  
1627.000000	65.200972  
1626.000000	65.184402  
1625.000000	65.171599  
1624.000000	65.162754  
1623.000000	65.157318  
1622.000000	65.154290  
1621.000000	65.152215  
1620.000000	65.149545  
1619.000000	65.145015  
1618.000000	65.137505  
1617.000000	65.126824  
1616.000000	65.113258  
1615.000000	65.098094  
1614.000000	65.082883  
1613.000000	65.069317  
1612.000000	65.058970  
1611.000000	65.052866  
1610.000000	65.051126  
1609.000000	65.053343  
1608.000000	65.058445  
1607.000000	65.064954  
1606.000000	65.071320  
1605.000000	65.076375  
1604.000000	65.079569  
1603.000000	65.080833  
1602.000000	65.080738  
1601.000000	65.080165  
1600.000000	65.080165  
1599.000000	65.081572  
1598.000000	65.085053  
1597.000000	65.090870  
1596.000000	65.098834  
1595.000000	65.108489  
1594.000000	65.119075  
1593.000000	65.129685  
1592.000000	65.139341  
1591.000000	65.147066  
1590.000000	65.152359  
1589.000000	65.155005  
1588.000000	65.155434  
1587.000000	65.154457  
1586.000000	65.153312  
1585.000000	65.153241  
1584.000000	65.155196  
1583.000000	65.159654  
1582.000000	65.166044  
1581.000000	65.172839  
1580.000000	65.177845  
1579.000000	65.178728  
1578.000000	65.173602  
1577.000000	65.161633  
1576.000000	65.143442  
1575.000000	65.120720  
1574.000000	65.096068  
1573.000000	65.071988  
1572.000000	65.050673  
1571.000000	65.033388  
1570.000000	65.020394  
1569.000000	65.011000  
1568.000000	65.004086  
1567.000000	64.998364  
1566.000000	64.992856  
1565.000000	64.986920  
1564.000000	64.980196  
1563.000000	64.972662  
1562.000000	64.964199  
1561.000000	64.955139  
1560.000000	64.945602  
1559.000000	64.936137  
1558.000000	64.927744  
1557.000000	64.921784  
1556.000000	64.919805  
1555.000000	64.922809  
1554.000000	64.931082  
1553.000000	64.943838  
1552.000000	64.959359  
1551.000000	64.975523  
1550.000000	64.990520  
1549.000000	65.003609  
1548.000000	65.015196  
1547.000000	65.026855  
1546.000000	65.040588  
1545.000000	65.058350  
1544.000000	65.081167  
1543.000000	65.108656  
1542.000000	65.138792  
1541.000000	65.168619  
1540.000000	65.194606  
1539.000000	65.213775  
1538.000000	65.223956  
1537.000000	65.224790  
1536.000000	65.217399  
1535.000000	65.204048  
1534.000000	65.187597  
1533.000000	65.171003  
1532.000000	65.156674  
1531.000000	65.146088  
1530.000000	65.139889  
1529.000000	65.138101  
1528.000000	65.139985  
1527.000000	65.144658  
1526.000000	65.150952  
1525.000000	65.158009  
1524.000000	65.165352  
1523.000000	65.172982  
1522.000000	65.181279  
1521.000000	65.190649  
1520.000000	65.201568  
1519.000000	65.214109  
1518.000000	65.227556  
1517.000000	65.240383  
1516.000000	65.250682  
1515.000000	65.256547  
1514.000000	65.256214  
1513.000000	65.248799  
1512.000000	65.234708  
1511.000000	65.215444  
1510.000000	65.193700  
1509.000000	65.172600  
1508.000000	65.155315  
1507.000000	65.144371  
1506.000000	65.141057  
1505.000000	65.145373  
1504.000000	65.156149  
1503.000000	65.171265  
1502.000000	65.188312  
1501.000000	65.204715  
1500.000000	65.218138  
1499.000000	65.226745  
1498.000000	65.229249  
1497.000000	65.224766  
1496.000000	65.212774  
1495.000000	65.193319  
1494.000000	65.166926  
1493.000000	65.134596  
1492.000000	65.097975  
1491.000000	65.059113  
1490.000000	65.020728  
1489.000000	64.985728  
1488.000000	64.957070  
1487.000000	64.936923  
1486.000000	64.926886  
1485.000000	64.927196  
1484.000000	64.937329  
1483.000000	64.955258  
1482.000000	64.978623  
1481.000000	65.004587  
1480.000000	65.030765  
1479.000000	65.055131  
1478.000000	65.076446  
1477.000000	65.093970  
1476.000000	65.107583  
1475.000000	65.117669  
1474.000000	65.124893  
1473.000000	65.129899  
1472.000000	65.133547  
1471.000000	65.136885  
1470.000000	65.141010  
1469.000000	65.147113  
1468.000000	65.156292  
1467.000000	65.169048  
1466.000000	65.185070  
1465.000000	65.203070  
1464.000000	65.220880  
1463.000000	65.235781  
1462.000000	65.245056  
1461.000000	65.246462  
1460.000000	65.238904  
1459.000000	65.222382  
1458.000000	65.198111  
1457.000000	65.168166  
1456.000000	65.135216  
1455.000000	65.102505  
1454.000000	65.073490  
1453.000000	65.051722  
1452.000000	65.040135  
1451.000000	65.041303  
1450.000000	65.056633  
1449.000000	65.086078  
1448.000000	65.127682  
1447.000000	65.177893  
1446.000000	65.231966  
1445.000000	65.284538  
1444.000000	65.330505  
1443.000000	65.365958  
1442.000000	65.388727  
1441.000000	65.398693  
1440.000000	65.397453  
1439.000000	65.387487  
1438.000000	65.371394  
1437.000000	65.351629  
1436.000000	65.329647  
1435.000000	65.306448  
1434.000000	65.282344  
1433.000000	65.257835  
1432.000000	65.233469  
1431.000000	65.210127  
1430.000000	65.188694  
1429.000000	65.169787  
1428.000000	65.153455  
1427.000000	65.139055  
1426.000000	65.125513  
1425.000000	65.111422  
1424.000000	65.095782  
1423.000000	65.078258  
1422.000000	65.059566  
1421.000000	65.041232  
1420.000000	65.025496  
1419.000000	65.014696  
1418.000000	65.010523  
1417.000000	65.013813  
1416.000000	65.024685  
1415.000000	65.042567  
1414.000000	65.066313  
1413.000000	65.094423  
1412.000000	65.125250  
1411.000000	65.157032  
1410.000000	65.187525  
1409.000000	65.214538  
1408.000000	65.236067  
1407.000000	65.250635  
1406.000000	65.257596  
1405.000000	65.257167  
1404.000000	65.250444  
1403.000000	65.239119  
1402.000000	65.225291  
1401.000000	65.210676  
1400.000000	65.196657  
1399.000000	65.183639  
1398.000000	65.171742  
1397.000000	65.160393  
1396.000000	65.148806  
1395.000000	65.136528  
1394.000000	65.123605  
1393.000000	65.110468  
1392.000000	65.097999  
1391.000000	65.087223  
1390.000000	65.078997  
1389.000000	65.073657  
1388.000000	65.070819  
1387.000000	65.069699  
1386.000000	65.068960  
1385.000000	65.067005  
1384.000000	65.062308  
1383.000000	65.053606  
1382.000000	65.040278  
1381.000000	65.022492  
1380.000000	65.001082  
1379.000000	64.977478  
1378.000000	64.953565  
1377.000000	64.931201  
1376.000000	64.912104  
1375.000000	64.897418  
1374.000000	64.887738  
1373.000000	64.883279  
1372.000000	64.883804  
1371.000000	64.888501  
1370.000000	64.896297  
1369.000000	64.905905  
1368.000000	64.916062  
1367.000000	64.925408  
1366.000000	64.933204  
1365.000000	64.939332  
1364.000000	64.944529  
1363.000000	64.950037  
1362.000000	64.957451  
1361.000000	64.968466  
1360.000000	64.984273  
1359.000000	65.005517  
1358.000000	65.032005  
1357.000000	65.062808  
1356.000000	65.096688  
1355.000000	65.132117  
1354.000000	65.167593  
1353.000000	65.201330  
1352.000000	65.232181  
1351.000000	65.258336  
1350.000000	65.278172  
1349.000000	65.289545  
1348.000000	65.290641  
1347.000000	65.279817  
1346.000000	65.256452  
1345.000000	65.221095  
1344.000000	65.176057  
1343.000000	65.124630  
1342.000000	65.071153  
1341.000000	65.019917  
1340.000000	64.974927  
1339.000000	64.939022  
1338.000000	64.913821  
1337.000000	64.899349  
1336.000000	64.894604  
1335.000000	64.897704  
1334.000000	64.906477  
1333.000000	64.918661  
1332.000000	64.932656  
1331.000000	64.947366  
1330.000000	64.962577  
1329.000000	64.978528  
1328.000000	64.995479  
1327.000000	65.013575  
1326.000000	65.032362  
1325.000000	65.050673  
1324.000000	65.066432  
1323.000000	65.077328  
1322.000000	65.080809  
1321.000000	65.074992  
1320.000000	65.058970  
1319.000000	65.033531  
1318.000000	65.001010  
1317.000000	64.965105  
1316.000000	64.930009  
1315.000000	64.899921  
1314.000000	64.878153  
1313.000000	64.866757  
1312.000000	64.866352  
1311.000000	64.876008  
1310.000000	64.894104  
1309.000000	64.918589  
1308.000000	64.947271  
1307.000000	64.978027  
1306.000000	65.008950  
1305.000000	65.038251  
1304.000000	65.064144  
1303.000000	65.084981  
1302.000000	65.099167  
1301.000000	65.105581  
1300.000000	65.104341  
1299.000000	65.096497  
1298.000000	65.084075  
1297.000000	65.069556  
1296.000000	65.055680  
1295.000000	65.044546  
1294.000000	65.037131  
1293.000000	65.033388  
1292.000000	65.032315  
1291.000000	65.032577  
1290.000000	65.033054  
1289.000000	65.033340  
1288.000000	65.033936  
1287.000000	65.036201  
1286.000000	65.041732  
1285.000000	65.051984  
1284.000000	65.067601  
1283.000000	65.088105  
1282.000000	65.111947  
1281.000000	65.136694  
1280.000000	65.159440  
1279.000000	65.177464  
1278.000000	65.188193  
1277.000000	65.189599  
1276.000000	65.180230  
1275.000000	65.159201  
1274.000000	65.126085  
1273.000000	65.081357  
1272.000000	65.026688  
1271.000000	64.964962  
1270.000000	64.900350  
1269.000000	64.838242  
1268.000000	64.784407  
1267.000000	64.744162  
1266.000000	64.721584  
1265.000000	64.718508  
1264.000000	64.734315  
1263.000000	64.765739  
1262.000000	64.807891  
1261.000000	64.855027  
1260.000000	64.901661  
1259.000000	64.943289  
1258.000000	64.977049  
1257.000000	65.001654  
1256.000000	65.017151  
1255.000000	65.024447  
1254.000000	65.024900  
1253.000000	65.019845  
1252.000000	65.010690  
1251.000000	64.998817  
1250.000000	64.985609  
1249.000000	64.972376  
1248.000000	64.960503  
1247.000000	64.950990  
1246.000000	64.944720  
1245.000000	64.941859  
1244.000000	64.942073  
1243.000000	64.944696  
1242.000000	64.948487  
1241.000000	64.952397  
1240.000000	64.955639  
1239.000000	64.957761  
1238.000000	64.958548  
1237.000000	64.958024  
1236.000000	64.956474  
1235.000000	64.954257  
1234.000000	64.951539  
1233.000000	64.948630  
1232.000000	64.945912  
1231.000000	64.944052  
1230.000000	64.943909  
1229.000000	64.946365  
1228.000000	64.952182  
1227.000000	64.961934  
1226.000000	64.975786  
1225.000000	64.993190  
1224.000000	65.012812  
1223.000000	65.032935  
1222.000000	65.051484  
1221.000000	65.066432  
1220.000000	65.076160  
1219.000000	65.079832  
1218.000000	65.077519  
1217.000000	65.070343  
1216.000000	65.060257  
1215.000000	65.049576  
1214.000000	65.040516  
1213.000000	65.034961  
1212.000000	65.033769  
1211.000000	65.037012  
1210.000000	65.043687  
1209.000000	65.052175  
1208.000000	65.060710  
1207.000000	65.067720  
1206.000000	65.072226  
1205.000000	65.073895  
1204.000000	65.073132  
1203.000000	65.070843  
1202.000000	65.068078  
1201.000000	65.065383  
1200.000000	65.062689  
1199.000000	65.059256  
1198.000000	65.053772  
1197.000000	65.044808  
1196.000000	65.031528  
1195.000000	65.014028  
1194.000000	64.993429  
1193.000000	64.971590  
1192.000000	64.950919  
1191.000000	64.933562  
1190.000000	64.920806  
1189.000000	64.912962  
1188.000000	64.909458  
1187.000000	64.909100  
1186.000000	64.910459  
1185.000000	64.912247  
1184.000000	64.913439  
1183.000000	64.913296  
1182.000000	64.911293  
1181.000000	64.907121  
1180.000000	64.900565  
1179.000000	64.891552  
1178.000000	64.880084  
1177.000000	64.866757  
1176.000000	64.852476  
1175.000000	64.838647  
1174.000000	64.826822  
1173.000000	64.818263  
1172.000000	64.813637  
1171.000000	64.812731  
1170.000000	64.814472  
1169.000000	64.816975  
1168.000000	64.817976  
1167.000000	64.815473  
1166.000000	64.808368  
1165.000000	64.796710  
1164.000000	64.781832  
1163.000000	64.766001  
1162.000000	64.752149  
1161.000000	64.743018  
1160.000000	64.740514  
1159.000000	64.745497  
1158.000000	64.757323  
1157.000000	64.773941  
1156.000000	64.792346  
1155.000000	64.809370  
1154.000000	64.821934  
1153.000000	64.827775  
1152.000000	64.825773  
1151.000000	64.816141  
1150.000000	64.800357  
1149.000000	64.780974  
1148.000000	64.761209  
1147.000000	64.744329  
1146.000000	64.733242  
1145.000000	64.729857  
1144.000000	64.735054  
1143.000000	64.748382  
1142.000000	64.768028  
1141.000000	64.791154  
1140.000000	64.814472  
1139.000000	64.834451  
1138.000000	64.848065  
1137.000000	64.853119  
1136.000000	64.848470  
1135.000000	64.834451  
1134.000000	64.812755  
1133.000000	64.786434  
1132.000000	64.759039  
1131.000000	64.734482  
1130.000000	64.716362  
1129.000000	64.707279  
1128.000000	64.708352  
1127.000000	64.718937  
1126.000000	64.736986  
1125.000000	64.759016  
1124.000000	64.780879  
1123.000000	64.798378  
1122.000000	64.808320  
1121.000000	64.809012  
1120.000000	64.800763  
1119.000000	64.785599  
1118.000000	64.767098  
1117.000000	64.749598  
1116.000000	64.737462  
1115.000000	64.734148  
1114.000000	64.741206  
1113.000000	64.758324  
1112.000000	64.782953  
1111.000000	64.810967  
1110.000000	64.837002  
1109.000000	64.855790  
1108.000000	64.862489  
1107.000000	64.854121  
1106.000000	64.829277  
1105.000000	64.788842  
1104.000000	64.735007  
1103.000000	64.671039  
1102.000000	64.600729  
1101.000000	64.527940  
1100.000000	64.456653  
1099.000000	64.390468  
1098.000000	64.333009  
1097.000000	64.287853  
1096.000000	64.258241  
1095.000000	64.246773  
1094.000000	64.254665  
1093.000000	64.281344  
1092.000000	64.324498  
1091.000000	64.379978  
1090.000000	64.442110  
1089.000000	64.504671  
1088.000000	64.561438  
1087.000000	64.607357  
1086.000000	64.639210  
1085.000000	64.656114  
1084.000000	64.659166  
1083.000000	64.651274  
1082.000000	64.636778  
1081.000000	64.620399  
1080.000000	64.606475  
1079.000000	64.598274  
1078.000000	64.598035  
1077.000000	64.606308  
1076.000000	64.622521  
1075.000000	64.644956  
1074.000000	64.671492  
1073.000000	64.699745  
1072.000000	64.727592  
1071.000000	64.753341  
1070.000000	64.775705  
1069.000000	64.793658  
1068.000000	64.806032  
1067.000000	64.811873  
1066.000000	64.810466  
1065.000000	64.801359  
1064.000000	64.784789  
1063.000000	64.761996  
1062.000000	64.735484  
1061.000000	64.708852  
1060.000000	64.686393  
1059.000000	64.672279  
1058.000000	64.669847  
1057.000000	64.681291  
1056.000000	64.706850  
1055.000000	64.744615  
1054.000000	64.790964  
1053.000000	64.841103  
1052.000000	64.889860  
1051.000000	64.932179  
1050.000000	64.964032  
1049.000000	64.983177  
1048.000000	64.988803  
1047.000000	64.981603  
1046.000000	64.963459  
1045.000000	64.937162  
1044.000000	64.905953  
1043.000000	64.873170  
1042.000000	64.842224  
1041.000000	64.816474  
1040.000000	64.798903  
1039.000000	64.791750  
1038.000000	64.795827  
1037.000000	64.810466  
1036.000000	64.833164  
1035.000000	64.860057  
1034.000000	64.886689  
1033.000000	64.908957  
1032.000000	64.924049  
1031.000000	64.930963  
1030.000000	64.930510  
1029.000000	64.924645  
1028.000000	64.916276  
1027.000000	64.907240  
1026.000000	64.898157  
1025.000000	64.887261  
1024.000000	64.871525  
1023.000000	64.846634  
1022.000000	64.808893  
1021.000000	64.756011  
1020.000000	64.688420  
1019.000000	64.609599  
1018.000000	64.525556  
1017.000000	64.444255  
1016.000000	64.373779  
1015.000000	64.321184  
1014.000000	64.291048  
1013.000000	64.284801  
1012.000000	64.300584  
1011.000000	64.333152  
1010.000000	64.375281  
1009.000000	64.418745  
1008.000000	64.456486  
1007.000000	64.483547  
1006.000000	64.498424  
1005.000000	64.502263  
1004.000000	64.498972  
1003.000000	64.494013  
1002.000000	64.493012  
1001.000000	64.500093  
1000.000000	64.516997  
999.000000	 64.542961  
998.000000	 64.574718  
997.000000	 64.608144  
996.000000	 64.638924  
995.000000	 64.664077  
994.000000	 64.682412  
993.000000	 64.694499  
992.000000	 64.702153  
991.000000	 64.707374  
990.000000	 64.711785  
989.000000	 64.716029  
988.000000	 64.720296  
987.000000	 64.724302  
986.000000	 64.728522  
985.000000	 64.734125  
984.000000	 64.742231  
983.000000	 64.753365  
982.000000	 64.766573  
981.000000	 64.779186  
980.000000	 64.786791  
979.000000	 64.784288  
978.000000	 64.767122  
977.000000	 64.733171  
976.000000	 64.684104  
975.000000	 64.625477  
974.000000	 64.566111  
973.000000	 64.515566  
972.000000	 64.482116  
971.000000	 64.470076  
970.000000	 64.478373  
969.000000	 64.500927  
968.000000	 64.528703  
967.000000	 64.551687  
966.000000	 64.561247  
965.000000	 64.552569  
964.000000	 64.525723  
963.000000	 64.485383  
962.000000	 64.439010  
961.000000	 64.395499  
960.000000	 64.362502  
959.000000	 64.345574  
958.000000	 64.347028  
957.000000	 64.365434  
956.000000	 64.396214  
955.000000	 64.433455  
954.000000	 64.471292  
953.000000	 64.504384  
952.000000	 64.529490  
951.000000	 64.545583  
950.000000	 64.553856  
949.000000	 64.557600  
948.000000	 64.559864  
947.000000	 64.563679  
946.000000	 64.568591  
945.000000	 64.571809  
944.000000	 64.566779  
943.000000	 64.545631  
942.000000	 64.500570  
941.000000	 64.426350  
940.000000	 64.323210  
939.000000	 64.197707  
938.000000	 64.063000  
937.000000	 63.935995  
936.000000	 63.834786  
935.000000	 63.774371  
934.000000	 63.764691  
933.000000	 63.808560  
932.000000	 63.901591  
931.000000	 64.032983  
930.000000	 64.189124  
929.000000	 64.355731  
928.000000	 64.520573  
927.000000	 64.674282  
926.000000	 64.810204  
925.000000	 64.923310  
924.000000	 65.009236  
923.000000	 65.063405  
922.000000	 65.081238  
921.000000	 65.059256  
920.000000	 64.997696  
919.000000	 64.901185  
918.000000	 64.780282  
917.000000	 64.649748  
916.000000	 64.528512  
915.000000	 64.434266  
914.000000	 64.381241  
913.000000	 64.375662  
912.000000	 64.415073  
911.000000	 64.487290  
910.000000	 64.573526  
909.000000	 64.651894  
908.000000	 64.702463  
907.000000	 64.711475  
906.000000	 64.674091  
905.000000	 64.595770  
904.000000	 64.490342  
903.000000	 64.376854  
902.000000	 64.274930  
901.000000	 64.200568  
900.000000	 64.163112  
899.000000	 64.164638  
898.000000	 64.200377  
897.000000	 64.260649  
896.000000	 64.334011  
895.000000	 64.410877  
894.000000	 64.485120  
893.000000	 64.553856  
892.000000	 64.617347  
891.000000	 64.677023  
890.000000	 64.733815  
889.000000	 64.786601  
888.000000	 64.831614  
887.000000	 64.863181  
886.000000	 64.875411  
885.000000	 64.864850  
884.000000	 64.831542  
883.000000	 64.779877  
882.000000	 64.718294  
881.000000	 64.657831  
880.000000	 64.609432  
879.000000	 64.581298  
878.000000	 64.576935  
877.000000	 64.594221  
876.000000	 64.626812  
875.000000	 64.665770  
874.000000	 64.701676  
873.000000	 64.726805  
872.000000	 64.736628  
871.000000	 64.730501  
870.000000	 64.710903  
869.000000	 64.682650  
868.000000	 64.651322  
867.000000	 64.622020  
866.000000	 64.598560  
865.000000	 64.582610  
864.000000	 64.574527  
863.000000	 64.573049  
862.000000	 64.576101  
861.000000	 64.581561  
860.000000	 64.587879  
859.000000	 64.594340  
858.000000	 64.600276  
857.000000	 64.605665  
856.000000	 64.610624  
855.000000	 64.614868  
854.000000	 64.617443  
853.000000	 64.616680  
852.000000	 64.610385  
851.000000	 64.596247  
850.000000	 64.572334  
849.000000	 64.537429  
848.000000	 64.491295  
847.000000	 64.435100  
846.000000	 64.371371  
845.000000	 64.303278  
844.000000	 64.234352  
843.000000	 64.167761  
842.000000	 64.106845  
841.000000	 64.054584  
840.000000	 64.014124  
839.000000	 63.988113  
838.000000	 63.978528  
837.000000	 63.986086  
836.000000	 64.009475  
835.000000	 64.045214  
834.000000	 64.087700  
833.000000	 64.129257  
832.000000	 64.161849  
831.000000	 64.178085  
830.000000	 64.173197  
829.000000	 64.145803  
828.000000	 64.098787  
827.000000	 64.038610  
826.000000	 63.974165  
825.000000	 63.914728  
824.000000	 63.868403  
823.000000	 63.840556  
822.000000	 63.833045  
821.000000	 63.844299  
820.000000	 63.870310  
819.000000	 63.905429  
818.000000	 63.943552  
817.000000	 63.979244  
816.000000	 64.008259  
815.000000	 64.028406  
814.000000	 64.039254  
813.000000	 64.042162  
812.000000	 64.039731  
811.000000	 64.034771  
810.000000	 64.029026  
809.000000	 64.023041  
808.000000	 64.016342  
807.000000	 64.007759  
806.000000	 63.996243  
805.000000	 63.981699  
804.000000	 63.965344  
803.000000	 63.949894  
802.000000	 63.939023  
801.000000	 63.936352  
800.000000	 63.944411  
799.000000	 63.963961  
798.000000	 63.993692  
797.000000	 64.030528  
796.000000	 64.069986  
795.000000	 64.107513  
794.000000	 64.138865  
793.000000	 64.161181  
792.000000	 64.173030  
791.000000	 64.173698  
790.000000	 64.163446  
789.000000	 64.143085  
788.000000	 64.114356  
787.000000	 64.080262  
786.000000	 64.044809  
785.000000	 64.013528  
784.000000	 63.991379  
783.000000	 63.982367  
782.000000	 63.987636  
781.000000	 64.005231  
780.000000	 64.030075  
779.000000	 64.054679  
778.000000	 64.071679  
777.000000	 64.075374  
776.000000	 64.063596  
775.000000	 64.038085  
774.000000	 64.004087  
773.000000	 63.968682  
772.000000	 63.939023  
771.000000	 63.920354  
770.000000	 63.914132  
769.000000	 63.917779  
768.000000	 63.926196  
767.000000	 63.933372  
766.000000	 63.934397  
765.000000	 63.927006  
764.000000	 63.912534  
763.000000	 63.895511  
762.000000	 63.881921  
761.000000	 63.877749  
760.000000	 63.886809  
759.000000	 63.910436  
758.000000	 63.946223  
757.000000	 63.989830  
756.000000	 64.036011  
755.000000	 64.080452  
754.000000	 64.121007  
753.000000	 64.158010  
752.000000	 64.194035  
751.000000	 64.231967  
750.000000	 64.274024  
749.000000	 64.319181  
748.000000	 64.362931  
747.000000	 64.396810  
746.000000	 64.410686  
745.000000	 64.394378  
744.000000	 64.341044  
743.000000	 64.248895  
742.000000	 64.122843  
741.000000	 63.973832  
740.000000	 63.817358  
739.000000	 63.670778  
738.000000	 63.549876  
737.000000	 63.466238  
736.000000	 63.424801  
735.000000	 63.423514  
734.000000	 63.453960  
733.000000	 63.503289  
732.000000	 63.557434  
731.000000	 63.602924  
730.000000	 63.630461  
729.000000	 63.635468  
728.000000	 63.619375  
727.000000	 63.587236  
726.000000	 63.546657  
725.000000	 63.505554  
724.000000	 63.469719  
723.000000	 63.442015  
722.000000	 63.421702  
721.000000	 63.405418  
720.000000	 63.388276  
719.000000	 63.366103  
718.000000	 63.336229  
717.000000	 63.298630  
716.000000	 63.255977  
715.000000	 63.212919  
714.000000	 63.174700  
713.000000	 63.145756  
712.000000	 63.128995  
711.000000	 63.125061  
710.000000	 63.131880  
709.000000	 63.145232  
708.000000	 63.160467  
707.000000	 63.172793  
706.000000	 63.177800  
705.000000	 63.172459  
704.000000	 63.155102  
703.000000	 63.126254  
702.000000	 63.087892  
701.000000	 63.043856  
700.000000	 62.998461  
699.000000	 62.956905  
698.000000	 62.924361  
697.000000	 62.905454  
696.000000	 62.903022  
695.000000	 62.917923  
694.000000	 62.948727  
693.000000	 62.992191  
692.000000	 63.043618  
691.000000	 63.098192  
690.000000	 63.151693  
689.000000	 63.201451  
688.000000	 63.246393  
687.000000	 63.287162  
686.000000	 63.325309  
685.000000	 63.362503  
684.000000	 63.399648  
683.000000	 63.436388  
682.000000	 63.470458  
681.000000	 63.499307  
680.000000	 63.519334  
679.000000	 63.527512  
678.000000	 63.520860  
677.000000	 63.498139  
676.000000	 63.459014  
675.000000	 63.404417  
674.000000	 63.336324  
673.000000	 63.257646  
672.000000	 63.172268  
671.000000	 63.084936  
670.000000	 63.001060  
669.000000	 62.926387  
668.000000	 62.865948  
667.000000	 62.823367  
666.000000	 62.800025  
665.000000	 62.794613  
664.000000	 62.803053  
663.000000	 62.819409  
662.000000	 62.836909  
661.000000	 62.849450  
660.000000	 62.853240  
659.000000	 62.847566  
658.000000	 62.834811  
657.000000	 62.819790  
656.000000	 62.808513  
655.000000	 62.806653  
654.000000	 62.818026  
653.000000	 62.843346  
652.000000	 62.880539  
651.000000	 62.924575  
650.000000	 62.969255  
649.000000	 63.007950  
648.000000	 63.035440  
647.000000	 63.048458  
646.000000	 63.045692  
645.000000	 63.028073  
644.000000	 62.998270  
643.000000	 62.960124  
642.000000	 62.917828  
641.000000	 62.875652  
640.000000	 62.837219  
639.000000	 62.805700  
638.000000	 62.783885  
637.000000	 62.773489  
636.000000	 62.774848  
635.000000	 62.787079  
634.000000	 62.808275  
633.000000	 62.835502  
632.000000	 62.865614  
631.000000	 62.895584  
630.000000	 62.923336  
629.000000	 62.948393  
628.000000	 62.971282  
627.000000	 62.993550  
626.000000	 63.016080  
625.000000	 63.038635  
624.000000	 63.058161  
623.000000	 63.070034  
622.000000	 63.067579  
621.000000	 63.044571  
620.000000	 62.996339  
619.000000	 62.921595  
618.000000	 62.823605  
617.000000	 62.710380  
616.000000	 62.593674  
615.000000	 62.486457  
614.000000	 62.401270  
613.000000	 62.347483  
612.000000	 62.329888  
611.000000	 62.347650  
610.000000	 62.394809  
609.000000	 62.461233  
608.000000	 62.534999  
607.000000	 62.604570  
606.000000	 62.660884  
605.000000	 62.698650  
604.000000	 62.716770  
603.000000	 62.718009  
602.000000	 62.707853  
601.000000	 62.692809  
600.000000	 62.679076  
599.000000	 62.670516  
598.000000	 62.669086  
597.000000	 62.673282  
596.000000	 62.679958  
595.000000	 62.683653  
594.000000	 62.678956  
593.000000	 62.660956  
592.000000	 62.626123  
591.000000	 62.573933  
590.000000	 62.506914  
589.000000	 62.430977  
588.000000	 62.354135  
587.000000	 62.285637  
586.000000	 62.233710  
585.000000	 62.204837  
584.000000	 62.202382  
583.000000	 62.226152  
582.000000	 62.272477  
581.000000	 62.335062  
580.000000	 62.406349  
579.000000	 62.478518  
578.000000	 62.544679  
577.000000	 62.598991  
576.000000	 62.637448  
575.000000	 62.658834  
574.000000	 62.663960  
573.000000	 62.655353  
572.000000	 62.635469  
571.000000	 62.607192  
570.000000	 62.571978  
569.000000	 62.530755  
568.000000	 62.483119  
567.000000	 62.428283  
566.000000	 62.365818  
565.000000	 62.296342  
564.000000	 62.222695  
563.000000	 62.149477  
562.000000	 62.083029  
561.000000	 62.029814  
560.000000	 61.996006  
559.000000	 61.985421  
558.000000	 61.999082  
557.000000	 62.034249  
556.000000	 62.085175  
555.000000	 62.143898  
554.000000	 62.200760  
553.000000	 62.245965  
552.000000	 62.270450  
551.000000	 62.267208  
550.000000	 62.231445  
549.000000	 62.161874  
548.000000	 62.061214  
547.000000	 61.936521  
546.000000	 61.798715  
545.000000	 61.661338  
544.000000	 61.538624  
543.000000	 61.443114  
542.000000	 61.384272  
541.000000	 61.365914  
540.000000	 61.385250  
539.000000	 61.433839  
538.000000	 61.499547  
537.000000	 61.568880  
536.000000	 61.628961  
535.000000	 61.670207  
534.000000	 61.687445  
533.000000	 61.679840  
532.000000	 61.650109  
531.000000	 61.602354  
530.000000	 61.540555  
529.000000	 61.467170  
528.000000	 61.383223  
527.000000	 61.289072  
526.000000	 61.186075  
525.000000	 61.077499  
524.000000	 60.969614  
523.000000	 60.871028  
522.000000	 60.792088  
521.000000	 60.742235  
520.000000	 60.729074  
519.000000	 60.754776  
518.000000	 60.817909  
517.000000	 60.912775  
516.000000	 61.032700  
515.000000	 61.170125  
514.000000	 61.318922  
513.000000	 61.474728  
512.000000	 61.633133  
511.000000	 61.789608  
510.000000	 61.935877  
509.000000	 62.060499  
508.000000	 62.148356  
507.000000	 62.184309  
506.000000	 62.156295  
505.000000	 62.060046  
504.000000	 61.901593  
503.000000	 61.698460  
502.000000	 61.477327  
501.000000	 61.269950  
500.000000	 61.106157  
499.000000	 61.007666  
498.000000	 60.984039  
497.000000	 61.030507  
496.000000	 61.129379  
495.000000	 61.254286  
494.000000	 61.375975  
493.000000	 61.468672  
492.000000	 61.513757  
491.000000	 61.503434  
490.000000	 61.440467  
489.000000	 61.336326  
488.000000	 61.206173  
487.000000	 61.065506  
486.000000	 60.926914  
485.000000	 60.798335  
484.000000	 60.683727  
483.000000	 60.583829  
482.000000	 60.500192  
481.000000	 60.433936  
480.000000	 60.387563  
479.000000	 60.362315  
478.000000	 60.357427  
477.000000	 60.367393  
476.000000	 60.381293  
475.000000	 60.385560  
474.000000	 60.366439  
473.000000	 60.313725  
472.000000	 60.223293  
471.000000	 60.098242  
470.000000	 59.947800  
469.000000	 59.785008  
468.000000	 59.623193  
467.000000	 59.471559  
466.000000	 59.333777  
465.000000	 59.207987  
464.000000	 59.089207  
463.000000	 58.971643  
462.000000	 58.853006  
461.000000	 58.735704  
460.000000	 58.628726  
459.000000	 58.543872  
458.000000	 58.494019  
457.000000	 58.489990  
456.000000	 58.535313  
455.000000	 58.621358  
454.000000	 58.730649  
453.000000	 58.839774  
452.000000	 58.925151  
451.000000	 58.968758  
450.000000	 58.960986  
449.000000	 58.902478  
448.000000	 58.801889  
447.000000	 58.673691  
446.000000	 58.530807  
445.000000	 58.381485  
444.000000	 58.234977  
443.000000	 58.101058  
442.000000	 57.988977  
441.000000	 57.906723  
440.000000	 57.860684  
439.000000	 57.855439  
438.000000	 57.884979  
437.000000	 57.941389  
436.000000	 58.017015  
435.000000	 58.111572  
434.000000	 58.229541  
433.000000	 58.384251  
432.000000	 58.588910  
431.000000	 58.855819  
430.000000	 59.197115  
429.000000	 59.609413  
428.000000	 60.066318  
427.000000	 60.523772  
426.000000	 60.935258  
425.000000	 61.247467  
424.000000	 61.416506  
423.000000	 61.405038  
422.000000	 61.194372  
421.000000	 60.775804  
420.000000	 60.153102  
419.000000	 59.349989  
418.000000	 58.411121  
417.000000	 57.385063  
416.000000	 56.319165  
415.000000	 55.262827  
414.000000	 54.259800  
413.000000	 53.341364  
412.000000	 52.522039  
411.000000	 51.807308  
410.000000	 51.198339  
409.000000	 50.643372  
408.000000	 50.114250  
407.000000	 49.593949  
406.000000	 49.149036  
405.000000	 48.914647  
404.000000	 49.083685  
403.000000	 49.887585  
402.000000	 51.467728  
401.000000	 53.813719  
400.000000	 56.713390  
399.000000	 59.713339  
398.000000	 62.321305  
397.000000	 64.125108  
396.000000	 64.936757  
395.000000	 64.866495  
394.000000	 64.247369  
393.000000	 63.547015  
392.000000	 63.175606  
391.000000	 63.365840  
390.000000	 64.212965  
389.000000	 65.654039  
388.000000	 67.614841  
387.000000	 70.019030  
386.000000	 72.641515  
385.000000	 75.262546  
384.000000	 77.570772  
383.000000	 79.423213  
382.000000	 81.082177  
381.000000	 83.034372  
380.000000	 86.097860  
379.000000	 90.810394  
378.000000	 97.096371  
377.000000	 104.200387 
376.000000	 110.610985 
375.000000	 114.706540 
374.000000	 115.331935 
373.000000	 112.093162 
372.000000	 105.825400 
371.000000	 97.899508  
370.000000	 89.869022  

