PE IR       SPECTRUM    SPECTRUM    ASCII       PEDS        1.60        
  -1
C-38CF~1.ASC
17/03/27
16:18:59.00
17/03/27
16:18:59.00
tln
$C-4040-8_e0123$<ebV0>[-23.3,12.1,10.0,0.0,27,1,0]
370.000000
64









2002,4.07    
MIRTGS : RIGHTBACK : INTERNAL 2
MIR : ON : INTERNAL 2
OPTKBR

0.200000
8
8.000000
FILLER
SINGLE
SPECTRUM
UNLOCKED 256

DOUBLE

COMBINED
1
0
0


1.000000
BACKG


1
0
TRUE
51149
0
LEFT NOT FITTED RIGHT NOT FITTED 0
NONE
NONE
15600
12.000000
4.427000
51148
TRUE
1 0 8 72 0 0 0 0 

15798.010000






#HDR
-1
-1
#GR
CM-1
EGY
0.00002384185791015625
0.0
5000.000000
-1.000000
4631
8
2.455997
0.008106
#DATA
5000.000000	0.769138 
4999.000000	0.770187 
4998.000000	0.771141 
4997.000000	0.771951 
4996.000000	0.772595 
4995.000000	0.773072 
4994.000000	0.773406 
4993.000000	0.773620 
4992.000000	0.773739 
4991.000000	0.773811 
4990.000000	0.773954 
4989.000000	0.774216 
4988.000000	0.774693 
4987.000000	0.775408 
4986.000000	0.776314 
4985.000000	0.777363 
4984.000000	0.778508 
4983.000000	0.779557 
4982.000000	0.780510 
4981.000000	0.781226 
4980.000000	0.781655 
4979.000000	0.781822 
4978.000000	0.781869 
4977.000000	0.781774 
4976.000000	0.781702 
4975.000000	0.781702 
4974.000000	0.781869 
4973.000000	0.782155 
4972.000000	0.782513 
4971.000000	0.782966 
4970.000000	0.783371 
4969.000000	0.783753 
4968.000000	0.784015 
4967.000000	0.784158 
4966.000000	0.784182 
4965.000000	0.784111 
4964.000000	0.784015 
4963.000000	0.783848 
4962.000000	0.783705 
4961.000000	0.783610 
4960.000000	0.783538 
4959.000000	0.783514 
4958.000000	0.783586 
4957.000000	0.783681 
4956.000000	0.783848 
4955.000000	0.784039 
4954.000000	0.784254 
4953.000000	0.784587 
4952.000000	0.785040 
4951.000000	0.785589 
4950.000000	0.786328 
4949.000000	0.787210 
4948.000000	0.788187 
4947.000000	0.789237 
4946.000000	0.790238 
4945.000000	0.791144 
4944.000000	0.791811 
4943.000000	0.792241 
4942.000000	0.792431 
4941.000000	0.792455 
4940.000000	0.792384 
4939.000000	0.792312 
4938.000000	0.792360 
4937.000000	0.792622 
4936.000000	0.793123 
4935.000000	0.793886 
4934.000000	0.794816 
4933.000000	0.795817 
4932.000000	0.796771 
4931.000000	0.797629 
4930.000000	0.798344 
4929.000000	0.798845 
4928.000000	0.799179 
4927.000000	0.799393 
4926.000000	0.799584 
4925.000000	0.799775 
4924.000000	0.800013 
4923.000000	0.800299 
4922.000000	0.800585 
4921.000000	0.800919 
4920.000000	0.801181 
4919.000000	0.801444 
4918.000000	0.801634 
4917.000000	0.801801 
4916.000000	0.801897 
4915.000000	0.802040 
4914.000000	0.802206 
4913.000000	0.802421 
4912.000000	0.802731 
4911.000000	0.803089 
4910.000000	0.803518 
4909.000000	0.803995 
4908.000000	0.804471 
4907.000000	0.804924 
4906.000000	0.805282 
4905.000000	0.805544 
4904.000000	0.805640 
4903.000000	0.805544 
4902.000000	0.805258 
4901.000000	0.804853 
4900.000000	0.804424 
4899.000000	0.804018 
4898.000000	0.803780 
4897.000000	0.803828 
4896.000000	0.804185 
4895.000000	0.804877 
4894.000000	0.805807 
4893.000000	0.806951 
4892.000000	0.808167 
4891.000000	0.809383 
4890.000000	0.810527 
4889.000000	0.811505 
4888.000000	0.812411 
4887.000000	0.813245 
4886.000000	0.813984 
4885.000000	0.814676 
4884.000000	0.815367 
4883.000000	0.816011 
4882.000000	0.816583 
4881.000000	0.817108 
4880.000000	0.817561 
4879.000000	0.817990 
4878.000000	0.818419 
4877.000000	0.818848 
4876.000000	0.819349 
4875.000000	0.819945 
4874.000000	0.820541 
4873.000000	0.821113 
4872.000000	0.821590 
4871.000000	0.821900 
4870.000000	0.822043 
4869.000000	0.821948 
4868.000000	0.821685 
4867.000000	0.821352 
4866.000000	0.821042 
4865.000000	0.820851 
4864.000000	0.820946 
4863.000000	0.821352 
4862.000000	0.821995 
4861.000000	0.822949 
4860.000000	0.824117 
4859.000000	0.825381 
4858.000000	0.826716 
4857.000000	0.828003 
4856.000000	0.829195 
4855.000000	0.830245 
4854.000000	0.831174 
4853.000000	0.831937 
4852.000000	0.832581 
4851.000000	0.833106 
4850.000000	0.833559 
4849.000000	0.833940 
4848.000000	0.834321 
4847.000000	0.834679 
4846.000000	0.835156 
4845.000000	0.835728 
4844.000000	0.836443 
4843.000000	0.837302 
4842.000000	0.838303 
4841.000000	0.839447 
4840.000000	0.840616 
4839.000000	0.841784 
4838.000000	0.842905 
4837.000000	0.843906 
4836.000000	0.844764 
4835.000000	0.845456 
4834.000000	0.846004 
4833.000000	0.846314 
4832.000000	0.846505 
4831.000000	0.846552 
4830.000000	0.846552 
4829.000000	0.846529 
4828.000000	0.846505 
4827.000000	0.846552 
4826.000000	0.846672 
4825.000000	0.846910 
4824.000000	0.847244 
4823.000000	0.847697 
4822.000000	0.848245 
4821.000000	0.848913 
4820.000000	0.849652 
4819.000000	0.850462 
4818.000000	0.851321 
4817.000000	0.852251 
4816.000000	0.853204 
4815.000000	0.854206 
4814.000000	0.855207 
4813.000000	0.856256 
4812.000000	0.857281 
4811.000000	0.858330 
4810.000000	0.859355 
4809.000000	0.860357 
4808.000000	0.861310 
4807.000000	0.862240 
4806.000000	0.863122 
4805.000000	0.863933 
4804.000000	0.864720 
4803.000000	0.865459 
4802.000000	0.866127 
4801.000000	0.866746 
4800.000000	0.867319 
4799.000000	0.867795 
4798.000000	0.868225 
4797.000000	0.868582 
4796.000000	0.868916 
4795.000000	0.869297 
4794.000000	0.869703 
4793.000000	0.870203 
4792.000000	0.870847 
4791.000000	0.871539 
4790.000000	0.872349 
4789.000000	0.873160 
4788.000000	0.873994 
4787.000000	0.874710 
4786.000000	0.875353 
4785.000000	0.875973 
4784.000000	0.876569 
4783.000000	0.877118 
4782.000000	0.877737 
4781.000000	0.878453 
4780.000000	0.879263 
4779.000000	0.880146 
4778.000000	0.881123 
4777.000000	0.882077 
4776.000000	0.883030 
4775.000000	0.883889 
4774.000000	0.884604 
4773.000000	0.885200 
4772.000000	0.885629 
4771.000000	0.885915 
4770.000000	0.886034 
4769.000000	0.886034 
4768.000000	0.885963 
4767.000000	0.885868 
4766.000000	0.885796 
4765.000000	0.885796 
4764.000000	0.885891 
4763.000000	0.886106 
4762.000000	0.886416 
4761.000000	0.886869 
4760.000000	0.887346 
4759.000000	0.887823 
4758.000000	0.888323 
4757.000000	0.888800 
4756.000000	0.889229 
4755.000000	0.889635 
4754.000000	0.890016 
4753.000000	0.890374 
4752.000000	0.890707 
4751.000000	0.891041 
4750.000000	0.891351 
4749.000000	0.891637 
4748.000000	0.891923 
4747.000000	0.892186 
4746.000000	0.892448 
4745.000000	0.892734 
4744.000000	0.893044 
4743.000000	0.893402 
4742.000000	0.893831 
4741.000000	0.894308 
4740.000000	0.894832 
4739.000000	0.895357 
4738.000000	0.895929 
4737.000000	0.896477 
4736.000000	0.897026 
4735.000000	0.897574 
4734.000000	0.898098 
4733.000000	0.898623 
4732.000000	0.899171 
4731.000000	0.899696 
4730.000000	0.900220 
4729.000000	0.900697 
4728.000000	0.901126 
4727.000000	0.901556 
4726.000000	0.901889 
4725.000000	0.902080 
4724.000000	0.902152 
4723.000000	0.902152 
4722.000000	0.901961 
4721.000000	0.901722 
4720.000000	0.901389 
4719.000000	0.901055 
4718.000000	0.900745 
4717.000000	0.900554 
4716.000000	0.900506 
4715.000000	0.900602 
4714.000000	0.900888 
4713.000000	0.901341 
4712.000000	0.901865 
4711.000000	0.902414 
4710.000000	0.902938 
4709.000000	0.903391 
4708.000000	0.903725 
4707.000000	0.903987 
4706.000000	0.904202 
4705.000000	0.904417 
4704.000000	0.904631 
4703.000000	0.904893 
4702.000000	0.905179 
4701.000000	0.905537 
4700.000000	0.905871 
4699.000000	0.906205 
4698.000000	0.906491 
4697.000000	0.906753 
4696.000000	0.906968 
4695.000000	0.907182 
4694.000000	0.907373 
4693.000000	0.907611 
4692.000000	0.907874 
4691.000000	0.908136 
4690.000000	0.908374 
4689.000000	0.908613 
4688.000000	0.908803 
4687.000000	0.908923 
4686.000000	0.909018 
4685.000000	0.909090 
4684.000000	0.909185 
4683.000000	0.909328 
4682.000000	0.909495 
4681.000000	0.909662 
4680.000000	0.909852 
4679.000000	0.910043 
4678.000000	0.910258 
4677.000000	0.910425 
4676.000000	0.910615 
4675.000000	0.910806 
4674.000000	0.911021 
4673.000000	0.911259 
4672.000000	0.911498 
4671.000000	0.911641 
4670.000000	0.911736 
4669.000000	0.911688 
4668.000000	0.911498 
4667.000000	0.911188 
4666.000000	0.910735 
4665.000000	0.910234 
4664.000000	0.909709 
4663.000000	0.909233 
4662.000000	0.908851 
4661.000000	0.908613 
4660.000000	0.908517 
4659.000000	0.908517 
4658.000000	0.908660 
4657.000000	0.908970 
4656.000000	0.909447 
4655.000000	0.910067 
4654.000000	0.910854 
4653.000000	0.911784 
4652.000000	0.912785 
4651.000000	0.913810 
4650.000000	0.914812 
4649.000000	0.915741 
4648.000000	0.916552 
4647.000000	0.917220 
4646.000000	0.917696 
4645.000000	0.918078 
4644.000000	0.918364 
4643.000000	0.918531 
4642.000000	0.918698 
4641.000000	0.918793 
4640.000000	0.918841 
4639.000000	0.918912 
4638.000000	0.919008 
4637.000000	0.919151 
4636.000000	0.919318 
4635.000000	0.919556 
4634.000000	0.919842 
4633.000000	0.920200 
4632.000000	0.920605 
4631.000000	0.921058 
4630.000000	0.921511 
4629.000000	0.922036 
4628.000000	0.922584 
4627.000000	0.923156 
4626.000000	0.923752 
4625.000000	0.924301 
4624.000000	0.924849 
4623.000000	0.925350 
4622.000000	0.925779 
4621.000000	0.926160 
4620.000000	0.926494 
4619.000000	0.926804 
4618.000000	0.927066 
4617.000000	0.927352 
4616.000000	0.927615 
4615.000000	0.927948 
4614.000000	0.928235 
4613.000000	0.928568 
4612.000000	0.928878 
4611.000000	0.929260 
4610.000000	0.929689 
4609.000000	0.930166 
4608.000000	0.930738 
4607.000000	0.931382 
4606.000000	0.932049 
4605.000000	0.932765 
4604.000000	0.933456 
4603.000000	0.934100 
4602.000000	0.934720 
4601.000000	0.935339 
4600.000000	0.935935 
4599.000000	0.936555 
4598.000000	0.937199 
4597.000000	0.937938 
4596.000000	0.938677 
4595.000000	0.939464 
4594.000000	0.940227 
4593.000000	0.941014 
4592.000000	0.941753 
4591.000000	0.942516 
4590.000000	0.943255 
4589.000000	0.944042 
4588.000000	0.944876 
4587.000000	0.945782 
4586.000000	0.946760 
4585.000000	0.947761 
4584.000000	0.948739 
4583.000000	0.949645 
4582.000000	0.950431 
4581.000000	0.951099 
4580.000000	0.951623 
4579.000000	0.951957 
4578.000000	0.952196 
4577.000000	0.952386 
4576.000000	0.952577 
4575.000000	0.952887 
4574.000000	0.953340 
4573.000000	0.954008 
4572.000000	0.954818 
4571.000000	0.955748 
4570.000000	0.956678 
4569.000000	0.957632 
4568.000000	0.958514 
4567.000000	0.959277 
4566.000000	0.959897 
4565.000000	0.960469 
4564.000000	0.961017 
4563.000000	0.961637 
4562.000000	0.962400 
4561.000000	0.963282 
4560.000000	0.964307 
4559.000000	0.965404 
4558.000000	0.966525 
4557.000000	0.967574 
4556.000000	0.968527 
4555.000000	0.969338 
4554.000000	0.970005 
4553.000000	0.970530 
4552.000000	0.971007 
4551.000000	0.971436 
4550.000000	0.971913 
4549.000000	0.972485 
4548.000000	0.973129 
4547.000000	0.973892 
4546.000000	0.974702 
4545.000000	0.975632 
4544.000000	0.976634 
4543.000000	0.977706 
4542.000000	0.978803 
4541.000000	0.979971 
4540.000000	0.981116 
4539.000000	0.982213 
4538.000000	0.983238 
4537.000000	0.984144 
4536.000000	0.984930 
4535.000000	0.985550 
4534.000000	0.986051 
4533.000000	0.986385 
4532.000000	0.986623 
4531.000000	0.986766 
4530.000000	0.986886 
4529.000000	0.987052 
4528.000000	0.987219 
4527.000000	0.987410 
4526.000000	0.987577 
4525.000000	0.987720 
4524.000000	0.987792 
4523.000000	0.987815 
4522.000000	0.987792 
4521.000000	0.987744 
4520.000000	0.987720 
4519.000000	0.987744 
4518.000000	0.987911 
4517.000000	0.988245 
4516.000000	0.988721 
4515.000000	0.989413 
4514.000000	0.990200 
4513.000000	0.991034 
4512.000000	0.991916 
4511.000000	0.992774 
4510.000000	0.993609 
4509.000000	0.994420 
4508.000000	0.995230 
4507.000000	0.995993 
4506.000000	0.996708 
4505.000000	0.997376 
4504.000000	0.997972 
4503.000000	0.998520 
4502.000000	0.998950 
4501.000000	0.999283 
4500.000000	0.999546 
4499.000000	0.999712 
4498.000000	0.999784 
4497.000000	0.999879 
4496.000000	0.999975 
4495.000000	1.000118 
4494.000000	1.000332 
4493.000000	1.000618 
4492.000000	1.000928 
4491.000000	1.001262 
4490.000000	1.001596 
4489.000000	1.001882 
4488.000000	1.002097 
4487.000000	1.002216 
4486.000000	1.002335 
4485.000000	1.002383 
4484.000000	1.002407 
4483.000000	1.002430 
4482.000000	1.002502 
4481.000000	1.002645 
4480.000000	1.002860 
4479.000000	1.003170 
4478.000000	1.003599 
4477.000000	1.004147 
4476.000000	1.004815 
4475.000000	1.005601 
4474.000000	1.006436 
4473.000000	1.007342 
4472.000000	1.008200 
4471.000000	1.008939 
4470.000000	1.009583 
4469.000000	1.009964 
4468.000000	1.010131 
4467.000000	1.010060 
4466.000000	1.009798 
4465.000000	1.009392 
4464.000000	1.008915 
4463.000000	1.008415 
4462.000000	1.007938 
4461.000000	1.007533 
4460.000000	1.007199 
4459.000000	1.006913 
4458.000000	1.006746 
4457.000000	1.006698 
4456.000000	1.006817 
4455.000000	1.007056 
4454.000000	1.007437 
4453.000000	1.007866 
4452.000000	1.008367 
4451.000000	1.008820 
4450.000000	1.009225 
4449.000000	1.009583 
4448.000000	1.009869 
4447.000000	1.010084 
4446.000000	1.010298 
4445.000000	1.010465 
4444.000000	1.010632 
4443.000000	1.010727 
4442.000000	1.010751 
4441.000000	1.010680 
4440.000000	1.010465 
4439.000000	1.010084 
4438.000000	1.009678 
4437.000000	1.009273 
4436.000000	1.008915 
4435.000000	1.008749 
4434.000000	1.008820 
4433.000000	1.009130 
4432.000000	1.009726 
4431.000000	1.010489 
4430.000000	1.011371 
4429.000000	1.012229 
4428.000000	1.013016 
4427.000000	1.013612 
4426.000000	1.013994 
4425.000000	1.014113 
4424.000000	1.014018 
4423.000000	1.013755 
4422.000000	1.013422 
4421.000000	1.013112 
4420.000000	1.012873 
4419.000000	1.012802 
4418.000000	1.012873 
4417.000000	1.013112 
4416.000000	1.013493 
4415.000000	1.014065 
4414.000000	1.014828 
4413.000000	1.015710 
4412.000000	1.016640 
4411.000000	1.017475 
4410.000000	1.018095 
4409.000000	1.018381 
4408.000000	1.018238 
4407.000000	1.017785 
4406.000000	1.016998 
4405.000000	1.016044 
4404.000000	1.015019 
4403.000000	1.013922 
4402.000000	1.012802 
4401.000000	1.011657 
4400.000000	1.010394 
4399.000000	1.009082 
4398.000000	1.007771 
4397.000000	1.006627 
4396.000000	1.005864 
4395.000000	1.005601 
4394.000000	1.005816 
4393.000000	1.006245 
4392.000000	1.006436 
4391.000000	1.006007 
4390.000000	1.004743 
4389.000000	1.002812 
4388.000000	1.000857 
4387.000000	0.999832 
4386.000000	1.000595 
4385.000000	1.003742 
4384.000000	1.009178 
4383.000000	1.016116 
4382.000000	1.023030 
4381.000000	1.028156 
4380.000000	1.029849 
4379.000000	1.027202 
4378.000000	1.020240 
4377.000000	1.009941 
4376.000000	0.998258 
4375.000000	0.987267 
4374.000000	0.978899 
4373.000000	0.974345 
4372.000000	0.973773 
4371.000000	0.976514 
4370.000000	0.981354 
4369.000000	0.986933 
4368.000000	0.992298 
4367.000000	0.996994 
4366.000000	1.001095 
4365.000000	1.005148 
4364.000000	1.009678 
4363.000000	1.015067 
4362.000000	1.021361 
4361.000000	1.028251 
4360.000000	1.035237 
4359.000000	1.041698 
4358.000000	1.047134 
4357.000000	1.051473 
4356.000000	1.054716 
4355.000000	1.057267 
4354.000000	1.059389 
4353.000000	1.061367 
4352.000000	1.063323 
4351.000000	1.065182 
4350.000000	1.066756 
4349.000000	1.067972 
4348.000000	1.068711 
4347.000000	1.069092 
4346.000000	1.069188 
4345.000000	1.069211 
4344.000000	1.069378 
4343.000000	1.069736 
4342.000000	1.070427 
4341.000000	1.071453 
4340.000000	1.072788 
4339.000000	1.074385 
4338.000000	1.076221 
4337.000000	1.078200 
4336.000000	1.080274 
4335.000000	1.082372 
4334.000000	1.084423 
4333.000000	1.086330 
4332.000000	1.088023 
4331.000000	1.089382 
4330.000000	1.090407 
4329.000000	1.091027 
4328.000000	1.091313 
4327.000000	1.091337 
4326.000000	1.091265 
4325.000000	1.091194 
4324.000000	1.091194 
4323.000000	1.091384 
4322.000000	1.091766 
4321.000000	1.092314 
4320.000000	1.093006 
4319.000000	1.093816 
4318.000000	1.094698 
4317.000000	1.095676 
4316.000000	1.096749 
4315.000000	1.097989 
4314.000000	1.099419 
4313.000000	1.101112 
4312.000000	1.102995 
4311.000000	1.105022 
4310.000000	1.107120 
4309.000000	1.109147 
4308.000000	1.111030 
4307.000000	1.112675 
4306.000000	1.114082 
4305.000000	1.115155 
4304.000000	1.116013 
4303.000000	1.116681 
4302.000000	1.117229 
4301.000000	1.117777 
4300.000000	1.118326 
4299.000000	1.118946 
4298.000000	1.119685 
4297.000000	1.120495 
4296.000000	1.121401 
4295.000000	1.122355 
4294.000000	1.123309 
4293.000000	1.124262 
4292.000000	1.125168 
4291.000000	1.126074 
4290.000000	1.127028 
4289.000000	1.128029 
4288.000000	1.129174 
4287.000000	1.130461 
4286.000000	1.131820 
4285.000000	1.133251 
4284.000000	1.134681 
4283.000000	1.135993 
4282.000000	1.137113 
4281.000000	1.138043 
4280.000000	1.138710 
4279.000000	1.139163 
4278.000000	1.139497 
4277.000000	1.139831 
4276.000000	1.140236 
4275.000000	1.140809 
4274.000000	1.141643 
4273.000000	1.142740 
4272.000000	1.144051 
4271.000000	1.145458 
4270.000000	1.146936 
4269.000000	1.148343 
4268.000000	1.149582 
4267.000000	1.150608 
4266.000000	1.151394 
4265.000000	1.152038 
4264.000000	1.152586 
4263.000000	1.153206 
4262.000000	1.153922 
4261.000000	1.154875 
4260.000000	1.156044 
4259.000000	1.157426 
4258.000000	1.158928 
4257.000000	1.160502 
4256.000000	1.161980 
4255.000000	1.163291 
4254.000000	1.164412 
4253.000000	1.165318 
4252.000000	1.165986 
4251.000000	1.166534 
4250.000000	1.167035 
4249.000000	1.167511 
4248.000000	1.168036 
4247.000000	1.168727 
4246.000000	1.169514 
4245.000000	1.170372 
4244.000000	1.171231 
4243.000000	1.172041 
4242.000000	1.172733 
4241.000000	1.173329 
4240.000000	1.173734 
4239.000000	1.174020 
4238.000000	1.174211 
4237.000000	1.174306 
4236.000000	1.174402 
4235.000000	1.174473 
4234.000000	1.174592 
4233.000000	1.174759 
4232.000000	1.174998 
4231.000000	1.175308 
4230.000000	1.175689 
4229.000000	1.176190 
4228.000000	1.176786 
4227.000000	1.177477 
4226.000000	1.178264 
4225.000000	1.179051 
4224.000000	1.179814 
4223.000000	1.180529 
4222.000000	1.181173 
4221.000000	1.181745 
4220.000000	1.182270 
4219.000000	1.182794 
4218.000000	1.183366 
4217.000000	1.184010 
4216.000000	1.184773 
4215.000000	1.185607 
4214.000000	1.186466 
4213.000000	1.187300 
4212.000000	1.188063 
4211.000000	1.188683 
4210.000000	1.189136 
4209.000000	1.189422 
4208.000000	1.189589 
4207.000000	1.189708 
4206.000000	1.189851 
4205.000000	1.190066 
4204.000000	1.190423 
4203.000000	1.190996 
4202.000000	1.191782 
4201.000000	1.192784 
4200.000000	1.193952 
4199.000000	1.195192 
4198.000000	1.196432 
4197.000000	1.197576 
4196.000000	1.198554 
4195.000000	1.199293 
4194.000000	1.199841 
4193.000000	1.200199 
4192.000000	1.200532 
4191.000000	1.200819 
4190.000000	1.201200 
4189.000000	1.201844 
4188.000000	1.202678 
4187.000000	1.203727 
4186.000000	1.204872 
4185.000000	1.206064 
4184.000000	1.207137 
4183.000000	1.208019 
4182.000000	1.208591 
4181.000000	1.208710 
4180.000000	1.208472 
4179.000000	1.207947 
4178.000000	1.207232 
4177.000000	1.206469 
4176.000000	1.205873 
4175.000000	1.205492 
4174.000000	1.205444 
4173.000000	1.205706 
4172.000000	1.206231 
4171.000000	1.206851 
4170.000000	1.207447 
4169.000000	1.207900 
4168.000000	1.208114 
4167.000000	1.208114 
4166.000000	1.207971 
4165.000000	1.207780 
4164.000000	1.207756 
4163.000000	1.208019 
4162.000000	1.208639 
4161.000000	1.209640 
4160.000000	1.210999 
4159.000000	1.212525 
4158.000000	1.214098 
4157.000000	1.215553 
4156.000000	1.216721 
4155.000000	1.217532 
4154.000000	1.217937 
4153.000000	1.217985 
4152.000000	1.217770 
4151.000000	1.217365 
4150.000000	1.216912 
4149.000000	1.216554 
4148.000000	1.216363 
4147.000000	1.216411 
4146.000000	1.216769 
4145.000000	1.217365 
4144.000000	1.218199 
4143.000000	1.219201 
4142.000000	1.220297 
4141.000000	1.221394 
4140.000000	1.222419 
4139.000000	1.223373 
4138.000000	1.224255 
4137.000000	1.225090 
4136.000000	1.225948 
4135.000000	1.226878 
4134.000000	1.227927 
4133.000000	1.229143 
4132.000000	1.230502 
4131.000000	1.231932 
4130.000000	1.233434 
4129.000000	1.234865 
4128.000000	1.236176 
4127.000000	1.237344 
4126.000000	1.238369 
4125.000000	1.239252 
4124.000000	1.240062 
4123.000000	1.240897 
4122.000000	1.241779 
4121.000000	1.242780 
4120.000000	1.243829 
4119.000000	1.244926 
4118.000000	1.246047 
4117.000000	1.247215 
4116.000000	1.248359 
4115.000000	1.249480 
4114.000000	1.250672 
4113.000000	1.251864 
4112.000000	1.253175 
4111.000000	1.254534 
4110.000000	1.255893 
4109.000000	1.257300 
4108.000000	1.258683 
4107.000000	1.259970 
4106.000000	1.261162 
4105.000000	1.262235 
4104.000000	1.263213 
4103.000000	1.264095 
4102.000000	1.264834 
4101.000000	1.265549 
4100.000000	1.266145 
4099.000000	1.266765 
4098.000000	1.267313 
4097.000000	1.267910 
4096.000000	1.268553 
4095.000000	1.269292 
4094.000000	1.270198 
4093.000000	1.271343 
4092.000000	1.272749 
4091.000000	1.274347 
4090.000000	1.276087 
4089.000000	1.277852 
4088.000000	1.279592 
4087.000000	1.281213 
4086.000000	1.282668 
4085.000000	1.283931 
4084.000000	1.285028 
4083.000000	1.286053 
4082.000000	1.287007 
4081.000000	1.288032 
4080.000000	1.289129 
4079.000000	1.290297 
4078.000000	1.291537 
4077.000000	1.292848 
4076.000000	1.294183 
4075.000000	1.295542 
4074.000000	1.296901 
4073.000000	1.298260 
4072.000000	1.299619 
4071.000000	1.301050 
4070.000000	1.302456 
4069.000000	1.303863 
4068.000000	1.305317 
4067.000000	1.306796 
4066.000000	1.308298 
4065.000000	1.309871 
4064.000000	1.311445 
4063.000000	1.313114 
4062.000000	1.314854 
4061.000000	1.316690 
4060.000000	1.318550 
4059.000000	1.320433 
4058.000000	1.322269 
4057.000000	1.324033 
4056.000000	1.325702 
4055.000000	1.327228 
4054.000000	1.328659 
4053.000000	1.329970 
4052.000000	1.331186 
4051.000000	1.332330 
4050.000000	1.333427 
4049.000000	1.334500 
4048.000000	1.335549 
4047.000000	1.336598 
4046.000000	1.337623 
4045.000000	1.338672 
4044.000000	1.339745 
4043.000000	1.340842 
4042.000000	1.342010 
4041.000000	1.343250 
4040.000000	1.344585 
4039.000000	1.345992 
4038.000000	1.347470 
4037.000000	1.348924 
4036.000000	1.350355 
4035.000000	1.351761 
4034.000000	1.353025 
4033.000000	1.354241 
4032.000000	1.355361 
4031.000000	1.356458 
4030.000000	1.357555 
4029.000000	1.358652 
4028.000000	1.359820 
4027.000000	1.361012 
4026.000000	1.362252 
4025.000000	1.363492 
4024.000000	1.364660 
4023.000000	1.365780 
4022.000000	1.366806 
4021.000000	1.367688 
4020.000000	1.368451 
4019.000000	1.369166 
4018.000000	1.369857 
4017.000000	1.370620 
4016.000000	1.371479 
4015.000000	1.372504 
4014.000000	1.373696 
4013.000000	1.375031 
4012.000000	1.376581 
4011.000000	1.378297 
4010.000000	1.380038 
4009.000000	1.381802 
4008.000000	1.383447 
4007.000000	1.384925 
4006.000000	1.386213 
4005.000000	1.387286 
4004.000000	1.388096 
4003.000000	1.388788 
4002.000000	1.389360 
4001.000000	1.389908 
4000.000000	1.390480 
3999.000000	1.391077 
3998.000000	1.391744 
3997.000000	1.392436 
3996.000000	1.393127 
3995.000000	1.393771 
3994.000000	1.394343 
3993.000000	1.394844 
3992.000000	1.395225 
3991.000000	1.395606 
3990.000000	1.396012 
3989.000000	1.396512 
3988.000000	1.397085 
3987.000000	1.397752 
3986.000000	1.398515 
3985.000000	1.399302 
3984.000000	1.400065 
3983.000000	1.400804 
3982.000000	1.401400 
3981.000000	1.401901 
3980.000000	1.402306 
3979.000000	1.402616 
3978.000000	1.402878 
3977.000000	1.403141 
3976.000000	1.403450 
3975.000000	1.403760 
3974.000000	1.404118 
3973.000000	1.404523 
3972.000000	1.404905 
3971.000000	1.405310 
3970.000000	1.405692 
3969.000000	1.406049 
3968.000000	1.406455 
3967.000000	1.406884 
3966.000000	1.407384 
3965.000000	1.407980 
3964.000000	1.408696 
3963.000000	1.409482 
3962.000000	1.410412 
3961.000000	1.411414 
3960.000000	1.412487 
3959.000000	1.413559 
3958.000000	1.414585 
3957.000000	1.415538 
3956.000000	1.416397 
3955.000000	1.417183 
3954.000000	1.417875 
3953.000000	1.418471 
3952.000000	1.419019 
3951.000000	1.419425 
3950.000000	1.419806 
3949.000000	1.420092 
3948.000000	1.420307 
3947.000000	1.420402 
3946.000000	1.420402 
3945.000000	1.420331 
3944.000000	1.420164 
3943.000000	1.419973 
3942.000000	1.419758 
3941.000000	1.419568 
3940.000000	1.419520 
3939.000000	1.419496 
3938.000000	1.419568 
3937.000000	1.419758 
3936.000000	1.419997 
3935.000000	1.420354 
3934.000000	1.420712 
3933.000000	1.421093 
3932.000000	1.421499 
3931.000000	1.421833 
3930.000000	1.422071 
3929.000000	1.422238 
3928.000000	1.422357 
3927.000000	1.422405 
3926.000000	1.422452 
3925.000000	1.422500 
3924.000000	1.422595 
3923.000000	1.422834 
3922.000000	1.423192 
3921.000000	1.423716 
3920.000000	1.424360 
3919.000000	1.425147 
3918.000000	1.426053 
3917.000000	1.427078 
3916.000000	1.428103 
3915.000000	1.429128 
3914.000000	1.430010 
3913.000000	1.430726 
3912.000000	1.431179 
3911.000000	1.431226 
3910.000000	1.430916 
3909.000000	1.430177 
3908.000000	1.429152 
3907.000000	1.427912 
3906.000000	1.426649 
3905.000000	1.425504 
3904.000000	1.424717 
3903.000000	1.424360 
3902.000000	1.424527 
3901.000000	1.425194 
3900.000000	1.426267 
3899.000000	1.427602 
3898.000000	1.428985 
3897.000000	1.430249 
3896.000000	1.431274 
3895.000000	1.431965 
3894.000000	1.432299 
3893.000000	1.432347 
3892.000000	1.432204 
3891.000000	1.432013 
3890.000000	1.431822 
3889.000000	1.431775 
3888.000000	1.431846 
3887.000000	1.432108 
3886.000000	1.432514 
3885.000000	1.433014 
3884.000000	1.433491 
3883.000000	1.433992 
3882.000000	1.434445 
3881.000000	1.434850 
3880.000000	1.435208 
3879.000000	1.435565 
3878.000000	1.435947 
3877.000000	1.436400 
3876.000000	1.436948 
3875.000000	1.437640 
3874.000000	1.438474 
3873.000000	1.439428 
3872.000000	1.440525 
3871.000000	1.441717 
3870.000000	1.442956 
3869.000000	1.444196 
3868.000000	1.445436 
3867.000000	1.446700 
3866.000000	1.447916 
3865.000000	1.449084 
3864.000000	1.450133 
3863.000000	1.450943 
3862.000000	1.451396 
3861.000000	1.451396 
3860.000000	1.450920 
3859.000000	1.450014 
3858.000000	1.448774 
3857.000000	1.447534 
3856.000000	1.446485 
3855.000000	1.446032 
3854.000000	1.446413 
3853.000000	1.447796 
3852.000000	1.450085 
3851.000000	1.453161 
3850.000000	1.456689 
3849.000000	1.460242 
3848.000000	1.463508 
3847.000000	1.466178 
3846.000000	1.468062 
3845.000000	1.469135 
3844.000000	1.469540 
3843.000000	1.469397 
3842.000000	1.469039 
3841.000000	1.468706 
3840.000000	1.468610 
3839.000000	1.468920 
3838.000000	1.469731 
3837.000000	1.471066 
3836.000000	1.472854 
3835.000000	1.475024 
3834.000000	1.477408 
3833.000000	1.479816 
3832.000000	1.482105 
3831.000000	1.484131 
3830.000000	1.485729 
3829.000000	1.486873 
3828.000000	1.487565 
3827.000000	1.487803 
3826.000000	1.487731 
3825.000000	1.487469 
3824.000000	1.487183 
3823.000000	1.487040 
3822.000000	1.487183 
3821.000000	1.487636 
3820.000000	1.488518 
3819.000000	1.489806 
3818.000000	1.491451 
3817.000000	1.493406 
3816.000000	1.495552 
3815.000000	1.497721 
3814.000000	1.499843 
3813.000000	1.501798 
3812.000000	1.503467 
3811.000000	1.504850 
3810.000000	1.505923 
3809.000000	1.506710 
3808.000000	1.507258 
3807.000000	1.507711 
3806.000000	1.508164 
3805.000000	1.508641 
3804.000000	1.509308 
3803.000000	1.510190 
3802.000000	1.511383 
3801.000000	1.512885 
3800.000000	1.514720 
3799.000000	1.516842 
3798.000000	1.519155 
3797.000000	1.521539 
3796.000000	1.523947 
3795.000000	1.526284 
3794.000000	1.528429 
3793.000000	1.530408 
3792.000000	1.532220 
3791.000000	1.533865 
3790.000000	1.535391 
3789.000000	1.536846 
3788.000000	1.538228 
3787.000000	1.539540 
3786.000000	1.540756 
3785.000000	1.541829 
3784.000000	1.542711 
3783.000000	1.543450 
3782.000000	1.544046 
3781.000000	1.544547 
3780.000000	1.545000 
3779.000000	1.545548 
3778.000000	1.546120 
3777.000000	1.546788 
3776.000000	1.547574 
3775.000000	1.548361 
3774.000000	1.549124 
3773.000000	1.549839 
3772.000000	1.550483 
3771.000000	1.551032 
3770.000000	1.551532 
3769.000000	1.551961 
3768.000000	1.552295 
3767.000000	1.552629 
3766.000000	1.552987 
3765.000000	1.553344 
3764.000000	1.553750 
3763.000000	1.554107 
3762.000000	1.554441 
3761.000000	1.554703 
3760.000000	1.554751 
3759.000000	1.554536 
3758.000000	1.554059 
3757.000000	1.553177 
3756.000000	1.551961 
3755.000000	1.550579 
3754.000000	1.549005 
3753.000000	1.547503 
3752.000000	1.546120 
3751.000000	1.545000 
3750.000000	1.544284 
3749.000000	1.543998 
3748.000000	1.544237 
3747.000000	1.544928 
3746.000000	1.546049 
3745.000000	1.547551 
3744.000000	1.549267 
3743.000000	1.551079 
3742.000000	1.552891 
3741.000000	1.554584 
3740.000000	1.556038 
3739.000000	1.557278 
3738.000000	1.558279 
3737.000000	1.559090 
3736.000000	1.559877 
3735.000000	1.560664 
3734.000000	1.561522 
3733.000000	1.562452 
3732.000000	1.563429 
3731.000000	1.564407 
3730.000000	1.565313 
3729.000000	1.566100 
3728.000000	1.566767 
3727.000000	1.567292 
3726.000000	1.567769 
3725.000000	1.568269 
3724.000000	1.568913 
3723.000000	1.569628 
3722.000000	1.570439 
3721.000000	1.571273 
3720.000000	1.571965 
3719.000000	1.572489 
3718.000000	1.572728 
3717.000000	1.572608 
3716.000000	1.572251 
3715.000000	1.571702 
3714.000000	1.571154 
3713.000000	1.570725 
3712.000000	1.570558 
3711.000000	1.570725 
3710.000000	1.571178 
3709.000000	1.571869 
3708.000000	1.572656 
3707.000000	1.573395 
3706.000000	1.573967 
3705.000000	1.574373 
3704.000000	1.574587 
3703.000000	1.574683 
3702.000000	1.574707 
3701.000000	1.574707 
3700.000000	1.574730 
3699.000000	1.574778 
3698.000000	1.574778 
3697.000000	1.574563 
3696.000000	1.574158 
3695.000000	1.573538 
3694.000000	1.572680 
3693.000000	1.571655 
3692.000000	1.570653 
3691.000000	1.569867 
3690.000000	1.569414 
3689.000000	1.569390 
3688.000000	1.569795 
3687.000000	1.570582 
3686.000000	1.571512 
3685.000000	1.572418 
3684.000000	1.573085 
3683.000000	1.573371 
3682.000000	1.573133 
3681.000000	1.572370 
3680.000000	1.571226 
3679.000000	1.569819 
3678.000000	1.568365 
3677.000000	1.566982 
3676.000000	1.565933 
3675.000000	1.565313 
3674.000000	1.565146 
3673.000000	1.565480 
3672.000000	1.566267 
3671.000000	1.567482 
3670.000000	1.569032 
3669.000000	1.570796 
3668.000000	1.572680 
3667.000000	1.574540 
3666.000000	1.576232 
3665.000000	1.577663 
3664.000000	1.578712 
3663.000000	1.579356 
3662.000000	1.579523 
3661.000000	1.579284 
3660.000000	1.578640 
3659.000000	1.577758 
3658.000000	1.576685 
3657.000000	1.575469 
3656.000000	1.574182 
3655.000000	1.572871 
3654.000000	1.571559 
3653.000000	1.570320 
3652.000000	1.569247 
3651.000000	1.568460 
3650.000000	1.568055 
3649.000000	1.568102 
3648.000000	1.568651 
3647.000000	1.569652 
3646.000000	1.570987 
3645.000000	1.572608 
3644.000000	1.574325 
3643.000000	1.576018 
3642.000000	1.577544 
3641.000000	1.578855 
3640.000000	1.579880 
3639.000000	1.580548 
3638.000000	1.580834 
3637.000000	1.580715 
3636.000000	1.580238 
3635.000000	1.579356 
3634.000000	1.578259 
3633.000000	1.577043 
3632.000000	1.575827 
3631.000000	1.574873 
3630.000000	1.574325 
3629.000000	1.574206 
3628.000000	1.574563 
3627.000000	1.575255 
3626.000000	1.576161 
3625.000000	1.577138 
3624.000000	1.578021 
3623.000000	1.578736 
3622.000000	1.579213 
3621.000000	1.579523 
3620.000000	1.579737 
3619.000000	1.579904 
3618.000000	1.580047 
3617.000000	1.580286 
3616.000000	1.580595 
3615.000000	1.581001 
3614.000000	1.581478 
3613.000000	1.582074 
3612.000000	1.582813 
3611.000000	1.583671 
3610.000000	1.584649 
3609.000000	1.585793 
3608.000000	1.587057 
3607.000000	1.588416 
3606.000000	1.589822 
3605.000000	1.591181 
3604.000000	1.592445 
3603.000000	1.593542 
3602.000000	1.594471 
3601.000000	1.595234 
3600.000000	1.595807 
3599.000000	1.596188 
3598.000000	1.596403 
3597.000000	1.596426 
3596.000000	1.596331 
3595.000000	1.596188 
3594.000000	1.595950 
3593.000000	1.595687 
3592.000000	1.595497 
3591.000000	1.595401 
3590.000000	1.595497 
3589.000000	1.595759 
3588.000000	1.596283 
3587.000000	1.597023 
3586.000000	1.597952 
3585.000000	1.599001 
3584.000000	1.600146 
3583.000000	1.601338 
3582.000000	1.602506 
3581.000000	1.603579 
3580.000000	1.604533 
3579.000000	1.605367 
3578.000000	1.606011 
3577.000000	1.606488 
3576.000000	1.606798 
3575.000000	1.606941 
3574.000000	1.606965 
3573.000000	1.606869 
3572.000000	1.606798 
3571.000000	1.606750 
3570.000000	1.606845 
3569.000000	1.607155 
3568.000000	1.607775 
3567.000000	1.608681 
3566.000000	1.609826 
3565.000000	1.611208 
3564.000000	1.612734 
3563.000000	1.614260 
3562.000000	1.615643 
3561.000000	1.616811 
3560.000000	1.617741 
3559.000000	1.618361 
3558.000000	1.618695 
3557.000000	1.618862 
3556.000000	1.618933 
3555.000000	1.618981 
3554.000000	1.619076 
3553.000000	1.619267 
3552.000000	1.619625 
3551.000000	1.620054 
3550.000000	1.620602 
3549.000000	1.621270 
3548.000000	1.622009 
3547.000000	1.622748 
3546.000000	1.623487 
3545.000000	1.624178 
3544.000000	1.624774 
3543.000000	1.625227 
3542.000000	1.625490 
3541.000000	1.625514 
3540.000000	1.625370 
3539.000000	1.625084 
3538.000000	1.624727 
3537.000000	1.624321 
3536.000000	1.624011 
3535.000000	1.623773 
3534.000000	1.623654 
3533.000000	1.623630 
3532.000000	1.623749 
3531.000000	1.623940 
3530.000000	1.624178 
3529.000000	1.624488 
3528.000000	1.624846 
3527.000000	1.625251 
3526.000000	1.625752 
3525.000000	1.626324 
3524.000000	1.626896 
3523.000000	1.627445 
3522.000000	1.627922 
3521.000000	1.628208 
3520.000000	1.628279 
3519.000000	1.628136 
3518.000000	1.627802 
3517.000000	1.627373 
3516.000000	1.626920 
3515.000000	1.626539 
3514.000000	1.626253 
3513.000000	1.626157 
3512.000000	1.626205 
3511.000000	1.626420 
3510.000000	1.626753 
3509.000000	1.627111 
3508.000000	1.627397 
3507.000000	1.627612 
3506.000000	1.627612 
3505.000000	1.627397 
3504.000000	1.627039 
3503.000000	1.626491 
3502.000000	1.625823 
3501.000000	1.625084 
3500.000000	1.624369 
3499.000000	1.623678 
3498.000000	1.623106 
3497.000000	1.622653 
3496.000000	1.622343 
3495.000000	1.622152 
3494.000000	1.621985 
3493.000000	1.621794 
3492.000000	1.621580 
3491.000000	1.621246 
3490.000000	1.620769 
3489.000000	1.620101 
3488.000000	1.619338 
3487.000000	1.618456 
3486.000000	1.617574 
3485.000000	1.616740 
3484.000000	1.616048 
3483.000000	1.615595 
3482.000000	1.615333 
3481.000000	1.615262 
3480.000000	1.615309 
3479.000000	1.615405 
3478.000000	1.615452 
3477.000000	1.615333 
3476.000000	1.615095 
3475.000000	1.614665 
3474.000000	1.614141 
3473.000000	1.613473 
3472.000000	1.612758 
3471.000000	1.611995 
3470.000000	1.611232 
3469.000000	1.610469 
3468.000000	1.609706 
3467.000000	1.608943 
3466.000000	1.608204 
3465.000000	1.607513 
3464.000000	1.606893 
3463.000000	1.606345 
3462.000000	1.605892 
3461.000000	1.605463 
3460.000000	1.605057 
3459.000000	1.604604 
3458.000000	1.604008 
3457.000000	1.603269 
3456.000000	1.602387 
3455.000000	1.601338 
3454.000000	1.600241 
3453.000000	1.599049 
3452.000000	1.597905 
3451.000000	1.596832 
3450.000000	1.595830 
3449.000000	1.594948 
3448.000000	1.594090 
3447.000000	1.593279 
3446.000000	1.592421 
3445.000000	1.591539 
3444.000000	1.590633 
3443.000000	1.589703 
3442.000000	1.588749 
3441.000000	1.587843 
3440.000000	1.587033 
3439.000000	1.586341 
3438.000000	1.585745 
3437.000000	1.585316 
3436.000000	1.584982 
3435.000000	1.584720 
3434.000000	1.584482 
3433.000000	1.584339 
3432.000000	1.584196 
3431.000000	1.584172 
3430.000000	1.584243 
3429.000000	1.584482 
3428.000000	1.584911 
3427.000000	1.585531 
3426.000000	1.586270 
3425.000000	1.587104 
3424.000000	1.587986 
3423.000000	1.588773 
3422.000000	1.589465 
3421.000000	1.590037 
3420.000000	1.590442 
3419.000000	1.590728 
3418.000000	1.590943 
3417.000000	1.591157 
3416.000000	1.591348 
3415.000000	1.591610 
3414.000000	1.591897 
3413.000000	1.592278 
3412.000000	1.592779 
3411.000000	1.593303 
3410.000000	1.593875 
3409.000000	1.594448 
3408.000000	1.595091 
3407.000000	1.595735 
3406.000000	1.596379 
3405.000000	1.596999 
3404.000000	1.597595 
3403.000000	1.598167 
3402.000000	1.598715 
3401.000000	1.599240 
3400.000000	1.599717 
3399.000000	1.600146 
3398.000000	1.600575 
3397.000000	1.600980 
3396.000000	1.601409 
3395.000000	1.601886 
3394.000000	1.602435 
3393.000000	1.603055 
3392.000000	1.603746 
3391.000000	1.604509 
3390.000000	1.605343 
3389.000000	1.606130 
3388.000000	1.606893 
3387.000000	1.607632 
3386.000000	1.608300 
3385.000000	1.608943 
3384.000000	1.609611 
3383.000000	1.610279 
3382.000000	1.611042 
3381.000000	1.611852 
3380.000000	1.612734 
3379.000000	1.613664 
3378.000000	1.614594 
3377.000000	1.615452 
3376.000000	1.616334 
3375.000000	1.617097 
3374.000000	1.617836 
3373.000000	1.618552 
3372.000000	1.619338 
3371.000000	1.620221 
3370.000000	1.621222 
3369.000000	1.622319 
3368.000000	1.623630 
3367.000000	1.625132 
3366.000000	1.626801 
3365.000000	1.628565 
3364.000000	1.630425 
3363.000000	1.632332 
3362.000000	1.634192 
3361.000000	1.635909 
3360.000000	1.637458 
3359.000000	1.638793 
3358.000000	1.639938 
3357.000000	1.640868 
3356.000000	1.641726 
3355.000000	1.642584 
3354.000000	1.643610 
3353.000000	1.644825 
3352.000000	1.646304 
3351.000000	1.647973 
3350.000000	1.649856 
3349.000000	1.651835 
3348.000000	1.653814 
3347.000000	1.655697 
3346.000000	1.657366 
3345.000000	1.658821 
3344.000000	1.660108 
3343.000000	1.661252 
3342.000000	1.662302 
3341.000000	1.663351 
3340.000000	1.664495 
3339.000000	1.665759 
3338.000000	1.667165 
3337.000000	1.668739 
3336.000000	1.670432 
3335.000000	1.672196 
3334.000000	1.674056 
3333.000000	1.675939 
3332.000000	1.677799 
3331.000000	1.679658 
3330.000000	1.681447 
3329.000000	1.683115 
3328.000000	1.684665 
3327.000000	1.686120 
3326.000000	1.687407 
3325.000000	1.688575 
3324.000000	1.689624 
3323.000000	1.690578 
3322.000000	1.691508 
3321.000000	1.692461 
3320.000000	1.693463 
3319.000000	1.694560 
3318.000000	1.695775 
3317.000000	1.697111 
3316.000000	1.698589 
3315.000000	1.700186 
3314.000000	1.701855 
3313.000000	1.703596 
3312.000000	1.705336 
3311.000000	1.707029 
3310.000000	1.708674 
3309.000000	1.710271 
3308.000000	1.711773 
3307.000000	1.713228 
3306.000000	1.714658 
3305.000000	1.716065 
3304.000000	1.717495 
3303.000000	1.718902 
3302.000000	1.720309 
3301.000000	1.721692 
3300.000000	1.723098 
3299.000000	1.724505 
3298.000000	1.725912 
3297.000000	1.727390 
3296.000000	1.728868 
3295.000000	1.730394 
3294.000000	1.731991 
3293.000000	1.733565 
3292.000000	1.735091 
3291.000000	1.736545 
3290.000000	1.737880 
3289.000000	1.739072 
3288.000000	1.740217 
3287.000000	1.741313 
3286.000000	1.742362 
3285.000000	1.743483 
3284.000000	1.744675 
3283.000000	1.745939 
3282.000000	1.747226 
3281.000000	1.748490 
3280.000000	1.749682 
3279.000000	1.750826 
3278.000000	1.751852 
3277.000000	1.752758 
3276.000000	1.753568 
3275.000000	1.754355 
3274.000000	1.755118 
3273.000000	1.755857 
3272.000000	1.756644 
3271.000000	1.757478 
3270.000000	1.758337 
3269.000000	1.759243 
3268.000000	1.760149 
3267.000000	1.761054 
3266.000000	1.761889 
3265.000000	1.762723 
3264.000000	1.763510 
3263.000000	1.764249 
3262.000000	1.764965 
3261.000000	1.765727 
3260.000000	1.766467 
3259.000000	1.767230 
3258.000000	1.768016 
3257.000000	1.768779 
3256.000000	1.769518 
3255.000000	1.770186 
3254.000000	1.770853 
3253.000000	1.771497 
3252.000000	1.772141 
3251.000000	1.772856 
3250.000000	1.773667 
3249.000000	1.774549 
3248.000000	1.775527 
3247.000000	1.776528 
3246.000000	1.777482 
3245.000000	1.778316 
3244.000000	1.778984 
3243.000000	1.779437 
3242.000000	1.779699 
3241.000000	1.779842 
3240.000000	1.779890 
3239.000000	1.779937 
3238.000000	1.780104 
3237.000000	1.780366 
3236.000000	1.780819 
3235.000000	1.781392 
3234.000000	1.782107 
3233.000000	1.782917 
3232.000000	1.783776 
3231.000000	1.784610 
3230.000000	1.785397 
3229.000000	1.786088 
3228.000000	1.786613 
3227.000000	1.787066 
3226.000000	1.787400 
3225.000000	1.787638 
3224.000000	1.787877 
3223.000000	1.788115 
3222.000000	1.788449 
3221.000000	1.788902 
3220.000000	1.789546 
3219.000000	1.790237 
3218.000000	1.791048 
3217.000000	1.791858 
3216.000000	1.792645 
3215.000000	1.793313 
3214.000000	1.793813 
3213.000000	1.794075 
3212.000000	1.794171 
3211.000000	1.794099 
3210.000000	1.793932 
3209.000000	1.793670 
3208.000000	1.793432 
3207.000000	1.793169 
3206.000000	1.792955 
3205.000000	1.792740 
3204.000000	1.792478 
3203.000000	1.792144 
3202.000000	1.791763 
3201.000000	1.791310 
3200.000000	1.790881 
3199.000000	1.790475 
3198.000000	1.790237 
3197.000000	1.790165 
3196.000000	1.790237 
3195.000000	1.790499 
3194.000000	1.790928 
3193.000000	1.791429 
3192.000000	1.791930 
3191.000000	1.792454 
3190.000000	1.792907 
3189.000000	1.793336 
3188.000000	1.793670 
3187.000000	1.793909 
3186.000000	1.794147 
3185.000000	1.794314 
3184.000000	1.794457 
3183.000000	1.794552 
3182.000000	1.794672 
3181.000000	1.794862 
3180.000000	1.795101 
3179.000000	1.795506 
3178.000000	1.796078 
3177.000000	1.796793 
3176.000000	1.797652 
3175.000000	1.798605 
3174.000000	1.799631 
3173.000000	1.800584 
3172.000000	1.801490 
3171.000000	1.802253 
3170.000000	1.802849 
3169.000000	1.803302 
3168.000000	1.803684 
3167.000000	1.803946 
3166.000000	1.804137 
3165.000000	1.804351 
3164.000000	1.804614 
3163.000000	1.804947 
3162.000000	1.805353 
3161.000000	1.805877 
3160.000000	1.806521 
3159.000000	1.807332 
3158.000000	1.808214 
3157.000000	1.809191 
3156.000000	1.810216 
3155.000000	1.811146 
3154.000000	1.812028 
3153.000000	1.812767 
3152.000000	1.813435 
3151.000000	1.814007 
3150.000000	1.814508 
3149.000000	1.815009 
3148.000000	1.815581 
3147.000000	1.816248 
3146.000000	1.817011 
3145.000000	1.817870 
3144.000000	1.818823 
3143.000000	1.819801 
3142.000000	1.820802 
3141.000000	1.821780 
3140.000000	1.822733 
3139.000000	1.823639 
3138.000000	1.824617 
3137.000000	1.825642 
3136.000000	1.826786 
3135.000000	1.828026 
3134.000000	1.829385 
3133.000000	1.830887 
3132.000000	1.832461 
3131.000000	1.834082 
3130.000000	1.835703 
3129.000000	1.837277 
3128.000000	1.838660 
3127.000000	1.839923 
3126.000000	1.841044 
3125.000000	1.842045 
3124.000000	1.842880 
3123.000000	1.843643 
3122.000000	1.844310 
3121.000000	1.844930 
3120.000000	1.845431 
3119.000000	1.845884 
3118.000000	1.846289 
3117.000000	1.846647 
3116.000000	1.847028 
3115.000000	1.847505 
3114.000000	1.848125 
3113.000000	1.848983 
3112.000000	1.850152 
3111.000000	1.851654 
3110.000000	1.853537 
3109.000000	1.855707 
3108.000000	1.858162 
3107.000000	1.860761 
3106.000000	1.863479 
3105.000000	1.866197 
3104.000000	1.868820 
3103.000000	1.871395 
3102.000000	1.873755 
3101.000000	1.875972 
3100.000000	1.878023 
3099.000000	1.879906 
3098.000000	1.881694 
3097.000000	1.883411 
3096.000000	1.885056 
3095.000000	1.886725 
3094.000000	1.888442 
3093.000000	1.890182 
3092.000000	1.892089 
3091.000000	1.894116 
3090.000000	1.896262 
3089.000000	1.898503 
3088.000000	1.900911 
3087.000000	1.903343 
3086.000000	1.905798 
3085.000000	1.908159 
3084.000000	1.910448 
3083.000000	1.912522 
3082.000000	1.914381 
3081.000000	1.916050 
3080.000000	1.917576 
3079.000000	1.918959 
3078.000000	1.920247 
3077.000000	1.921534 
3076.000000	1.922774 
3075.000000	1.924037 
3074.000000	1.925253 
3073.000000	1.926493 
3072.000000	1.927733 
3071.000000	1.928973 
3070.000000	1.930236 
3069.000000	1.931524 
3068.000000	1.932907 
3067.000000	1.934361 
3066.000000	1.935887 
3065.000000	1.937508 
3064.000000	1.939153 
3063.000000	1.940846 
3062.000000	1.942563 
3061.000000	1.944303 
3060.000000	1.946020 
3059.000000	1.947689 
3058.000000	1.949357 
3057.000000	1.951026 
3056.000000	1.952719 
3055.000000	1.954388 
3054.000000	1.956105 
3053.000000	1.957845 
3052.000000	1.959657 
3051.000000	1.961445 
3050.000000	1.963233 
3049.000000	1.964974 
3048.000000	1.966667 
3047.000000	1.968193 
3046.000000	1.969599 
3045.000000	1.970839 
3044.000000	1.971936 
3043.000000	1.972866 
3042.000000	1.973652 
3041.000000	1.974320 
3040.000000	1.974916 
3039.000000	1.975393 
3038.000000	1.975822 
3037.000000	1.976180 
3036.000000	1.976513 
3035.000000	1.976799 
3034.000000	1.976990 
3033.000000	1.977038 
3032.000000	1.976966 
3031.000000	1.976680 
3030.000000	1.976180 
3029.000000	1.975417 
3028.000000	1.974368 
3027.000000	1.973080 
3026.000000	1.971578 
3025.000000	1.969861 
3024.000000	1.968050 
3023.000000	1.966261 
3022.000000	1.964592 
3021.000000	1.963233 
3020.000000	1.962375 
3019.000000	1.962184 
3018.000000	1.962780 
3017.000000	1.964235 
3016.000000	1.966619 
3015.000000	1.969861 
3014.000000	1.973843 
3013.000000	1.978421 
3012.000000	1.983380 
3011.000000	1.988530 
3010.000000	1.993680 
3009.000000	1.998686 
3008.000000	2.003383 
3007.000000	2.007746 
3006.000000	2.011728 
3005.000000	2.015280 
3004.000000	2.018356 
3003.000000	2.021098 
3002.000000	2.023386 
3001.000000	2.025270 
3000.000000	2.026772 
2999.000000	2.028012 
2998.000000	2.028965 
2997.000000	2.029728 
2996.000000	2.030324 
2995.000000	2.030801 
2994.000000	2.031111 
2993.000000	2.031326 
2992.000000	2.031397 
2991.000000	2.031302 
2990.000000	2.031040 
2989.000000	2.030634 
2988.000000	2.029991 
2987.000000	2.029156 
2986.000000	2.028107 
2985.000000	2.026820 
2984.000000	2.025294 
2983.000000	2.023506 
2982.000000	2.021479 
2981.000000	2.019166 
2980.000000	2.016568 
2979.000000	2.013587 
2978.000000	2.010250 
2977.000000	2.006506 
2976.000000	2.002358 
2975.000000	1.997709 
2974.000000	1.992654 
2973.000000	1.987171 
2972.000000	1.981353 
2971.000000	1.975274 
2970.000000	1.969099 
2969.000000	1.963019 
2968.000000	1.957201 
2967.000000	1.951742 
2966.000000	1.946759 
2965.000000	1.942348 
2964.000000	1.938509 
2963.000000	1.935219 
2962.000000	1.932525 
2961.000000	1.930356 
2960.000000	1.928591 
2959.000000	1.927232 
2958.000000	1.926207 
2957.000000	1.925468 
2956.000000	1.924848 
2955.000000	1.924252 
2954.000000	1.923513 
2953.000000	1.922559 
2952.000000	1.921224 
2951.000000	1.919341 
2950.000000	1.916766 
2949.000000	1.913404 
2948.000000	1.909255 
2947.000000	1.904320 
2946.000000	1.898503 
2945.000000	1.891899 
2944.000000	1.884675 
2943.000000	1.876878 
2942.000000	1.868557 
2941.000000	1.859903 
2940.000000	1.851034 
2939.000000	1.842093 
2938.000000	1.833152 
2937.000000	1.824402 
2936.000000	1.815962 
2935.000000	1.807880 
2934.000000	1.800227 
2933.000000	1.793098 
2932.000000	1.786565 
2931.000000	1.780676 
2930.000000	1.775550 
2929.000000	1.771378 
2928.000000	1.768350 
2927.000000	1.766705 
2926.000000	1.766681 
2925.000000	1.768517 
2924.000000	1.772236 
2923.000000	1.777982 
2922.000000	1.785612 
2921.000000	1.794910 
2920.000000	1.805615 
2919.000000	1.817321 
2918.000000	1.829671 
2917.000000	1.842236 
2916.000000	1.854729 
2915.000000	1.866769 
2914.000000	1.878190 
2913.000000	1.888799 
2912.000000	1.898479 
2911.000000	1.907181 
2910.000000	1.914954 
2909.000000	1.921892 
2908.000000	1.928043 
2907.000000	1.933550 
2906.000000	1.938533 
2905.000000	1.943111 
2904.000000	1.947307 
2903.000000	1.951169 
2902.000000	1.954770 
2901.000000	1.958084 
2900.000000	1.961207 
2899.000000	1.964187 
2898.000000	1.967024 
2897.000000	1.969885 
2896.000000	1.972794 
2895.000000	1.975870 
2894.000000	1.979041 
2893.000000	1.982283 
2892.000000	1.985597 
2891.000000	1.988935 
2890.000000	1.992106 
2889.000000	1.995110 
2888.000000	1.997876 
2887.000000	2.000403 
2886.000000	2.002668 
2885.000000	2.004647 
2884.000000	2.006387 
2883.000000	2.007865 
2882.000000	2.008962 
2881.000000	2.009630 
2880.000000	2.009749 
2879.000000	2.009248 
2878.000000	2.008008 
2877.000000	2.005958 
2876.000000	2.003097 
2875.000000	1.999378 
2874.000000	1.994800 
2873.000000	1.989340 
2872.000000	1.983070 
2871.000000	1.975989 
2870.000000	1.968145 
2869.000000	1.959681 
2868.000000	1.950836 
2867.000000	1.941895 
2866.000000	1.933240 
2865.000000	1.925253 
2864.000000	1.918387 
2863.000000	1.913070 
2862.000000	1.909565 
2861.000000	1.908135 
2860.000000	1.908850 
2859.000000	1.911616 
2858.000000	1.916217 
2857.000000	1.922464 
2856.000000	1.929998 
2855.000000	1.938581 
2854.000000	1.947832 
2853.000000	1.957607 
2852.000000	1.967644 
2851.000000	1.977849 
2850.000000	1.988029 
2849.000000	1.998019 
2848.000000	2.007794 
2847.000000	2.017188 
2846.000000	2.026081 
2845.000000	2.034401 
2844.000000	2.042126 
2843.000000	2.049279 
2842.000000	2.055859 
2841.000000	2.061939 
2840.000000	2.067732 
2839.000000	2.073216 
2838.000000	2.078509 
2837.000000	2.083611 
2836.000000	2.088522 
2835.000000	2.093219 
2834.000000	2.097606 
2833.000000	2.101731 
2832.000000	2.105522 
2831.000000	2.109026 
2830.000000	2.112269 
2829.000000	2.115392 
2828.000000	2.118396 
2827.000000	2.121329 
2826.000000	2.124261 
2825.000000	2.127146 
2824.000000	2.129936 
2823.000000	2.132654 
2822.000000	2.135229 
2821.000000	2.137660 
2820.000000	2.139973 
2819.000000	2.142143 
2818.000000	2.144336 
2817.000000	2.146458 
2816.000000	2.148628 
2815.000000	2.150797 
2814.000000	2.153015 
2813.000000	2.155232 
2812.000000	2.157330 
2811.000000	2.159428 
2810.000000	2.161431 
2809.000000	2.163386 
2808.000000	2.165317 
2807.000000	2.167272 
2806.000000	2.169203 
2805.000000	2.171206 
2804.000000	2.173304 
2803.000000	2.175474 
2802.000000	2.177691 
2801.000000	2.179908 
2800.000000	2.182126 
2799.000000	2.184247 
2798.000000	2.186250 
2797.000000	2.188038 
2796.000000	2.189636 
2795.000000	2.191042 
2794.000000	2.192306 
2793.000000	2.193427 
2792.000000	2.194499 
2791.000000	2.195620 
2790.000000	2.196907 
2789.000000	2.198386 
2788.000000	2.200102 
2787.000000	2.202057 
2786.000000	2.204227 
2785.000000	2.206587 
2784.000000	2.209067 
2783.000000	2.211523 
2782.000000	2.213954 
2781.000000	2.216291 
2780.000000	2.218484 
2779.000000	2.220559 
2778.000000	2.222466 
2777.000000	2.224254 
2776.000000	2.225899 
2775.000000	2.227449 
2774.000000	2.228903 
2773.000000	2.230286 
2772.000000	2.231574 
2771.000000	2.232766 
2770.000000	2.233910 
2769.000000	2.234983 
2768.000000	2.236008 
2767.000000	2.237010 
2766.000000	2.237963 
2765.000000	2.238965 
2764.000000	2.239918 
2763.000000	2.240920 
2762.000000	2.241921 
2761.000000	2.242922 
2760.000000	2.243852 
2759.000000	2.244734 
2758.000000	2.245593 
2757.000000	2.246332 
2756.000000	2.247047 
2755.000000	2.247691 
2754.000000	2.248311 
2753.000000	2.248954 
2752.000000	2.249550 
2751.000000	2.250099 
2750.000000	2.250623 
2749.000000	2.251052 
2748.000000	2.251410 
2747.000000	2.251696 
2746.000000	2.251863 
2745.000000	2.252054 
2744.000000	2.252316 
2743.000000	2.252626 
2742.000000	2.253103 
2741.000000	2.253746 
2740.000000	2.254533 
2739.000000	2.255392 
2738.000000	2.256250 
2737.000000	2.257132 
2736.000000	2.257895 
2735.000000	2.258539 
2734.000000	2.258992 
2733.000000	2.259278 
2732.000000	2.259373 
2731.000000	2.259397 
2730.000000	2.259302 
2729.000000	2.259135 
2728.000000	2.258944 
2727.000000	2.258634 
2726.000000	2.258324 
2725.000000	2.257990 
2724.000000	2.257585 
2723.000000	2.257180 
2722.000000	2.256703 
2721.000000	2.256226 
2720.000000	2.255773 
2719.000000	2.255368 
2718.000000	2.255034 
2717.000000	2.254724 
2716.000000	2.254462 
2715.000000	2.254223 
2714.000000	2.253961 
2713.000000	2.253627 
2712.000000	2.253198 
2711.000000	2.252697 
2710.000000	2.252078 
2709.000000	2.251362 
2708.000000	2.250599 
2707.000000	2.249813 
2706.000000	2.249050 
2705.000000	2.248311 
2704.000000	2.247595 
2703.000000	2.246904 
2702.000000	2.246212 
2701.000000	2.245521 
2700.000000	2.244782 
2699.000000	2.244019 
2698.000000	2.243232 
2697.000000	2.242422 
2696.000000	2.241659 
2695.000000	2.240943 
2694.000000	2.240419 
2693.000000	2.240037 
2692.000000	2.239799 
2691.000000	2.239751 
2690.000000	2.239823 
2689.000000	2.239966 
2688.000000	2.240109 
2687.000000	2.240157 
2686.000000	2.240061 
2685.000000	2.239727 
2684.000000	2.239227 
2683.000000	2.238535 
2682.000000	2.237725 
2681.000000	2.236914 
2680.000000	2.236080 
2679.000000	2.235293 
2678.000000	2.234530 
2677.000000	2.233839 
2676.000000	2.233123 
2675.000000	2.232313 
2674.000000	2.231431 
2673.000000	2.230429 
2672.000000	2.229332 
2671.000000	2.228212 
2670.000000	2.227067 
2669.000000	2.226042 
2668.000000	2.225136 
2667.000000	2.224326 
2666.000000	2.223706 
2665.000000	2.223205 
2664.000000	2.222800 
2663.000000	2.222490 
2662.000000	2.222275 
2661.000000	2.222108 
2660.000000	2.221965 
2659.000000	2.221822 
2658.000000	2.221632 
2657.000000	2.221417 
2656.000000	2.221179 
2655.000000	2.220869 
2654.000000	2.220582 
2653.000000	2.220320 
2652.000000	2.220106 
2651.000000	2.220010 
2650.000000	2.220010 
2649.000000	2.220106 
2648.000000	2.220273 
2647.000000	2.220463 
2646.000000	2.220582 
2645.000000	2.220654 
2644.000000	2.220606 
2643.000000	2.220439 
2642.000000	2.220106 
2641.000000	2.219724 
2640.000000	2.219271 
2639.000000	2.218794 
2638.000000	2.218294 
2637.000000	2.217841 
2636.000000	2.217459 
2635.000000	2.217149 
2634.000000	2.216958 
2633.000000	2.216935 
2632.000000	2.217030 
2631.000000	2.217268 
2630.000000	2.217650 
2629.000000	2.218127 
2628.000000	2.218627 
2627.000000	2.219152 
2626.000000	2.219653 
2625.000000	2.220082 
2624.000000	2.220487 
2623.000000	2.220845 
2622.000000	2.221179 
2621.000000	2.221488 
2620.000000	2.221775 
2619.000000	2.222084 
2618.000000	2.222371 
2617.000000	2.222633 
2616.000000	2.222871 
2615.000000	2.223110 
2614.000000	2.223300 
2613.000000	2.223491 
2612.000000	2.223682 
2611.000000	2.223896 
2610.000000	2.224111 
2609.000000	2.224349 
2608.000000	2.224612 
2607.000000	2.224874 
2606.000000	2.225160 
2605.000000	2.225470 
2604.000000	2.225828 
2603.000000	2.226233 
2602.000000	2.226638 
2601.000000	2.227091 
2600.000000	2.227520 
2599.000000	2.227926 
2598.000000	2.228355 
2597.000000	2.228760 
2596.000000	2.229118 
2595.000000	2.229452 
2594.000000	2.229857 
2593.000000	2.230310 
2592.000000	2.230882 
2591.000000	2.231621 
2590.000000	2.232527 
2589.000000	2.233576 
2588.000000	2.234816 
2587.000000	2.236175 
2586.000000	2.237653 
2585.000000	2.239203 
2584.000000	2.240777 
2583.000000	2.242398 
2582.000000	2.244067 
2581.000000	2.245759 
2580.000000	2.247476 
2579.000000	2.249193 
2578.000000	2.250862 
2577.000000	2.252483 
2576.000000	2.254033 
2575.000000	2.255511 
2574.000000	2.256917 
2573.000000	2.258253 
2572.000000	2.259588 
2571.000000	2.260947 
2570.000000	2.262353 
2569.000000	2.263832 
2568.000000	2.265357 
2567.000000	2.266907 
2566.000000	2.268481 
2565.000000	2.270054 
2564.000000	2.271556 
2563.000000	2.272987 
2562.000000	2.274298 
2561.000000	2.275514 
2560.000000	2.276611 
2559.000000	2.277588 
2558.000000	2.278494 
2557.000000	2.279305 
2556.000000	2.280116 
2555.000000	2.280926 
2554.000000	2.281785 
2553.000000	2.282691 
2552.000000	2.283668 
2551.000000	2.284669 
2550.000000	2.285695 
2549.000000	2.286744 
2548.000000	2.287817 
2547.000000	2.288913 
2546.000000	2.290034 
2545.000000	2.291226 
2544.000000	2.292394 
2543.000000	2.293634 
2542.000000	2.294898 
2541.000000	2.296161 
2540.000000	2.297425 
2539.000000	2.298688 
2538.000000	2.299904 
2537.000000	2.301120 
2536.000000	2.302312 
2535.000000	2.303433 
2534.000000	2.304553 
2533.000000	2.305626 
2532.000000	2.306699 
2531.000000	2.307748 
2530.000000	2.308773 
2529.000000	2.309775 
2528.000000	2.310681 
2527.000000	2.311587 
2526.000000	2.312421 
2525.000000	2.313208 
2524.000000	2.313971 
2523.000000	2.314782 
2522.000000	2.315711 
2521.000000	2.316761 
2520.000000	2.317905 
2519.000000	2.319169 
2518.000000	2.320504 
2517.000000	2.321815 
2516.000000	2.323007 
2515.000000	2.324080 
2514.000000	2.324938 
2513.000000	2.325606 
2512.000000	2.326130 
2511.000000	2.326560 
2510.000000	2.326917 
2509.000000	2.327299 
2508.000000	2.327632 
2507.000000	2.327966 
2506.000000	2.328300 
2505.000000	2.328562 
2504.000000	2.328777 
2503.000000	2.328944 
2502.000000	2.329087 
2501.000000	2.329206 
2500.000000	2.329421 
2499.000000	2.329683 
2498.000000	2.330040 
2497.000000	2.330446 
2496.000000	2.330827 
2495.000000	2.331161 
2494.000000	2.331376 
2493.000000	2.331376 
2492.000000	2.331185 
2491.000000	2.330732 
2490.000000	2.330088 
2489.000000	2.329325 
2488.000000	2.328491 
2487.000000	2.327704 
2486.000000	2.327013 
2485.000000	2.326416 
2484.000000	2.325916 
2483.000000	2.325510 
2482.000000	2.325153 
2481.000000	2.324867 
2480.000000	2.324509 
2479.000000	2.324175 
2478.000000	2.323770 
2477.000000	2.323341 
2476.000000	2.322983 
2475.000000	2.322530 
2474.000000	2.322030 
2473.000000	2.321457 
2472.000000	2.320742 
2471.000000	2.319884 
2470.000000	2.318859 
2469.000000	2.317714 
2468.000000	2.316522 
2467.000000	2.315282 
2466.000000	2.314090 
2465.000000	2.312994 
2464.000000	2.312040 
2463.000000	2.311277 
2462.000000	2.310633 
2461.000000	2.310037 
2460.000000	2.309465 
2459.000000	2.308821 
2458.000000	2.308082 
2457.000000	2.307200 
2456.000000	2.306222 
2455.000000	2.305126 
2454.000000	2.303957 
2453.000000	2.302765 
2452.000000	2.301526 
2451.000000	2.300286 
2450.000000	2.299022 
2449.000000	2.297782 
2448.000000	2.296519 
2447.000000	2.295279 
2446.000000	2.294063 
2445.000000	2.292943 
2444.000000	2.291917 
2443.000000	2.291011 
2442.000000	2.290320 
2441.000000	2.289724 
2440.000000	2.289247 
2439.000000	2.288746 
2438.000000	2.288174 
2437.000000	2.287435 
2436.000000	2.286505 
2435.000000	2.285337 
2434.000000	2.284026 
2433.000000	2.282619 
2432.000000	2.281236 
2431.000000	2.279973 
2430.000000	2.278852 
2429.000000	2.277970 
2428.000000	2.277231 
2427.000000	2.276563 
2426.000000	2.275753 
2425.000000	2.274751 
2424.000000	2.273392 
2423.000000	2.271699 
2422.000000	2.269673 
2421.000000	2.267479 
2420.000000	2.265334 
2419.000000	2.263379 
2418.000000	2.261853 
2417.000000	2.260875 
2416.000000	2.260446 
2415.000000	2.260589 
2414.000000	2.261137 
2413.000000	2.261948 
2412.000000	2.262830 
2411.000000	2.263569 
2410.000000	2.264046 
2409.000000	2.264142 
2408.000000	2.263855 
2407.000000	2.263212 
2406.000000	2.262234 
2405.000000	2.261018 
2404.000000	2.259635 
2403.000000	2.258229 
2402.000000	2.256822 
2401.000000	2.255511 
2400.000000	2.254319 
2399.000000	2.253317 
2398.000000	2.252459 
2397.000000	2.251720 
2396.000000	2.251100 
2395.000000	2.250576 
2394.000000	2.250099 
2393.000000	2.249598 
2392.000000	2.249097 
2391.000000	2.248597 
2390.000000	2.248167 
2389.000000	2.247786 
2388.000000	2.247524 
2387.000000	2.247357 
2386.000000	2.247309 
2385.000000	2.247333 
2384.000000	2.247357 
2383.000000	2.247405 
2382.000000	2.247357 
2381.000000	2.247166 
2380.000000	2.246832 
2379.000000	2.246308 
2378.000000	2.245616 
2377.000000	2.244734 
2376.000000	2.243709 
2375.000000	2.242541 
2374.000000	2.241277 
2373.000000	2.239918 
2372.000000	2.238535 
2371.000000	2.237200 
2370.000000	2.235960 
2369.000000	2.234864 
2368.000000	2.233982 
2367.000000	2.233314 
2366.000000	2.232956 
2365.000000	2.232885 
2364.000000	2.233171 
2363.000000	2.233791 
2362.000000	2.234721 
2361.000000	2.236080 
2360.000000	2.237749 
2359.000000	2.239751 
2358.000000	2.242040 
2357.000000	2.244544 
2356.000000	2.247166 
2355.000000	2.249765 
2354.000000	2.252292 
2353.000000	2.254700 
2352.000000	2.256798 
2351.000000	2.258610 
2350.000000	2.260112 
2349.000000	2.261328 
2348.000000	2.262282 
2347.000000	2.262997 
2346.000000	2.263569 
2345.000000	2.264142 
2344.000000	2.264666 
2343.000000	2.265214 
2342.000000	2.265858 
2341.000000	2.266573 
2340.000000	2.267456 
2339.000000	2.268481 
2338.000000	2.269625 
2337.000000	2.270913 
2336.000000	2.272319 
2335.000000	2.273821 
2334.000000	2.275443 
2333.000000	2.277159 
2332.000000	2.278923 
2331.000000	2.280735 
2330.000000	2.282619 
2329.000000	2.284550 
2328.000000	2.286505 
2327.000000	2.288460 
2326.000000	2.290439 
2325.000000	2.292418 
2324.000000	2.294421 
2323.000000	2.296447 
2322.000000	2.298474 
2321.000000	2.300524 
2320.000000	2.302551 
2319.000000	2.304577 
2318.000000	2.306604 
2317.000000	2.308607 
2316.000000	2.310585 
2315.000000	2.312517 
2314.000000	2.314400 
2313.000000	2.316212 
2312.000000	2.317953 
2311.000000	2.319622 
2310.000000	2.321219 
2309.000000	2.322769 
2308.000000	2.324342 
2307.000000	2.325916 
2306.000000	2.327585 
2305.000000	2.329349 
2304.000000	2.331233 
2303.000000	2.333188 
2302.000000	2.335214 
2301.000000	2.337193 
2300.000000	2.339148 
2299.000000	2.341008 
2298.000000	2.342748 
2297.000000	2.344393 
2296.000000	2.345871 
2295.000000	2.347302 
2294.000000	2.348637 
2293.000000	2.349972 
2292.000000	2.351212 
2291.000000	2.352404 
2290.000000	2.353501 
2289.000000	2.354550 
2288.000000	2.355575 
2287.000000	2.356529 
2286.000000	2.357530 
2285.000000	2.358531 
2284.000000	2.359580 
2283.000000	2.360701 
2282.000000	2.361869 
2281.000000	2.363061 
2280.000000	2.364253 
2279.000000	2.365446 
2278.000000	2.366590 
2277.000000	2.367734 
2276.000000	2.368831 
2275.000000	2.369928 
2274.000000	2.370953 
2273.000000	2.371931 
2272.000000	2.372884 
2271.000000	2.373719 
2270.000000	2.374482 
2269.000000	2.375125 
2268.000000	2.375745 
2267.000000	2.376270 
2266.000000	2.376794 
2265.000000	2.377295 
2264.000000	2.377820 
2263.000000	2.378344 
2262.000000	2.378869 
2261.000000	2.379369 
2260.000000	2.379822 
2259.000000	2.380180 
2258.000000	2.380442 
2257.000000	2.380633 
2256.000000	2.380752 
2255.000000	2.380824 
2254.000000	2.380847 
2253.000000	2.380895 
2252.000000	2.380967 
2251.000000	2.381134 
2250.000000	2.381396 
2249.000000	2.381730 
2248.000000	2.382111 
2247.000000	2.382540 
2246.000000	2.382922 
2245.000000	2.383255 
2244.000000	2.383494 
2243.000000	2.383613 
2242.000000	2.383589 
2241.000000	2.383470 
2240.000000	2.383255 
2239.000000	2.382993 
2238.000000	2.382636 
2237.000000	2.382254 
2236.000000	2.381825 
2235.000000	2.381372 
2234.000000	2.380919 
2233.000000	2.380537 
2232.000000	2.380251 
2231.000000	2.380108 
2230.000000	2.380132 
2229.000000	2.380323 
2228.000000	2.380657 
2227.000000	2.381062 
2226.000000	2.381443 
2225.000000	2.381682 
2224.000000	2.381706 
2223.000000	2.381420 
2222.000000	2.380895 
2221.000000	2.380084 
2220.000000	2.379083 
2219.000000	2.377939 
2218.000000	2.376723 
2217.000000	2.375531 
2216.000000	2.374386 
2215.000000	2.373266 
2214.000000	2.372217 
2213.000000	2.371215 
2212.000000	2.370190 
2211.000000	2.369117 
2210.000000	2.368044 
2209.000000	2.366924 
2208.000000	2.365779 
2207.000000	2.364659 
2206.000000	2.363586 
2205.000000	2.362585 
2204.000000	2.361655 
2203.000000	2.360820 
2202.000000	2.360081 
2201.000000	2.359342 
2200.000000	2.358579 
2199.000000	2.357769 
2198.000000	2.356815 
2197.000000	2.355766 
2196.000000	2.354574 
2195.000000	2.353358 
2194.000000	2.352142 
2193.000000	2.350997 
2192.000000	2.349996 
2191.000000	2.349209 
2190.000000	2.348566 
2189.000000	2.348065 
2188.000000	2.347636 
2187.000000	2.347207 
2186.000000	2.346682 
2185.000000	2.346014 
2184.000000	2.345204 
2183.000000	2.344202 
2182.000000	2.343130 
2181.000000	2.342081 
2180.000000	2.341127 
2179.000000	2.340245 
2178.000000	2.339577 
2177.000000	2.339100 
2176.000000	2.338790 
2175.000000	2.338552 
2174.000000	2.338385 
2173.000000	2.338218 
2172.000000	2.337980 
2171.000000	2.337694 
2170.000000	2.337384 
2169.000000	2.337074 
2168.000000	2.336740 
2167.000000	2.336454 
2166.000000	2.336239 
2165.000000	2.336072 
2164.000000	2.335953 
2163.000000	2.335906 
2162.000000	2.335977 
2161.000000	2.336096 
2160.000000	2.336311 
2159.000000	2.336645 
2158.000000	2.337026 
2157.000000	2.337408 
2156.000000	2.337765 
2155.000000	2.338051 
2154.000000	2.338218 
2153.000000	2.338218 
2152.000000	2.338051 
2151.000000	2.337765 
2150.000000	2.337384 
2149.000000	2.336978 
2148.000000	2.336621 
2147.000000	2.336311 
2146.000000	2.336096 
2145.000000	2.335882 
2144.000000	2.335667 
2143.000000	2.335453 
2142.000000	2.335238 
2141.000000	2.335000 
2140.000000	2.334737 
2139.000000	2.334499 
2138.000000	2.334260 
2137.000000	2.334070 
2136.000000	2.333879 
2135.000000	2.333712 
2134.000000	2.333569 
2133.000000	2.333474 
2132.000000	2.333426 
2131.000000	2.333474 
2130.000000	2.333641 
2129.000000	2.333927 
2128.000000	2.334332 
2127.000000	2.334785 
2126.000000	2.335262 
2125.000000	2.335715 
2124.000000	2.336072 
2123.000000	2.336359 
2122.000000	2.336549 
2121.000000	2.336668 
2120.000000	2.336764 
2119.000000	2.336883 
2118.000000	2.337074 
2117.000000	2.337384 
2116.000000	2.337741 
2115.000000	2.338194 
2114.000000	2.338695 
2113.000000	2.339172 
2112.000000	2.339625 
2111.000000	2.339959 
2110.000000	2.340221 
2109.000000	2.340364 
2108.000000	2.340364 
2107.000000	2.340292 
2106.000000	2.340126 
2105.000000	2.339911 
2104.000000	2.339720 
2103.000000	2.339625 
2102.000000	2.339577 
2101.000000	2.339577 
2100.000000	2.339673 
2099.000000	2.339768 
2098.000000	2.339887 
2097.000000	2.339887 
2096.000000	2.339792 
2095.000000	2.339577 
2094.000000	2.339291 
2093.000000	2.338886 
2092.000000	2.338480 
2091.000000	2.338051 
2090.000000	2.337670 
2089.000000	2.337360 
2088.000000	2.337145 
2087.000000	2.337050 
2086.000000	2.337098 
2085.000000	2.337312 
2084.000000	2.337765 
2083.000000	2.338433 
2082.000000	2.339386 
2081.000000	2.340698 
2080.000000	2.342295 
2079.000000	2.344155 
2078.000000	2.346253 
2077.000000	2.348542 
2076.000000	2.350926 
2075.000000	2.353286 
2074.000000	2.355599 
2073.000000	2.357745 
2072.000000	2.359771 
2071.000000	2.361679 
2070.000000	2.363491 
2069.000000	2.365207 
2068.000000	2.366971 
2067.000000	2.368783 
2066.000000	2.370667 
2065.000000	2.372622 
2064.000000	2.374625 
2063.000000	2.376604 
2062.000000	2.378582 
2061.000000	2.380490 
2060.000000	2.382373 
2059.000000	2.384257 
2058.000000	2.386116 
2057.000000	2.388024 
2056.000000	2.390050 
2055.000000	2.392172 
2054.000000	2.394461 
2053.000000	2.396893 
2052.000000	2.399420 
2051.000000	2.402019 
2050.000000	2.404689 
2049.000000	2.407360 
2048.000000	2.409958 
2047.000000	2.412462 
2046.000000	2.414798 
2045.000000	2.416992 
2044.000000	2.419018 
2043.000000	2.420902 
2042.000000	2.422666 
2041.000000	2.424359 
2040.000000	2.426004 
2039.000000	2.427577 
2038.000000	2.429127 
2037.000000	2.430629 
2036.000000	2.432012 
2035.000000	2.433323 
2034.000000	2.434539 
2033.000000	2.435564 
2032.000000	2.436542 
2031.000000	2.437472 
2030.000000	2.438378 
2029.000000	2.439332 
2028.000000	2.440285 
2027.000000	2.441263 
2026.000000	2.442264 
2025.000000	2.443242 
2024.000000	2.444195 
2023.000000	2.445101 
2022.000000	2.445960 
2021.000000	2.446699 
2020.000000	2.447438 
2019.000000	2.448129 
2018.000000	2.448821 
2017.000000	2.449464 
2016.000000	2.450108 
2015.000000	2.450728 
2014.000000	2.451324 
2013.000000	2.451848 
2012.000000	2.452349 
2011.000000	2.452802 
2010.000000	2.453207 
2009.000000	2.453565 
2008.000000	2.453899 
2007.000000	2.454209 
2006.000000	2.454495 
2005.000000	2.454781 
2004.000000	2.455067 
2003.000000	2.455329 
2002.000000	2.455615 
2001.000000	2.455830 
2000.000000	2.455973 
1999.000000	2.455997 
1998.000000	2.455949 
1997.000000	2.455782 
1996.000000	2.455568 
1995.000000	2.455282 
1994.000000	2.455019 
1993.000000	2.454781 
1992.000000	2.454590 
1991.000000	2.454423 
1990.000000	2.454304 
1989.000000	2.454185 
1988.000000	2.454066 
1987.000000	2.453851 
1986.000000	2.453565 
1985.000000	2.453160 
1984.000000	2.452659 
1983.000000	2.452063 
1982.000000	2.451372 
1981.000000	2.450609 
1980.000000	2.449822 
1979.000000	2.449011 
1978.000000	2.448201 
1977.000000	2.447438 
1976.000000	2.446651 
1975.000000	2.445864 
1974.000000	2.445101 
1973.000000	2.444386 
1972.000000	2.443718 
1971.000000	2.443075 
1970.000000	2.442455 
1969.000000	2.441859 
1968.000000	2.441215 
1967.000000	2.440452 
1966.000000	2.439570 
1965.000000	2.438545 
1964.000000	2.437353 
1963.000000	2.436065 
1962.000000	2.434706 
1961.000000	2.433347 
1960.000000	2.432060 
1959.000000	2.430915 
1958.000000	2.429914 
1957.000000	2.429103 
1956.000000	2.428483 
1955.000000	2.428030 
1954.000000	2.427673 
1953.000000	2.427339 
1952.000000	2.427005 
1951.000000	2.426600 
1950.000000	2.426099 
1949.000000	2.425527 
1948.000000	2.424836 
1947.000000	2.424097 
1946.000000	2.423310 
1945.000000	2.422499 
1944.000000	2.421665 
1943.000000	2.420806 
1942.000000	2.419948 
1941.000000	2.419066 
1940.000000	2.418112 
1939.000000	2.417087 
1938.000000	2.415943 
1937.000000	2.414727 
1936.000000	2.413368 
1935.000000	2.411961 
1934.000000	2.410531 
1933.000000	2.409076 
1932.000000	2.407717 
1931.000000	2.406454 
1930.000000	2.405285 
1929.000000	2.404260 
1928.000000	2.403306 
1927.000000	2.402400 
1926.000000	2.401494 
1925.000000	2.400565 
1924.000000	2.399563 
1923.000000	2.398467 
1922.000000	2.397346 
1921.000000	2.396202 
1920.000000	2.395105 
1919.000000	2.394056 
1918.000000	2.393054 
1917.000000	2.392196 
1916.000000	2.391386 
1915.000000	2.390551 
1914.000000	2.389764 
1913.000000	2.388954 
1912.000000	2.388167 
1911.000000	2.387332 
1910.000000	2.386498 
1909.000000	2.385663 
1908.000000	2.384853 
1907.000000	2.384114 
1906.000000	2.383375 
1905.000000	2.382612 
1904.000000	2.381825 
1903.000000	2.380990 
1902.000000	2.380108 
1901.000000	2.379202 
1900.000000	2.378225 
1899.000000	2.377247 
1898.000000	2.376246 
1897.000000	2.375340 
1896.000000	2.374505 
1895.000000	2.373862 
1894.000000	2.373409 
1893.000000	2.373218 
1892.000000	2.373194 
1891.000000	2.373385 
1890.000000	2.373743 
1889.000000	2.374172 
1888.000000	2.374649 
1887.000000	2.375102 
1886.000000	2.375507 
1885.000000	2.375841 
1884.000000	2.376103 
1883.000000	2.376317 
1882.000000	2.376508 
1881.000000	2.376723 
1880.000000	2.376985 
1879.000000	2.377247 
1878.000000	2.377510 
1877.000000	2.377724 
1876.000000	2.377891 
1875.000000	2.378010 
1874.000000	2.377986 
1873.000000	2.377939 
1872.000000	2.377867 
1871.000000	2.377891 
1870.000000	2.378034 
1869.000000	2.378368 
1868.000000	2.378916 
1867.000000	2.379679 
1866.000000	2.380609 
1865.000000	2.381634 
1864.000000	2.382755 
1863.000000	2.383828 
1862.000000	2.384948 
1861.000000	2.386021 
1860.000000	2.387094 
1859.000000	2.388167 
1858.000000	2.389287 
1857.000000	2.390408 
1856.000000	2.391529 
1855.000000	2.392578 
1854.000000	2.393555 
1853.000000	2.394366 
1852.000000	2.394914 
1851.000000	2.395200 
1850.000000	2.395296 
1849.000000	2.395200 
1848.000000	2.395057 
1847.000000	2.395009 
1846.000000	2.395129 
1845.000000	2.395534 
1844.000000	2.396249 
1843.000000	2.397322 
1842.000000	2.398633 
1841.000000	2.400135 
1840.000000	2.401685 
1839.000000	2.403140 
1838.000000	2.404475 
1837.000000	2.405548 
1836.000000	2.406382 
1835.000000	2.406954 
1834.000000	2.407312 
1833.000000	2.407574 
1832.000000	2.407789 
1831.000000	2.408051 
1830.000000	2.408432 
1829.000000	2.409029 
1828.000000	2.409839 
1827.000000	2.410912 
1826.000000	2.412199 
1825.000000	2.413702 
1824.000000	2.415370 
1823.000000	2.417087 
1822.000000	2.418828 
1821.000000	2.420544 
1820.000000	2.422189 
1819.000000	2.423644 
1818.000000	2.424955 
1817.000000	2.426075 
1816.000000	2.427053 
1815.000000	2.427864 
1814.000000	2.428603 
1813.000000	2.429294 
1812.000000	2.429962 
1811.000000	2.430677 
1810.000000	2.431416 
1809.000000	2.432155 
1808.000000	2.432870 
1807.000000	2.433490 
1806.000000	2.433943 
1805.000000	2.434229 
1804.000000	2.434301 
1803.000000	2.434134 
1802.000000	2.433753 
1801.000000	2.433204 
1800.000000	2.432560 
1799.000000	2.431845 
1798.000000	2.431106 
1797.000000	2.430415 
1796.000000	2.429819 
1795.000000	2.429318 
1794.000000	2.428936 
1793.000000	2.428722 
1792.000000	2.428650 
1791.000000	2.428674 
1790.000000	2.428817 
1789.000000	2.429032 
1788.000000	2.429246 
1787.000000	2.429485 
1786.000000	2.429676 
1785.000000	2.429842 
1784.000000	2.429962 
1783.000000	2.429962 
1782.000000	2.429819 
1781.000000	2.429413 
1780.000000	2.428674 
1779.000000	2.427577 
1778.000000	2.426052 
1777.000000	2.424192 
1776.000000	2.422094 
1775.000000	2.419924 
1774.000000	2.417874 
1773.000000	2.416086 
1772.000000	2.414727 
1771.000000	2.413797 
1770.000000	2.413296 
1769.000000	2.413129 
1768.000000	2.413082 
1767.000000	2.413010 
1766.000000	2.412819 
1765.000000	2.412462 
1764.000000	2.411866 
1763.000000	2.411055 
1762.000000	2.410054 
1761.000000	2.408862 
1760.000000	2.407503 
1759.000000	2.405858 
1758.000000	2.403926 
1757.000000	2.401638 
1756.000000	2.399015 
1755.000000	2.396035 
1754.000000	2.392840 
1753.000000	2.389502 
1752.000000	2.386164 
1751.000000	2.382898 
1750.000000	2.379798 
1749.000000	2.376866 
1748.000000	2.374029 
1747.000000	2.371239 
1746.000000	2.368354 
1745.000000	2.365279 
1744.000000	2.361893 
1743.000000	2.358198 
1742.000000	2.354097 
1741.000000	2.349638 
1740.000000	2.344918 
1739.000000	2.340149 
1738.000000	2.335500 
1737.000000	2.331185 
1736.000000	2.327489 
1735.000000	2.324652 
1734.000000	2.322793 
1733.000000	2.321958 
1732.000000	2.322006 
1731.000000	2.322840 
1730.000000	2.324128 
1729.000000	2.325534 
1728.000000	2.326703 
1727.000000	2.327346 
1726.000000	2.327251 
1725.000000	2.326273 
1724.000000	2.324414 
1723.000000	2.321767 
1722.000000	2.318525 
1721.000000	2.314972 
1720.000000	2.311420 
1719.000000	2.308130 
1718.000000	2.305412 
1717.000000	2.303385 
1716.000000	2.302002 
1715.000000	2.301263 
1714.000000	2.300906 
1713.000000	2.300667 
1712.000000	2.300262 
1711.000000	2.299380 
1710.000000	2.297902 
1709.000000	2.295589 
1708.000000	2.292490 
1707.000000	2.288579 
1706.000000	2.284049 
1705.000000	2.278995 
1704.000000	2.273607 
1703.000000	2.268195 
1702.000000	2.263045 
1701.000000	2.258419 
1700.000000	2.254676 
1699.000000	2.252101 
1698.000000	2.250742 
1697.000000	2.250647 
1696.000000	2.251601 
1695.000000	2.253293 
1694.000000	2.255201 
1693.000000	2.256798 
1692.000000	2.257633 
1691.000000	2.257370 
1690.000000	2.255940 
1689.000000	2.253484 
1688.000000	2.250409 
1687.000000	2.247095 
1686.000000	2.244019 
1685.000000	2.241563 
1684.000000	2.239942 
1683.000000	2.239131 
1682.000000	2.238917 
1681.000000	2.238965 
1680.000000	2.238988 
1679.000000	2.238655 
1678.000000	2.237749 
1677.000000	2.236318 
1676.000000	2.234411 
1675.000000	2.232265 
1674.000000	2.230024 
1673.000000	2.227950 
1672.000000	2.226066 
1671.000000	2.224397 
1670.000000	2.222943 
1669.000000	2.221608 
1668.000000	2.220320 
1667.000000	2.219009 
1666.000000	2.217626 
1665.000000	2.216100 
1664.000000	2.214336 
1663.000000	2.212190 
1662.000000	2.209544 
1661.000000	2.206182 
1660.000000	2.201986 
1659.000000	2.196979 
1658.000000	2.191329 
1657.000000	2.185297 
1656.000000	2.179241 
1655.000000	2.173614 
1654.000000	2.168798 
1653.000000	2.165055 
1652.000000	2.162432 
1651.000000	2.160930 
1650.000000	2.160358 
1649.000000	2.160406 
1648.000000	2.160835 
1647.000000	2.161288 
1646.000000	2.161693 
1645.000000	2.161669 
1644.000000	2.161192 
1643.000000	2.160096 
1642.000000	2.158427 
1641.000000	2.156162 
1640.000000	2.153396 
1639.000000	2.150249 
1638.000000	2.147006 
1637.000000	2.143907 
1636.000000	2.141141 
1635.000000	2.138781 
1634.000000	2.136898 
1633.000000	2.135348 
1632.000000	2.133917 
1631.000000	2.132344 
1630.000000	2.130436 
1629.000000	2.127981 
1628.000000	2.124953 
1627.000000	2.121257 
1626.000000	2.116918 
1625.000000	2.111983 
1624.000000	2.106451 
1623.000000	2.100348 
1622.000000	2.093601 
1621.000000	2.086186 
1620.000000	2.078151 
1619.000000	2.069377 
1618.000000	2.060008 
1617.000000	2.050065 
1616.000000	2.039742 
1615.000000	2.029180 
1614.000000	2.018570 
1613.000000	2.008247 
1612.000000	1.998496 
1611.000000	1.989698 
1610.000000	1.982235 
1609.000000	1.976394 
1608.000000	1.972389 
1607.000000	1.970386 
1606.000000	1.970386 
1605.000000	1.972079 
1604.000000	1.975226 
1603.000000	1.979374 
1602.000000	1.984143 
1601.000000	1.989102 
1600.000000	1.993942 
1599.000000	1.998400 
1598.000000	2.002382 
1597.000000	2.005743 
1596.000000	2.008533 
1595.000000	2.010750 
1594.000000	2.012372 
1593.000000	2.013516 
1592.000000	2.014136 
1591.000000	2.014279 
1590.000000	2.014040 
1589.000000	2.013349 
1588.000000	2.012300 
1587.000000	2.010917 
1586.000000	2.009153 
1585.000000	2.007079 
1584.000000	2.004647 
1583.000000	2.001905 
1582.000000	1.998949 
1581.000000	1.995825 
1580.000000	1.992750 
1579.000000	1.989889 
1578.000000	1.987409 
1577.000000	1.985383 
1576.000000	1.983833 
1575.000000	1.982712 
1574.000000	1.981997 
1573.000000	1.981496 
1572.000000	1.981067 
1571.000000	1.980423 
1570.000000	1.979398 
1569.000000	1.977753 
1568.000000	1.975274 
1567.000000	1.971745 
1566.000000	1.967215 
1565.000000	1.961636 
1564.000000	1.955246 
1563.000000	1.948523 
1562.000000	1.941919 
1561.000000	1.936078 
1560.000000	1.931500 
1559.000000	1.928710 
1558.000000	1.927852 
1557.000000	1.929020 
1556.000000	1.931929 
1555.000000	1.936149 
1554.000000	1.941037 
1553.000000	1.946091 
1552.000000	1.950693 
1551.000000	1.954436 
1550.000000	1.957058 
1549.000000	1.958489 
1548.000000	1.958870 
1547.000000	1.958560 
1546.000000	1.957988 
1545.000000	1.957774 
1544.000000	1.958584 
1543.000000	1.960992 
1542.000000	1.965451 
1541.000000	1.972270 
1540.000000	1.981401 
1539.000000	1.992654 
1538.000000	2.005577 
1537.000000	2.019524 
1536.000000	2.033853 
1535.000000	2.047896 
1534.000000	2.061080 
1533.000000	2.072906 
1532.000000	2.083134 
1531.000000	2.091670 
1530.000000	2.098560 
1529.000000	2.103805 
1528.000000	2.107572 
1527.000000	2.110171 
1526.000000	2.111768 
1525.000000	2.112555 
1524.000000	2.112746 
1523.000000	2.112555 
1522.000000	2.112126 
1521.000000	2.111506 
1520.000000	2.110719 
1519.000000	2.109742 
1518.000000	2.108502 
1517.000000	2.106952 
1516.000000	2.104973 
1515.000000	2.102398 
1514.000000	2.099156 
1513.000000	2.095174 
1512.000000	2.090430 
1511.000000	2.084755 
1510.000000	2.078247 
1509.000000	2.070498 
1508.000000	2.061223 
1507.000000	2.049708 
1506.000000	2.035188 
1505.000000	2.016758 
1504.000000	1.993584 
1503.000000	1.965093 
1502.000000	1.931285 
1501.000000	1.892852 
1500.000000	1.851224 
1499.000000	1.808571 
1498.000000	1.767539 
1497.000000	1.730942 
1496.000000	1.701521 
1495.000000	1.681256 
1494.000000	1.671481 
1493.000000	1.672315 
1492.000000	1.683235 
1491.000000	1.702523 
1490.000000	1.728177 
1489.000000	1.757812 
1488.000000	1.789379 
1487.000000	1.820707 
1486.000000	1.850342 
1485.000000	1.877140 
1484.000000	1.900577 
1483.000000	1.920294 
1482.000000	1.936364 
1481.000000	1.949048 
1480.000000	1.958584 
1479.000000	1.965498 
1478.000000	1.970219 
1477.000000	1.973271 
1476.000000	1.974964 
1475.000000	1.975703 
1474.000000	1.975846 
1473.000000	1.975464 
1472.000000	1.974582 
1471.000000	1.973271 
1470.000000	1.971387 
1469.000000	1.968717 
1468.000000	1.965117 
1467.000000	1.960444 
1466.000000	1.954483 
1465.000000	1.946926 
1464.000000	1.937580 
1463.000000	1.926326 
1462.000000	1.913046 
1461.000000	1.897692 
1460.000000	1.880478 
1459.000000	1.861715 
1458.000000	1.842093 
1457.000000	1.822543 
1456.000000	1.803970 
1455.000000	1.787424 
1454.000000	1.773953 
1453.000000	1.764464 
1452.000000	1.759409 
1451.000000	1.758933 
1450.000000	1.762843 
1449.000000	1.770520 
1448.000000	1.781034 
1447.000000	1.793265 
1446.000000	1.806092 
1445.000000	1.818561 
1444.000000	1.829862 
1443.000000	1.839447 
1442.000000	1.847124 
1441.000000	1.853013 
1440.000000	1.857256 
1439.000000	1.860284 
1438.000000	1.862406 
1437.000000	1.864027 
1436.000000	1.865363 
1435.000000	1.866579 
1434.000000	1.867675 
1433.000000	1.868724 
1432.000000	1.869678 
1431.000000	1.870441 
1430.000000	1.870918 
1429.000000	1.871109 
1428.000000	1.870942 
1427.000000	1.870346 
1426.000000	1.869273 
1425.000000	1.867723 
1424.000000	1.865863 
1423.000000	1.863622 
1422.000000	1.861143 
1421.000000	1.858592 
1420.000000	1.855945 
1419.000000	1.853251 
1418.000000	1.850390 
1417.000000	1.847147 
1416.000000	1.843237 
1415.000000	1.838326 
1414.000000	1.832199 
1413.000000	1.824569 
1412.000000	1.815390 
1411.000000	1.804709 
1410.000000	1.792812 
1409.000000	1.780223 
1408.000000	1.767563 
1407.000000	1.755523 
1406.000000	1.744842 
1405.000000	1.736164 
1404.000000	1.729965 
1403.000000	1.726603 
1402.000000	1.726102 
1401.000000	1.728320 
1400.000000	1.732897 
1399.000000	1.739382 
1398.000000	1.747179 
1397.000000	1.755666 
1396.000000	1.764202 
1395.000000	1.772189 
1394.000000	1.779127 
1393.000000	1.784634 
1392.000000	1.788401 
1391.000000	1.790428 
1390.000000	1.790881 
1389.000000	1.790094 
1388.000000	1.788520 
1387.000000	1.786756 
1386.000000	1.785326 
1385.000000	1.784753 
1384.000000	1.785278 
1383.000000	1.786923 
1382.000000	1.789641 
1381.000000	1.793050 
1380.000000	1.796817 
1379.000000	1.800537 
1378.000000	1.804018 
1377.000000	1.807069 
1376.000000	1.809620 
1375.000000	1.811742 
1374.000000	1.813483 
1373.000000	1.815032 
1372.000000	1.816368 
1371.000000	1.817536 
1370.000000	1.818490 
1369.000000	1.819205 
1368.000000	1.819610 
1367.000000	1.819705 
1366.000000	1.819515 
1365.000000	1.819133 
1364.000000	1.818609 
1363.000000	1.818084 
1362.000000	1.817512 
1361.000000	1.817011 
1360.000000	1.816558 
1359.000000	1.816177 
1358.000000	1.815819 
1357.000000	1.815509 
1356.000000	1.815223 
1355.000000	1.814985 
1354.000000	1.814770 
1353.000000	1.814627 
1352.000000	1.814556 
1351.000000	1.814556 
1350.000000	1.814627 
1349.000000	1.814770 
1348.000000	1.814985 
1347.000000	1.815176 
1346.000000	1.815366 
1345.000000	1.815581 
1344.000000	1.815819 
1343.000000	1.816129 
1342.000000	1.816558 
1341.000000	1.817226 
1340.000000	1.818203 
1339.000000	1.819515 
1338.000000	1.821255 
1337.000000	1.823401 
1336.000000	1.825928 
1335.000000	1.828765 
1334.000000	1.831769 
1333.000000	1.834869 
1332.000000	1.837825 
1331.000000	1.840615 
1330.000000	1.843118 
1329.000000	1.845240 
1328.000000	1.847028 
1327.000000	1.848506 
1326.000000	1.849651 
1325.000000	1.850652 
1324.000000	1.851487 
1323.000000	1.852226 
1322.000000	1.852893 
1321.000000	1.853561 
1320.000000	1.854157 
1319.000000	1.854729 
1318.000000	1.855230 
1317.000000	1.855659 
1316.000000	1.855993 
1315.000000	1.856255 
1314.000000	1.856422 
1313.000000	1.856470 
1312.000000	1.856422 
1311.000000	1.856279 
1310.000000	1.856064 
1309.000000	1.855802 
1308.000000	1.855516 
1307.000000	1.855254 
1306.000000	1.855111 
1305.000000	1.855063 
1304.000000	1.855111 
1303.000000	1.855325 
1302.000000	1.855611 
1301.000000	1.855921 
1300.000000	1.856207 
1299.000000	1.856493 
1298.000000	1.856684 
1297.000000	1.856708 
1296.000000	1.856589 
1295.000000	1.856374 
1294.000000	1.856088 
1293.000000	1.855754 
1292.000000	1.855397 
1291.000000	1.855087 
1290.000000	1.854872 
1289.000000	1.854705 
1288.000000	1.854515 
1287.000000	1.854276 
1286.000000	1.853966 
1285.000000	1.853442 
1284.000000	1.852655 
1283.000000	1.851534 
1282.000000	1.850032 
1281.000000	1.848173 
1280.000000	1.845860 
1279.000000	1.843118 
1278.000000	1.839900 
1277.000000	1.836156 
1276.000000	1.831722 
1275.000000	1.826500 
1274.000000	1.820397 
1273.000000	1.813244 
1272.000000	1.804924 
1271.000000	1.795387 
1270.000000	1.784825 
1269.000000	1.773357 
1268.000000	1.761436 
1267.000000	1.749563 
1266.000000	1.738381 
1265.000000	1.728534 
1264.000000	1.720738 
1263.000000	1.715469 
1262.000000	1.713156 
1261.000000	1.713943 
1260.000000	1.717829 
1259.000000	1.724433 
1258.000000	1.733231 
1257.000000	1.743578 
1256.000000	1.754808 
1255.000000	1.766228 
1254.000000	1.777219 
1253.000000	1.787352 
1252.000000	1.796317 
1251.000000	1.804018 
1250.000000	1.810479 
1249.000000	1.815748 
1248.000000	1.820015 
1247.000000	1.823449 
1246.000000	1.826214 
1245.000000	1.828408 
1244.000000	1.830101 
1243.000000	1.831388 
1242.000000	1.832318 
1241.000000	1.832866 
1240.000000	1.833128 
1239.000000	1.833105 
1238.000000	1.832890 
1237.000000	1.832389 
1236.000000	1.831674 
1235.000000	1.830792 
1234.000000	1.829695 
1233.000000	1.828432 
1232.000000	1.827025 
1231.000000	1.825451 
1230.000000	1.823806 
1229.000000	1.822090 
1228.000000	1.820254 
1227.000000	1.818370 
1226.000000	1.816344 
1225.000000	1.814174 
1224.000000	1.811718 
1223.000000	1.808881 
1222.000000	1.805663 
1221.000000	1.801967 
1220.000000	1.797819 
1219.000000	1.793289 
1218.000000	1.788401 
1217.000000	1.783323 
1216.000000	1.778101 
1215.000000	1.772999 
1214.000000	1.768040 
1213.000000	1.763463 
1212.000000	1.759314 
1211.000000	1.755690 
1210.000000	1.752662 
1209.000000	1.750254 
1208.000000	1.748442 
1207.000000	1.747179 
1206.000000	1.746392 
1205.000000	1.745963 
1204.000000	1.745748 
1203.000000	1.745653 
1202.000000	1.745605 
1201.000000	1.745510 
1200.000000	1.745390 
1199.000000	1.745176 
1198.000000	1.744866 
1197.000000	1.744413 
1196.000000	1.743769 
1195.000000	1.743006 
1194.000000	1.742005 
1193.000000	1.740813 
1192.000000	1.739478 
1191.000000	1.737999 
1190.000000	1.736402 
1189.000000	1.734662 
1188.000000	1.732778 
1187.000000	1.730751 
1186.000000	1.728534 
1185.000000	1.726078 
1184.000000	1.723432 
1183.000000	1.720523 
1182.000000	1.717400 
1181.000000	1.714086 
1180.000000	1.710700 
1179.000000	1.707267 
1178.000000	1.703858 
1177.000000	1.700472 
1176.000000	1.697134 
1175.000000	1.693797 
1174.000000	1.690411 
1173.000000	1.686906 
1172.000000	1.683282 
1171.000000	1.679444 
1170.000000	1.675415 
1169.000000	1.671218 
1168.000000	1.666831 
1167.000000	1.662278 
1166.000000	1.657581 
1165.000000	1.652812 
1164.000000	1.647996 
1163.000000	1.643180 
1162.000000	1.638412 
1161.000000	1.633858 
1160.000000	1.629567 
1159.000000	1.625633 
1158.000000	1.622056 
1157.000000	1.618885 
1156.000000	1.616144 
1155.000000	1.613807 
1154.000000	1.611828 
1153.000000	1.610159 
1152.000000	1.608705 
1151.000000	1.607346 
1150.000000	1.606082 
1149.000000	1.604771 
1148.000000	1.603364 
1147.000000	1.601839 
1146.000000	1.600146 
1145.000000	1.598262 
1144.000000	1.596260 
1143.000000	1.594066 
1142.000000	1.591730 
1141.000000	1.589155 
1140.000000	1.586389 
1139.000000	1.583385 
1138.000000	1.580190 
1137.000000	1.576733 
1136.000000	1.573061 
1135.000000	1.569223 
1134.000000	1.565217 
1133.000000	1.561045 
1132.000000	1.556849 
1131.000000	1.552534 
1130.000000	1.548171 
1129.000000	1.543736 
1128.000000	1.539230 
1127.000000	1.534628 
1126.000000	1.529979 
1125.000000	1.525235 
1124.000000	1.520347 
1123.000000	1.515364 
1122.000000	1.510286 
1121.000000	1.505064 
1120.000000	1.499772 
1119.000000	1.494431 
1118.000000	1.489043 
1117.000000	1.483654 
1116.000000	1.478290 
1115.000000	1.473093 
1114.000000	1.468038 
1113.000000	1.463103 
1112.000000	1.458358 
1111.000000	1.453804 
1110.000000	1.449370 
1109.000000	1.445174 
1108.000000	1.441264 
1107.000000	1.437640 
1106.000000	1.434397 
1105.000000	1.431560 
1104.000000	1.429152 
1103.000000	1.427078 
1102.000000	1.425337 
1101.000000	1.423859 
1100.000000	1.422619 
1099.000000	1.421570 
1098.000000	1.420736 
1097.000000	1.420092 
1096.000000	1.419711 
1095.000000	1.419591 
1094.000000	1.419711 
1093.000000	1.420044 
1092.000000	1.420569 
1091.000000	1.421236 
1090.000000	1.421904 
1089.000000	1.422572 
1088.000000	1.423168 
1087.000000	1.423692 
1086.000000	1.424121 
1085.000000	1.424407 
1084.000000	1.424622 
1083.000000	1.424789 
1082.000000	1.424956 
1081.000000	1.425147 
1080.000000	1.425361 
1079.000000	1.425719 
1078.000000	1.426243 
1077.000000	1.426982 
1076.000000	1.427960 
1075.000000	1.429128 
1074.000000	1.430511 
1073.000000	1.432037 
1072.000000	1.433658 
1071.000000	1.435256 
1070.000000	1.436805 
1069.000000	1.438188 
1068.000000	1.439285 
1067.000000	1.440072 
1066.000000	1.440429 
1065.000000	1.440262 
1064.000000	1.439332 
1063.000000	1.437449 
1062.000000	1.434302 
1061.000000	1.429533 
1060.000000	1.422715 
1059.000000	1.413583 
1058.000000	1.401948 
1057.000000	1.388049 
1056.000000	1.372408 
1055.000000	1.355791 
1054.000000	1.339387 
1053.000000	1.324462 
1052.000000	1.312351 
1051.000000	1.304078 
1050.000000	1.300263 
1049.000000	1.301026 
1048.000000	1.306056 
1047.000000	1.314449 
1046.000000	1.325178 
1045.000000	1.336956 
1044.000000	1.348638 
1043.000000	1.359319 
1042.000000	1.368308 
1041.000000	1.375317 
1040.000000	1.380300 
1039.000000	1.383399 
1038.000000	1.384925 
1037.000000	1.385116 
1036.000000	1.384353 
1035.000000	1.382875 
1034.000000	1.380944 
1033.000000	1.378679 
1032.000000	1.376342 
1031.000000	1.373934 
1030.000000	1.371598 
1029.000000	1.369357 
1028.000000	1.367187 
1027.000000	1.365137 
1026.000000	1.363205 
1025.000000	1.361346 
1024.000000	1.359677 
1023.000000	1.358246 
1022.000000	1.357150 
1021.000000	1.356482 
1020.000000	1.356363 
1019.000000	1.356863 
1018.000000	1.357984 
1017.000000	1.359772 
1016.000000	1.362109 
1015.000000	1.364874 
1014.000000	1.367974 
1013.000000	1.371335 
1012.000000	1.374769 
1011.000000	1.378202 
1010.000000	1.381587 
1009.000000	1.384830 
1008.000000	1.387882 
1007.000000	1.390719 
1006.000000	1.393294 
1005.000000	1.395583 
1004.000000	1.397562 
1003.000000	1.399183 
1002.000000	1.400470 
1001.000000	1.401448 
1000.000000	1.402187 
999.000000	 1.402711 
998.000000	 1.403069 
997.000000	 1.403188 
996.000000	 1.403045 
995.000000	 1.402616 
994.000000	 1.401758 
993.000000	 1.400423 
992.000000	 1.398563 
991.000000	 1.396203 
990.000000	 1.393437 
989.000000	 1.390385 
988.000000	 1.387214 
987.000000	 1.384186 
986.000000	 1.381421 
985.000000	 1.379060 
984.000000	 1.377177 
983.000000	 1.375746 
982.000000	 1.374721 
981.000000	 1.373863 
980.000000	 1.373076 
979.000000	 1.372122 
978.000000	 1.370954 
977.000000	 1.369428 
976.000000	 1.367497 
975.000000	 1.365208 
974.000000	 1.362633 
973.000000	 1.359796 
972.000000	 1.356887 
971.000000	 1.353883 
970.000000	 1.350879 
969.000000	 1.347827 
968.000000	 1.344847 
967.000000	 1.341795 
966.000000	 1.338815 
965.000000	 1.335740 
964.000000	 1.332592 
963.000000	 1.329350 
962.000000	 1.326060 
961.000000	 1.322603 
960.000000	 1.318955 
959.000000	 1.315116 
958.000000	 1.311063 
957.000000	 1.306819 
956.000000	 1.302409 
955.000000	 1.297974 
954.000000	 1.293540 
953.000000	 1.289296 
952.000000	 1.285338 
951.000000	 1.281738 
950.000000	 1.278471 
949.000000	 1.275563 
948.000000	 1.273036 
947.000000	 1.270794 
946.000000	 1.268815 
945.000000	 1.267027 
944.000000	 1.265430 
943.000000	 1.263999 
942.000000	 1.262688 
941.000000	 1.261448 
940.000000	 1.260161 
939.000000	 1.258778 
938.000000	 1.257157 
937.000000	 1.255321 
936.000000	 1.253199 
935.000000	 1.250863 
934.000000	 1.248335 
933.000000	 1.245737 
932.000000	 1.243209 
931.000000	 1.240825 
930.000000	 1.238632 
929.000000	 1.236629 
928.000000	 1.234745 
927.000000	 1.232862 
926.000000	 1.230978 
925.000000	 1.228928 
924.000000	 1.226687 
923.000000	 1.224207 
922.000000	 1.221466 
921.000000	 1.218438 
920.000000	 1.215171 
919.000000	 1.211667 
918.000000	 1.207947 
917.000000	 1.204013 
916.000000	 1.199960 
915.000000	 1.195836 
914.000000	 1.191663 
913.000000	 1.187586 
912.000000	 1.183652 
911.000000	 1.179862 
910.000000	 1.176285 
909.000000	 1.172971 
908.000000	 1.169896 
907.000000	 1.167035 
906.000000	 1.164436 
905.000000	 1.162052 
904.000000	 1.159906 
903.000000	 1.157999 
902.000000	 1.156306 
901.000000	 1.154851 
900.000000	 1.153492 
899.000000	 1.152253 
898.000000	 1.150965 
897.000000	 1.149559 
896.000000	 1.147961 
895.000000	 1.146101 
894.000000	 1.143860 
893.000000	 1.141190 
892.000000	 1.138019 
891.000000	 1.134181 
890.000000	 1.129651 
889.000000	 1.124334 
888.000000	 1.118206 
887.000000	 1.111149 
886.000000	 1.103305 
885.000000	 1.094675 
884.000000	 1.085543 
883.000000	 1.076126 
882.000000	 1.066684 
881.000000	 1.057600 
880.000000	 1.049256 
879.000000	 1.041936 
878.000000	 1.035976 
877.000000	 1.031661 
876.000000	 1.029133 
875.000000	 1.028490 
874.000000	 1.029658 
873.000000	 1.032543 
872.000000	 1.036858 
871.000000	 1.042270 
870.000000	 1.048398 
869.000000	 1.054835 
868.000000	 1.061272 
867.000000	 1.067399 
866.000000	 1.072931 
865.000000	 1.077747 
864.000000	 1.081824 
863.000000	 1.085209 
862.000000	 1.087880 
861.000000	 1.089882 
860.000000	 1.091313 
859.000000	 1.092219 
858.000000	 1.092648 
857.000000	 1.092624 
856.000000	 1.092171 
855.000000	 1.091337 
854.000000	 1.090240 
853.000000	 1.088905 
852.000000	 1.087403 
851.000000	 1.085782 
850.000000	 1.084160 
849.000000	 1.082563 
848.000000	 1.080965 
847.000000	 1.079392 
846.000000	 1.077795 
845.000000	 1.076126 
844.000000	 1.074242 
843.000000	 1.071977 
842.000000	 1.069211 
841.000000	 1.065659 
840.000000	 1.061010 
839.000000	 1.055121 
838.000000	 1.047658 
837.000000	 1.038360 
836.000000	 1.027083 
835.000000	 1.013731 
834.000000	 0.998282 
833.000000	 0.980997 
832.000000	 0.962185 
831.000000	 0.942373 
830.000000	 0.922322 
829.000000	 0.902891 
828.000000	 0.885057 
827.000000	 0.869774 
826.000000	 0.857877 
825.000000	 0.850057 
824.000000	 0.846672 
823.000000	 0.847721 
822.000000	 0.852799 
821.000000	 0.861263 
820.000000	 0.872135 
819.000000	 0.884437 
818.000000	 0.897073 
817.000000	 0.909185 
816.000000	 0.920057 
815.000000	 0.929236 
814.000000	 0.936603 
813.000000	 0.942063 
812.000000	 0.945878 
811.000000	 0.948262 
810.000000	 0.949478 
809.000000	 0.949811 
808.000000	 0.949549 
807.000000	 0.948953 
806.000000	 0.948143 
805.000000	 0.947284 
804.000000	 0.946497 
803.000000	 0.945973 
802.000000	 0.945711 
801.000000	 0.945758 
800.000000	 0.946164 
799.000000	 0.946974 
798.000000	 0.948119 
797.000000	 0.949549 
796.000000	 0.951242 
795.000000	 0.953197 
794.000000	 0.955367 
793.000000	 0.957655 
792.000000	 0.960063 
791.000000	 0.962495 
790.000000	 0.964927 
789.000000	 0.967288 
788.000000	 0.969481 
787.000000	 0.971484 
786.000000	 0.973224 
785.000000	 0.974702 
784.000000	 0.975894 
783.000000	 0.976705 
782.000000	 0.977253 
781.000000	 0.977563 
780.000000	 0.977635 
779.000000	 0.977635 
778.000000	 0.977492 
777.000000	 0.977325 
776.000000	 0.977134 
775.000000	 0.976920 
774.000000	 0.976705 
773.000000	 0.976395 
772.000000	 0.975990 
771.000000	 0.975489 
770.000000	 0.974822 
769.000000	 0.973963 
768.000000	 0.972938 
767.000000	 0.971794 
766.000000	 0.970530 
765.000000	 0.969219 
764.000000	 0.967931 
763.000000	 0.966763 
762.000000	 0.965738 
761.000000	 0.964951 
760.000000	 0.964331 
759.000000	 0.963878 
758.000000	 0.963568 
757.000000	 0.963258 
756.000000	 0.962901 
755.000000	 0.962424 
754.000000	 0.961709 
753.000000	 0.960803 
752.000000	 0.959563 
751.000000	 0.958132 
750.000000	 0.956439 
749.000000	 0.954556 
748.000000	 0.952458 
747.000000	 0.950217 
746.000000	 0.947856 
745.000000	 0.945401 
744.000000	 0.942945 
743.000000	 0.940465 
742.000000	 0.938010 
741.000000	 0.935602 
740.000000	 0.933265 
739.000000	 0.930929 
738.000000	 0.928568 
737.000000	 0.926208 
736.000000	 0.923752 
735.000000	 0.921201 
734.000000	 0.918555 
733.000000	 0.915741 
732.000000	 0.912904 
731.000000	 0.910043 
730.000000	 0.907158 
729.000000	 0.904321 
728.000000	 0.901484 
727.000000	 0.898718 
726.000000	 0.895977 
725.000000	 0.893211 
724.000000	 0.890445 
723.000000	 0.887632 
722.000000	 0.884795 
721.000000	 0.881934 
720.000000	 0.879120 
719.000000	 0.876331 
718.000000	 0.873565 
717.000000	 0.870847 
716.000000	 0.868105 
715.000000	 0.865364 
714.000000	 0.862503 
713.000000	 0.859475 
712.000000	 0.856304 
711.000000	 0.852942 
710.000000	 0.849390 
709.000000	 0.845670 
708.000000	 0.841903 
707.000000	 0.838088 
706.000000	 0.834274 
705.000000	 0.830459 
704.000000	 0.826716 
703.000000	 0.822997 
702.000000	 0.819253 
701.000000	 0.815463 
700.000000	 0.811553 
699.000000	 0.807380 
698.000000	 0.802826 
697.000000	 0.797724 
696.000000	 0.791954 
695.000000	 0.785470 
694.000000	 0.778341 
693.000000	 0.770664 
692.000000	 0.762772 
691.000000	 0.755000 
690.000000	 0.747823 
689.000000	 0.741577 
688.000000	 0.736618 
687.000000	 0.733137 
686.000000	 0.731158 
685.000000	 0.730490 
684.000000	 0.730872 
683.000000	 0.731897 
682.000000	 0.733232 
681.000000	 0.734543 
680.000000	 0.735545 
679.000000	 0.736141 
678.000000	 0.736236 
677.000000	 0.735759 
676.000000	 0.734806 
675.000000	 0.733399 
674.000000	 0.731587 
673.000000	 0.729417 
672.000000	 0.726938 
671.000000	 0.724244 
670.000000	 0.721406 
669.000000	 0.718545 
668.000000	 0.715756 
667.000000	 0.713133 
666.000000	 0.710678 
665.000000	 0.708413 
664.000000	 0.706338 
663.000000	 0.704360 
662.000000	 0.702404 
661.000000	 0.700426 
660.000000	 0.698375 
659.000000	 0.696206 
658.000000	 0.693917 
657.000000	 0.691509 
656.000000	 0.688982 
655.000000	 0.686407 
654.000000	 0.683784 
653.000000	 0.681114 
652.000000	 0.678372 
651.000000	 0.675582 
650.000000	 0.672745 
649.000000	 0.669884 
648.000000	 0.666975 
647.000000	 0.664067 
646.000000	 0.661253 
645.000000	 0.658535 
644.000000	 0.655984 
643.000000	 0.653553 
642.000000	 0.651192 
641.000000	 0.648903 
640.000000	 0.646567 
639.000000	 0.644159 
638.000000	 0.641608 
637.000000	 0.638866 
636.000000	 0.635981 
635.000000	 0.633025 
634.000000	 0.630044 
633.000000	 0.627112 
632.000000	 0.624227 
631.000000	 0.621438 
630.000000	 0.618767 
629.000000	 0.616121 
628.000000	 0.613498 
627.000000	 0.610804 
626.000000	 0.608062 
625.000000	 0.605273 
624.000000	 0.602412 
623.000000	 0.599479 
622.000000	 0.596547 
621.000000	 0.593638 
620.000000	 0.590682 
619.000000	 0.587701 
618.000000	 0.584554 
617.000000	 0.581192 
616.000000	 0.577497 
615.000000	 0.573396 
614.000000	 0.568795 
613.000000	 0.563740 
612.000000	 0.558304 
611.000000	 0.552606 
610.000000	 0.546932 
609.000000	 0.541448 
608.000000	 0.536417 
607.000000	 0.532031 
606.000000	 0.528407 
605.000000	 0.525593 
604.000000	 0.523662 
603.000000	 0.522446 
602.000000	 0.521850 
601.000000	 0.521731 
600.000000	 0.521850 
599.000000	 0.522017 
598.000000	 0.522136 
597.000000	 0.522136 
596.000000	 0.521850 
595.000000	 0.521326 
594.000000	 0.520563 
593.000000	 0.519537 
592.000000	 0.518345 
591.000000	 0.516986 
590.000000	 0.515627 
589.000000	 0.514221 
588.000000	 0.512814 
587.000000	 0.511479 
586.000000	 0.510215 
585.000000	 0.509023 
584.000000	 0.507926 
583.000000	 0.506901 
582.000000	 0.505924 
581.000000	 0.504994 
580.000000	 0.504064 
579.000000	 0.503134 
578.000000	 0.502181 
577.000000	 0.501179 
576.000000	 0.500178 
575.000000	 0.499176 
574.000000	 0.498127 
573.000000	 0.497102 
572.000000	 0.496053 
571.000000	 0.494956 
570.000000	 0.493860 
569.000000	 0.492715 
568.000000	 0.491547 
567.000000	 0.490355 
566.000000	 0.489115 
565.000000	 0.487804 
564.000000	 0.486445 
563.000000	 0.485038 
562.000000	 0.483536 
561.000000	 0.481986 
560.000000	 0.480365 
559.000000	 0.478696 
558.000000	 0.476956 
557.000000	 0.475144 
556.000000	 0.473284 
555.000000	 0.471377 
554.000000	 0.469374 
553.000000	 0.467324 
552.000000	 0.465250 
551.000000	 0.463151 
550.000000	 0.461125 
549.000000	 0.459146 
548.000000	 0.457191 
547.000000	 0.455379 
546.000000	 0.453639 
545.000000	 0.451946 
544.000000	 0.450301 
543.000000	 0.448679 
542.000000	 0.447058 
541.000000	 0.445389 
540.000000	 0.443696 
539.000000	 0.441980 
538.000000	 0.440168 
537.000000	 0.438332 
536.000000	 0.436449 
535.000000	 0.434517 
534.000000	 0.432538 
533.000000	 0.430464 
532.000000	 0.428318 
531.000000	 0.426077 
530.000000	 0.423693 
529.000000	 0.421237 
528.000000	 0.418639 
527.000000	 0.416016 
526.000000	 0.413298 
525.000000	 0.410628 
524.000000	 0.407981 
523.000000	 0.405430 
522.000000	 0.402951 
521.000000	 0.400590 
520.000000	 0.398302 
519.000000	 0.396108 
518.000000	 0.393939 
517.000000	 0.391793 
516.000000	 0.389623 
515.000000	 0.387430 
514.000000	 0.385165 
513.000000	 0.382804 
512.000000	 0.380373 
511.000000	 0.377941 
510.000000	 0.375437 
509.000000	 0.372838 
508.000000	 0.370216 
507.000000	 0.367569 
506.000000	 0.364899 
505.000000	 0.362133 
504.000000	 0.359320 
503.000000	 0.356459 
502.000000	 0.353527 
501.000000	 0.350546 
500.000000	 0.347518 
499.000000	 0.344443 
498.000000	 0.341296 
497.000000	 0.338053 
496.000000	 0.334692 
495.000000	 0.331187 
494.000000	 0.327587 
493.000000	 0.323843 
492.000000	 0.320100 
491.000000	 0.316286 
490.000000	 0.312447 
489.000000	 0.308609 
488.000000	 0.304794 
487.000000	 0.301027 
486.000000	 0.297284 
485.000000	 0.293517 
484.000000	 0.289773 
483.000000	 0.286030 
482.000000	 0.282359 
481.000000	 0.278663 
480.000000	 0.275063 
479.000000	 0.271558 
478.000000	 0.268220 
477.000000	 0.265002 
476.000000	 0.261902 
475.000000	 0.258970 
474.000000	 0.256133 
473.000000	 0.253391 
472.000000	 0.250673 
471.000000	 0.247931 
470.000000	 0.245141 
469.000000	 0.242209 
468.000000	 0.239157 
467.000000	 0.235962 
466.000000	 0.232672 
465.000000	 0.229191 
464.000000	 0.225663 
463.000000	 0.222086 
462.000000	 0.218510 
461.000000	 0.214934 
460.000000	 0.211358 
459.000000	 0.207805 
458.000000	 0.204253 
457.000000	 0.200676 
456.000000	 0.197124 
455.000000	 0.193500 
454.000000	 0.189924 
453.000000	 0.186419 
452.000000	 0.183010 
451.000000	 0.179719 
450.000000	 0.176644 
449.000000	 0.173759 
448.000000	 0.171041 
447.000000	 0.168490 
446.000000	 0.166058 
445.000000	 0.163650 
444.000000	 0.161242 
443.000000	 0.158762 
442.000000	 0.156188 
441.000000	 0.153470 
440.000000	 0.150656 
439.000000	 0.147700 
438.000000	 0.144553 
437.000000	 0.141334 
436.000000	 0.138020 
435.000000	 0.134634 
434.000000	 0.131201 
433.000000	 0.127816 
432.000000	 0.124526 
431.000000	 0.121331 
430.000000	 0.118303 
429.000000	 0.115442 
428.000000	 0.112700 
427.000000	 0.110077 
426.000000	 0.107479 
425.000000	 0.104880 
424.000000	 0.102233 
423.000000	 0.099492 
422.000000	 0.096631 
421.000000	 0.093674 
420.000000	 0.090670 
419.000000	 0.087642 
418.000000	 0.084662 
417.000000	 0.081801 
416.000000	 0.079059 
415.000000	 0.076460 
414.000000	 0.074005 
413.000000	 0.071644 
412.000000	 0.069308 
411.000000	 0.066995 
410.000000	 0.064682 
409.000000	 0.062322 
408.000000	 0.060009 
407.000000	 0.057768 
406.000000	 0.055718 
405.000000	 0.053787 
404.000000	 0.052070 
403.000000	 0.050473 
402.000000	 0.048875 
401.000000	 0.047183 
400.000000	 0.045204 
399.000000	 0.042915 
398.000000	 0.040268 
397.000000	 0.037240 
396.000000	 0.033974 
395.000000	 0.030612 
394.000000	 0.027346 
393.000000	 0.024294 
392.000000	 0.021624 
391.000000	 0.019431 
390.000000	 0.017690 
389.000000	 0.016403 
388.000000	 0.015497 
387.000000	 0.014948 
386.000000	 0.014615 
385.000000	 0.014424 
384.000000	 0.014257 
383.000000	 0.014090 
382.000000	 0.013828 
381.000000	 0.013422 
380.000000	 0.012874 
379.000000	 0.012254 
378.000000	 0.011539 
377.000000	 0.010824 
376.000000	 0.010180 
375.000000	 0.009679 
374.000000	 0.009250 
373.000000	 0.008940 
372.000000	 0.008678 
371.000000	 0.008416 
370.000000	 0.008106 

