PE IR       SPECTRUM    SPECTRUM    ASCII       PEDS        1.60        
  -1
BZ1204~1.ASC
17/04/10
08:50:16.00
17/04/10
08:50:16.00
tln
$BZ12041010-4_e0026$<ebV0>[-23.0,28.0,5.5,0.0,22,1,0]
370.000000
64









2002,4.07    
MIRTGS : RIGHTBACK : INTERNAL 2
MIR : ON : INTERNAL 2
OPTKBR

0.200000
8
8.000000
FILLER
SINGLE
SPECTRUM
UNLOCKED 256

DOUBLE

COMBINED
1
0
0


1.000000
BACKG


1
0
TRUE
51149
0
LEFT NOT FITTED RIGHT NOT FITTED 0
NONE
NONE
15600
12.000000
4.427000
51148
TRUE
1 0 8 72 0 0 0 0 

15798.010000






#HDR
-1
-1
#GR
CM-1
EGY
0.00002384185791015625
0.0
5000.000000
-1.000000
4631
8
2.464747
0.007033
#DATA
5000.000000	0.778388 
4999.000000	0.778961 
4998.000000	0.779533 
4997.000000	0.780153 
4996.000000	0.780797 
4995.000000	0.781464 
4994.000000	0.782179 
4993.000000	0.782966 
4992.000000	0.783824 
4991.000000	0.784778 
4990.000000	0.785756 
4989.000000	0.786781 
4988.000000	0.787758 
4987.000000	0.788664 
4986.000000	0.789403 
4985.000000	0.789999 
4984.000000	0.790381 
4983.000000	0.790596 
4982.000000	0.790667 
4981.000000	0.790691 
4980.000000	0.790739 
4979.000000	0.790810 
4978.000000	0.791001 
4977.000000	0.791287 
4976.000000	0.791621 
4975.000000	0.791978 
4974.000000	0.792336 
4973.000000	0.792670 
4972.000000	0.792980 
4971.000000	0.793290 
4970.000000	0.793600 
4969.000000	0.793933 
4968.000000	0.794339 
4967.000000	0.794792 
4966.000000	0.795269 
4965.000000	0.795698 
4964.000000	0.796055 
4963.000000	0.796318 
4962.000000	0.796437 
4961.000000	0.796437 
4960.000000	0.796294 
4959.000000	0.796079 
4958.000000	0.795865 
4957.000000	0.795626 
4956.000000	0.795459 
4955.000000	0.795364 
4954.000000	0.795412 
4953.000000	0.795674 
4952.000000	0.796127 
4951.000000	0.796747 
4950.000000	0.797581 
4949.000000	0.798583 
4948.000000	0.799655 
4947.000000	0.800800 
4946.000000	0.801873 
4945.000000	0.802826 
4944.000000	0.803685 
4943.000000	0.804376 
4942.000000	0.804948 
4941.000000	0.805377 
4940.000000	0.805687 
4939.000000	0.805926 
4938.000000	0.806069 
4937.000000	0.806117 
4936.000000	0.806093 
4935.000000	0.806021 
4934.000000	0.805902 
4933.000000	0.805830 
4932.000000	0.805807 
4931.000000	0.805902 
4930.000000	0.806140 
4929.000000	0.806546 
4928.000000	0.807142 
4927.000000	0.807833 
4926.000000	0.808596 
4925.000000	0.809335 
4924.000000	0.810074 
4923.000000	0.810647 
4922.000000	0.811123 
4921.000000	0.811481 
4920.000000	0.811743 
4919.000000	0.811886 
4918.000000	0.812005 
4917.000000	0.812077 
4916.000000	0.812125 
4915.000000	0.812172 
4914.000000	0.812268 
4913.000000	0.812411 
4912.000000	0.812649 
4911.000000	0.812935 
4910.000000	0.813317 
4909.000000	0.813794 
4908.000000	0.814318 
4907.000000	0.814962 
4906.000000	0.815677 
4905.000000	0.816488 
4904.000000	0.817322 
4903.000000	0.818228 
4902.000000	0.819182 
4901.000000	0.820112 
4900.000000	0.820994 
4899.000000	0.821828 
4898.000000	0.822544 
4897.000000	0.823068 
4896.000000	0.823450 
4895.000000	0.823664 
4894.000000	0.823736 
4893.000000	0.823760 
4892.000000	0.823760 
4891.000000	0.823736 
4890.000000	0.823736 
4889.000000	0.823760 
4888.000000	0.823760 
4887.000000	0.823736 
4886.000000	0.823616 
4885.000000	0.823497 
4884.000000	0.823354 
4883.000000	0.823307 
4882.000000	0.823378 
4881.000000	0.823712 
4880.000000	0.824332 
4879.000000	0.825166 
4878.000000	0.826239 
4877.000000	0.827407 
4876.000000	0.828576 
4875.000000	0.829625 
4874.000000	0.830507 
4873.000000	0.831198 
4872.000000	0.831723 
4871.000000	0.832176 
4870.000000	0.832653 
4869.000000	0.833201 
4868.000000	0.833892 
4867.000000	0.834751 
4866.000000	0.835657 
4865.000000	0.836610 
4864.000000	0.837564 
4863.000000	0.838518 
4862.000000	0.839352 
4861.000000	0.840139 
4860.000000	0.840806 
4859.000000	0.841450 
4858.000000	0.841999 
4857.000000	0.842547 
4856.000000	0.843095 
4855.000000	0.843644 
4854.000000	0.844168 
4853.000000	0.844740 
4852.000000	0.845313 
4851.000000	0.846004 
4850.000000	0.846743 
4849.000000	0.847530 
4848.000000	0.848293 
4847.000000	0.849056 
4846.000000	0.849795 
4845.000000	0.850462 
4844.000000	0.851035 
4843.000000	0.851535 
4842.000000	0.851988 
4841.000000	0.852417 
4840.000000	0.852847 
4839.000000	0.853323 
4838.000000	0.853872 
4837.000000	0.854444 
4836.000000	0.855112 
4835.000000	0.855851 
4834.000000	0.856590 
4833.000000	0.857305 
4832.000000	0.857925 
4831.000000	0.858426 
4830.000000	0.858736 
4829.000000	0.858879 
4828.000000	0.858855 
4827.000000	0.858736 
4826.000000	0.858545 
4825.000000	0.858354 
4824.000000	0.858211 
4823.000000	0.858116 
4822.000000	0.858163 
4821.000000	0.858354 
4820.000000	0.858712 
4819.000000	0.859260 
4818.000000	0.859999 
4817.000000	0.860929 
4816.000000	0.862050 
4815.000000	0.863361 
4814.000000	0.864815 
4813.000000	0.866341 
4812.000000	0.867891 
4811.000000	0.869369 
4810.000000	0.870680 
4809.000000	0.871777 
4808.000000	0.872611 
4807.000000	0.873255 
4806.000000	0.873637 
4805.000000	0.873851 
4804.000000	0.873875 
4803.000000	0.873851 
4802.000000	0.873851 
4801.000000	0.873875 
4800.000000	0.874066 
4799.000000	0.874423 
4798.000000	0.875067 
4797.000000	0.875902 
4796.000000	0.876998 
4795.000000	0.878262 
4794.000000	0.879669 
4793.000000	0.881123 
4792.000000	0.882554 
4791.000000	0.883936 
4790.000000	0.885200 
4789.000000	0.886297 
4788.000000	0.887227 
4787.000000	0.888013 
4786.000000	0.888657 
4785.000000	0.889182 
4784.000000	0.889658 
4783.000000	0.890088 
4782.000000	0.890493 
4781.000000	0.890994 
4780.000000	0.891542 
4779.000000	0.892162 
4778.000000	0.892901 
4777.000000	0.893712 
4776.000000	0.894618 
4775.000000	0.895524 
4774.000000	0.896477 
4773.000000	0.897383 
4772.000000	0.898170 
4771.000000	0.898838 
4770.000000	0.899362 
4769.000000	0.899696 
4768.000000	0.899791 
4767.000000	0.899672 
4766.000000	0.899410 
4765.000000	0.898981 
4764.000000	0.898504 
4763.000000	0.897979 
4762.000000	0.897455 
4761.000000	0.896978 
4760.000000	0.896549 
4759.000000	0.896167 
4758.000000	0.895881 
4757.000000	0.895738 
4756.000000	0.895762 
4755.000000	0.896072 
4754.000000	0.896739 
4753.000000	0.897836 
4752.000000	0.899338 
4751.000000	0.901222 
4750.000000	0.903320 
4749.000000	0.905466 
4748.000000	0.907444 
4747.000000	0.909042 
4746.000000	0.910067 
4745.000000	0.910496 
4744.000000	0.910305 
4743.000000	0.909614 
4742.000000	0.908565 
4741.000000	0.907349 
4740.000000	0.906181 
4739.000000	0.905227 
4738.000000	0.904703 
4737.000000	0.904607 
4736.000000	0.905036 
4735.000000	0.905942 
4734.000000	0.907325 
4733.000000	0.909042 
4732.000000	0.910902 
4731.000000	0.912809 
4730.000000	0.914597 
4729.000000	0.916051 
4728.000000	0.917077 
4727.000000	0.917577 
4726.000000	0.917577 
4725.000000	0.916981 
4724.000000	0.915956 
4723.000000	0.914502 
4722.000000	0.912690 
4721.000000	0.910711 
4720.000000	0.908613 
4719.000000	0.906586 
4718.000000	0.904679 
4717.000000	0.903058 
4716.000000	0.901770 
4715.000000	0.900888 
4714.000000	0.900435 
4713.000000	0.900363 
4712.000000	0.900626 
4711.000000	0.901222 
4710.000000	0.902104 
4709.000000	0.903344 
4708.000000	0.904965 
4707.000000	0.907015 
4706.000000	0.909590 
4705.000000	0.912642 
4704.000000	0.916099 
4703.000000	0.919795 
4702.000000	0.923442 
4701.000000	0.926852 
4700.000000	0.929760 
4699.000000	0.931978 
4698.000000	0.933575 
4697.000000	0.934505 
4696.000000	0.934910 
4695.000000	0.934934 
4694.000000	0.934720 
4693.000000	0.934362 
4692.000000	0.933861 
4691.000000	0.933170 
4690.000000	0.932312 
4689.000000	0.931167 
4688.000000	0.929832 
4687.000000	0.928401 
4686.000000	0.927042 
4685.000000	0.925898 
4684.000000	0.925207 
4683.000000	0.925040 
4682.000000	0.925421 
4681.000000	0.926303 
4680.000000	0.927495 
4679.000000	0.928688 
4678.000000	0.929713 
4677.000000	0.930333 
4676.000000	0.930404 
4675.000000	0.929880 
4674.000000	0.928807 
4673.000000	0.927424 
4672.000000	0.925850 
4671.000000	0.924348 
4670.000000	0.923109 
4669.000000	0.922155 
4668.000000	0.921535 
4667.000000	0.921225 
4666.000000	0.921154 
4665.000000	0.921249 
4664.000000	0.921392 
4663.000000	0.921630 
4662.000000	0.921916 
4661.000000	0.922322 
4660.000000	0.922799 
4659.000000	0.923347 
4658.000000	0.923824 
4657.000000	0.924086 
4656.000000	0.923991 
4655.000000	0.923347 
4654.000000	0.922203 
4653.000000	0.920534 
4652.000000	0.918459 
4651.000000	0.916218 
4650.000000	0.914025 
4649.000000	0.912094 
4648.000000	0.910663 
4647.000000	0.909805 
4646.000000	0.909566 
4645.000000	0.909948 
4644.000000	0.910902 
4643.000000	0.912261 
4642.000000	0.913977 
4641.000000	0.915908 
4640.000000	0.917959 
4639.000000	0.919961 
4638.000000	0.921797 
4637.000000	0.923371 
4636.000000	0.924587 
4635.000000	0.925445 
4634.000000	0.925874 
4633.000000	0.925993 
4632.000000	0.925898 
4631.000000	0.925779 
4630.000000	0.925731 
4629.000000	0.925922 
4628.000000	0.926470 
4627.000000	0.927448 
4626.000000	0.928759 
4625.000000	0.930333 
4624.000000	0.932002 
4623.000000	0.933647 
4622.000000	0.935053 
4621.000000	0.936126 
4620.000000	0.936770 
4619.000000	0.937080 
4618.000000	0.937080 
4617.000000	0.936913 
4616.000000	0.936698 
4615.000000	0.936627 
4614.000000	0.936770 
4613.000000	0.937104 
4612.000000	0.937771 
4611.000000	0.938630 
4610.000000	0.939679 
4609.000000	0.940823 
4608.000000	0.942015 
4607.000000	0.943112 
4606.000000	0.944089 
4605.000000	0.944900 
4604.000000	0.945544 
4603.000000	0.946044 
4602.000000	0.946450 
4601.000000	0.946807 
4600.000000	0.947213 
4599.000000	0.947761 
4598.000000	0.948476 
4597.000000	0.949382 
4596.000000	0.950431 
4595.000000	0.951504 
4594.000000	0.952625 
4593.000000	0.953650 
4592.000000	0.954532 
4591.000000	0.955224 
4590.000000	0.955700 
4589.000000	0.956010 
4588.000000	0.956153 
4587.000000	0.956177 
4586.000000	0.956130 
4585.000000	0.956058 
4584.000000	0.956034 
4583.000000	0.956034 
4582.000000	0.956106 
4581.000000	0.956273 
4580.000000	0.956511 
4579.000000	0.956821 
4578.000000	0.957202 
4577.000000	0.957536 
4576.000000	0.957870 
4575.000000	0.958204 
4574.000000	0.958585 
4573.000000	0.959062 
4572.000000	0.959706 
4571.000000	0.960540 
4570.000000	0.961613 
4569.000000	0.962853 
4568.000000	0.964140 
4567.000000	0.965380 
4566.000000	0.966405 
4565.000000	0.967144 
4564.000000	0.967526 
4563.000000	0.967574 
4562.000000	0.967383 
4561.000000	0.967121 
4560.000000	0.966930 
4559.000000	0.966954 
4558.000000	0.967216 
4557.000000	0.967717 
4556.000000	0.968408 
4555.000000	0.969219 
4554.000000	0.970053 
4553.000000	0.970888 
4552.000000	0.971698 
4551.000000	0.972557 
4550.000000	0.973463 
4549.000000	0.974464 
4548.000000	0.975561 
4547.000000	0.976705 
4546.000000	0.977849 
4545.000000	0.978899 
4544.000000	0.979876 
4543.000000	0.980758 
4542.000000	0.981497 
4541.000000	0.982165 
4540.000000	0.982785 
4539.000000	0.983476 
4538.000000	0.984239 
4537.000000	0.985169 
4536.000000	0.986218 
4535.000000	0.987410 
4534.000000	0.988674 
4533.000000	0.989985 
4532.000000	0.991201 
4531.000000	0.992393 
4530.000000	0.993371 
4529.000000	0.994181 
4528.000000	0.994801 
4527.000000	0.995206 
4526.000000	0.995469 
4525.000000	0.995588 
4524.000000	0.995612 
4523.000000	0.995540 
4522.000000	0.995373 
4521.000000	0.995063 
4520.000000	0.994563 
4519.000000	0.993871 
4518.000000	0.992965 
4517.000000	0.991845 
4516.000000	0.990700 
4515.000000	0.989627 
4514.000000	0.988817 
4513.000000	0.988388 
4512.000000	0.988388 
4511.000000	0.988817 
4510.000000	0.989556 
4509.000000	0.990533 
4508.000000	0.991511 
4507.000000	0.992393 
4506.000000	0.993013 
4505.000000	0.993347 
4504.000000	0.993514 
4503.000000	0.993585 
4502.000000	0.993871 
4501.000000	0.994849 
4500.000000	0.996971 
4499.000000	1.000785 
4498.000000	1.006817 
4497.000000	1.015305 
4496.000000	1.026272 
4495.000000	1.039290 
4494.000000	1.053500 
4493.000000	1.067686 
4492.000000	1.080417 
4491.000000	1.090383 
4490.000000	1.096820 
4489.000000	1.099324 
4488.000000	1.098346 
4487.000000	1.094818 
4486.000000	1.090002 
4485.000000	1.085114 
4484.000000	1.081085 
4483.000000	1.078224 
4482.000000	1.076364 
4481.000000	1.074743 
4480.000000	1.072525 
4479.000000	1.068854 
4478.000000	1.063275 
4477.000000	1.055836 
4476.000000	1.047062 
4475.000000	1.037883 
4474.000000	1.029229 
4473.000000	1.022005 
4472.000000	1.016688 
4471.000000	1.013445 
4470.000000	1.012110 
4469.000000	1.012182 
4468.000000	1.013231 
4467.000000	1.014780 
4466.000000	1.016497 
4465.000000	1.018166 
4464.000000	1.019597 
4463.000000	1.020765 
4462.000000	1.021623 
4461.000000	1.022100 
4460.000000	1.022052 
4459.000000	1.021528 
4458.000000	1.020455 
4457.000000	1.018977 
4456.000000	1.017189 
4455.000000	1.015329 
4454.000000	1.013612 
4453.000000	1.012182 
4452.000000	1.011276 
4451.000000	1.010870 
4450.000000	1.011037 
4449.000000	1.011633 
4448.000000	1.012563 
4447.000000	1.013612 
4446.000000	1.014709 
4445.000000	1.015686 
4444.000000	1.016545 
4443.000000	1.017189 
4442.000000	1.017713 
4441.000000	1.018166 
4440.000000	1.018667 
4439.000000	1.019239 
4438.000000	1.019906 
4437.000000	1.020669 
4436.000000	1.021480 
4435.000000	1.022267 
4434.000000	1.022887 
4433.000000	1.023292 
4432.000000	1.023483 
4431.000000	1.023459 
4430.000000	1.023244 
4429.000000	1.022863 
4428.000000	1.022481 
4427.000000	1.022124 
4426.000000	1.021862 
4425.000000	1.021766 
4424.000000	1.021862 
4423.000000	1.022100 
4422.000000	1.022434 
4421.000000	1.022791 
4420.000000	1.023101 
4419.000000	1.023340 
4418.000000	1.023459 
4417.000000	1.023459 
4416.000000	1.023316 
4415.000000	1.023077 
4414.000000	1.022791 
4413.000000	1.022529 
4412.000000	1.022338 
4411.000000	1.022291 
4410.000000	1.022362 
4409.000000	1.022624 
4408.000000	1.023054 
4407.000000	1.023554 
4406.000000	1.024127 
4405.000000	1.024699 
4404.000000	1.025247 
4403.000000	1.025724 
4402.000000	1.026153 
4401.000000	1.026535 
4400.000000	1.026988 
4399.000000	1.027464 
4398.000000	1.028060 
4397.000000	1.028800 
4396.000000	1.029658 
4395.000000	1.030611 
4394.000000	1.031589 
4393.000000	1.032543 
4392.000000	1.033496 
4391.000000	1.034402 
4390.000000	1.035261 
4389.000000	1.036119 
4388.000000	1.036930 
4387.000000	1.037764 
4386.000000	1.038599 
4385.000000	1.039457 
4384.000000	1.040267 
4383.000000	1.041007 
4382.000000	1.041603 
4381.000000	1.042079 
4380.000000	1.042389 
4379.000000	1.042556 
4378.000000	1.042580 
4377.000000	1.042509 
4376.000000	1.042413 
4375.000000	1.042366 
4374.000000	1.042413 
4373.000000	1.042652 
4372.000000	1.043105 
4371.000000	1.043820 
4370.000000	1.044750 
4369.000000	1.045846 
4368.000000	1.047086 
4367.000000	1.048421 
4366.000000	1.049757 
4365.000000	1.051092 
4364.000000	1.052403 
4363.000000	1.053667 
4362.000000	1.054906 
4361.000000	1.056122 
4360.000000	1.057291 
4359.000000	1.058411 
4358.000000	1.059508 
4357.000000	1.060533 
4356.000000	1.061439 
4355.000000	1.062297 
4354.000000	1.063132 
4353.000000	1.063966 
4352.000000	1.064825 
4351.000000	1.065707 
4350.000000	1.066684 
4349.000000	1.067662 
4348.000000	1.068615 
4347.000000	1.069498 
4346.000000	1.070261 
4345.000000	1.070880 
4344.000000	1.071357 
4343.000000	1.071739 
4342.000000	1.072120 
4341.000000	1.072573 
4340.000000	1.073145 
4339.000000	1.073956 
4338.000000	1.074934 
4337.000000	1.076078 
4336.000000	1.077389 
4335.000000	1.078796 
4334.000000	1.080226 
4333.000000	1.081681 
4332.000000	1.083159 
4331.000000	1.084661 
4330.000000	1.086282 
4329.000000	1.087999 
4328.000000	1.089835 
4327.000000	1.091790 
4326.000000	1.093769 
4325.000000	1.095795 
4324.000000	1.097774 
4323.000000	1.099658 
4322.000000	1.101422 
4321.000000	1.102995 
4320.000000	1.104402 
4319.000000	1.105618 
4318.000000	1.106667 
4317.000000	1.107525 
4316.000000	1.108288 
4315.000000	1.108956 
4314.000000	1.109600 
4313.000000	1.110291 
4312.000000	1.111125 
4311.000000	1.112151 
4310.000000	1.113414 
4309.000000	1.114821 
4308.000000	1.116394 
4307.000000	1.117944 
4306.000000	1.119446 
4305.000000	1.120805 
4304.000000	1.121926 
4303.000000	1.122856 
4302.000000	1.123595 
4301.000000	1.124215 
4300.000000	1.124882 
4299.000000	1.125621 
4298.000000	1.126551 
4297.000000	1.127672 
4296.000000	1.129031 
4295.000000	1.130557 
4294.000000	1.132273 
4293.000000	1.134109 
4292.000000	1.135993 
4291.000000	1.137876 
4290.000000	1.139664 
4289.000000	1.141309 
4288.000000	1.142811 
4287.000000	1.144075 
4286.000000	1.145172 
4285.000000	1.146030 
4284.000000	1.146721 
4283.000000	1.147294 
4282.000000	1.147770 
4281.000000	1.148271 
4280.000000	1.148796 
4279.000000	1.149392 
4278.000000	1.150107 
4277.000000	1.150941 
4276.000000	1.151871 
4275.000000	1.152920 
4274.000000	1.154088 
4273.000000	1.155328 
4272.000000	1.156616 
4271.000000	1.157975 
4270.000000	1.159358 
4269.000000	1.160740 
4268.000000	1.162123 
4267.000000	1.163458 
4266.000000	1.164674 
4265.000000	1.165843 
4264.000000	1.166844 
4263.000000	1.167798 
4262.000000	1.168704 
4261.000000	1.169562 
4260.000000	1.170444 
4259.000000	1.171302 
4258.000000	1.172113 
4257.000000	1.172876 
4256.000000	1.173520 
4255.000000	1.174044 
4254.000000	1.174402 
4253.000000	1.174640 
4252.000000	1.174831 
4251.000000	1.174998 
4250.000000	1.175236 
4249.000000	1.175570 
4248.000000	1.176047 
4247.000000	1.176691 
4246.000000	1.177406 
4245.000000	1.178216 
4244.000000	1.179027 
4243.000000	1.179814 
4242.000000	1.180505 
4241.000000	1.181173 
4240.000000	1.181840 
4239.000000	1.182556 
4238.000000	1.183390 
4237.000000	1.184368 
4236.000000	1.185512 
4235.000000	1.186800 
4234.000000	1.188158 
4233.000000	1.189589 
4232.000000	1.190972 
4231.000000	1.192259 
4230.000000	1.193451 
4229.000000	1.194453 
4228.000000	1.195311 
4227.000000	1.195979 
4226.000000	1.196503 
4225.000000	1.196837 
4224.000000	1.197028 
4223.000000	1.197075 
4222.000000	1.197052 
4221.000000	1.197004 
4220.000000	1.197028 
4219.000000	1.197195 
4218.000000	1.197576 
4217.000000	1.198172 
4216.000000	1.198959 
4215.000000	1.199889 
4214.000000	1.200914 
4213.000000	1.201891 
4212.000000	1.202797 
4211.000000	1.203584 
4210.000000	1.204252 
4209.000000	1.204800 
4208.000000	1.205253 
4207.000000	1.205658 
4206.000000	1.206016 
4205.000000	1.206302 
4204.000000	1.206517 
4203.000000	1.206660 
4202.000000	1.206779 
4201.000000	1.206874 
4200.000000	1.207041 
4199.000000	1.207304 
4198.000000	1.207685 
4197.000000	1.208281 
4196.000000	1.209044 
4195.000000	1.209926 
4194.000000	1.210856 
4193.000000	1.211786 
4192.000000	1.212644 
4191.000000	1.213312 
4190.000000	1.213836 
4189.000000	1.214170 
4188.000000	1.214361 
4187.000000	1.214456 
4186.000000	1.214456 
4185.000000	1.214528 
4184.000000	1.214647 
4183.000000	1.214838 
4182.000000	1.215171 
4181.000000	1.215577 
4180.000000	1.216053 
4179.000000	1.216483 
4178.000000	1.216936 
4177.000000	1.217293 
4176.000000	1.217603 
4175.000000	1.217889 
4174.000000	1.218152 
4173.000000	1.218461 
4172.000000	1.218867 
4171.000000	1.219415 
4170.000000	1.220107 
4169.000000	1.220917 
4168.000000	1.221799 
4167.000000	1.222658 
4166.000000	1.223468 
4165.000000	1.224160 
4164.000000	1.224732 
4163.000000	1.225137 
4162.000000	1.225495 
4161.000000	1.225805 
4160.000000	1.226139 
4159.000000	1.226544 
4158.000000	1.226997 
4157.000000	1.227545 
4156.000000	1.228189 
4155.000000	1.228857 
4154.000000	1.229500 
4153.000000	1.230144 
4152.000000	1.230764 
4151.000000	1.231384 
4150.000000	1.232004 
4149.000000	1.232647 
4148.000000	1.233363 
4147.000000	1.234078 
4146.000000	1.234841 
4145.000000	1.235651 
4144.000000	1.236438 
4143.000000	1.237225 
4142.000000	1.238012 
4141.000000	1.238775 
4140.000000	1.239538 
4139.000000	1.240301 
4138.000000	1.241064 
4137.000000	1.241827 
4136.000000	1.242589 
4135.000000	1.243376 
4134.000000	1.244115 
4133.000000	1.244831 
4132.000000	1.245498 
4131.000000	1.246142 
4130.000000	1.246738 
4129.000000	1.247358 
4128.000000	1.247978 
4127.000000	1.248621 
4126.000000	1.249361 
4125.000000	1.250171 
4124.000000	1.251101 
4123.000000	1.252102 
4122.000000	1.253175 
4121.000000	1.254320 
4120.000000	1.255488 
4119.000000	1.256656 
4118.000000	1.257753 
4117.000000	1.258802 
4116.000000	1.259779 
4115.000000	1.260662 
4114.000000	1.261425 
4113.000000	1.262116 
4112.000000	1.262784 
4111.000000	1.263451 
4110.000000	1.264166 
4109.000000	1.264977 
4108.000000	1.265907 
4107.000000	1.266956 
4106.000000	1.268124 
4105.000000	1.269388 
4104.000000	1.270747 
4103.000000	1.272106 
4102.000000	1.273488 
4101.000000	1.274824 
4100.000000	1.276087 
4099.000000	1.277303 
4098.000000	1.278448 
4097.000000	1.279544 
4096.000000	1.280617 
4095.000000	1.281666 
4094.000000	1.282811 
4093.000000	1.284027 
4092.000000	1.285409 
4091.000000	1.286935 
4090.000000	1.288580 
4089.000000	1.290345 
4088.000000	1.292133 
4087.000000	1.293921 
4086.000000	1.295590 
4085.000000	1.297140 
4084.000000	1.298522 
4083.000000	1.299762 
4082.000000	1.300954 
4081.000000	1.302075 
4080.000000	1.303195 
4079.000000	1.304340 
4078.000000	1.305460 
4077.000000	1.306605 
4076.000000	1.307678 
4075.000000	1.308703 
4074.000000	1.309680 
4073.000000	1.310586 
4072.000000	1.311469 
4071.000000	1.312398 
4070.000000	1.313400 
4069.000000	1.314544 
4068.000000	1.315808 
4067.000000	1.317214 
4066.000000	1.318764 
4065.000000	1.320457 
4064.000000	1.322197 
4063.000000	1.323890 
4062.000000	1.325535 
4061.000000	1.327109 
4060.000000	1.328611 
4059.000000	1.330018 
4058.000000	1.331400 
4057.000000	1.332736 
4056.000000	1.334095 
4055.000000	1.335453 
4054.000000	1.336812 
4053.000000	1.338148 
4052.000000	1.339459 
4051.000000	1.340699 
4050.000000	1.341867 
4049.000000	1.343011 
4048.000000	1.344084 
4047.000000	1.345276 
4046.000000	1.346564 
4045.000000	1.348042 
4044.000000	1.349759 
4043.000000	1.351594 
4042.000000	1.353502 
4041.000000	1.355457 
4040.000000	1.357316 
4039.000000	1.359009 
4038.000000	1.360487 
4037.000000	1.361775 
4036.000000	1.362895 
4035.000000	1.363968 
4034.000000	1.365089 
4033.000000	1.366257 
4032.000000	1.367568 
4031.000000	1.369047 
4030.000000	1.370596 
4029.000000	1.372194 
4028.000000	1.373767 
4027.000000	1.375222 
4026.000000	1.376557 
4025.000000	1.377654 
4024.000000	1.378560 
4023.000000	1.379275 
4022.000000	1.379847 
4021.000000	1.380324 
4020.000000	1.380777 
4019.000000	1.381230 
4018.000000	1.381754 
4017.000000	1.382374 
4016.000000	1.383066 
4015.000000	1.383852 
4014.000000	1.384758 
4013.000000	1.385736 
4012.000000	1.386809 
4011.000000	1.387977 
4010.000000	1.389265 
4009.000000	1.390647 
4008.000000	1.392102 
4007.000000	1.393651 
4006.000000	1.395177 
4005.000000	1.396656 
4004.000000	1.398015 
4003.000000	1.399230 
4002.000000	1.400279 
4001.000000	1.401090 
4000.000000	1.401782 
3999.000000	1.402330 
3998.000000	1.402807 
3997.000000	1.403236 
3996.000000	1.403665 
3995.000000	1.404118 
3994.000000	1.404571 
3993.000000	1.405000 
3992.000000	1.405382 
3991.000000	1.405763 
3990.000000	1.406121 
3989.000000	1.406502 
3988.000000	1.406931 
3987.000000	1.407408 
3986.000000	1.408004 
3985.000000	1.408648 
3984.000000	1.409411 
3983.000000	1.410198 
3982.000000	1.410937 
3981.000000	1.411652 
3980.000000	1.412296 
3979.000000	1.412844 
3978.000000	1.413369 
3977.000000	1.413798 
3976.000000	1.414251 
3975.000000	1.414704 
3974.000000	1.415228 
3973.000000	1.415801 
3972.000000	1.416468 
3971.000000	1.417160 
3970.000000	1.417922 
3969.000000	1.418662 
3968.000000	1.419401 
3967.000000	1.420140 
3966.000000	1.420831 
3965.000000	1.421451 
3964.000000	1.421999 
3963.000000	1.422476 
3962.000000	1.422882 
3961.000000	1.423215 
3960.000000	1.423478 
3959.000000	1.423692 
3958.000000	1.423883 
3957.000000	1.424098 
3956.000000	1.424288 
3955.000000	1.424479 
3954.000000	1.424670 
3953.000000	1.424837 
3952.000000	1.424956 
3951.000000	1.425027 
3950.000000	1.425123 
3949.000000	1.425194 
3948.000000	1.425313 
3947.000000	1.425504 
3946.000000	1.425743 
3945.000000	1.426100 
3944.000000	1.426553 
3943.000000	1.427102 
3942.000000	1.427674 
3941.000000	1.428222 
3940.000000	1.428794 
3939.000000	1.429295 
3938.000000	1.429677 
3937.000000	1.429939 
3936.000000	1.430106 
3935.000000	1.430130 
3934.000000	1.430106 
3933.000000	1.430010 
3932.000000	1.429867 
3931.000000	1.429796 
3930.000000	1.429796 
3929.000000	1.429820 
3928.000000	1.429915 
3927.000000	1.430130 
3926.000000	1.430368 
3925.000000	1.430630 
3924.000000	1.430892 
3923.000000	1.431155 
3922.000000	1.431465 
3921.000000	1.431846 
3920.000000	1.432299 
3919.000000	1.432871 
3918.000000	1.433610 
3917.000000	1.434516 
3916.000000	1.435518 
3915.000000	1.436567 
3914.000000	1.437568 
3913.000000	1.438355 
3912.000000	1.438856 
3911.000000	1.438927 
3910.000000	1.438498 
3909.000000	1.437616 
3908.000000	1.436305 
3907.000000	1.434707 
3906.000000	1.432991 
3905.000000	1.431393 
3904.000000	1.430153 
3903.000000	1.429414 
3902.000000	1.429271 
3901.000000	1.429748 
3900.000000	1.430749 
3899.000000	1.432156 
3898.000000	1.433801 
3897.000000	1.435494 
3896.000000	1.436972 
3895.000000	1.438236 
3894.000000	1.439142 
3893.000000	1.439762 
3892.000000	1.440072 
3891.000000	1.440191 
3890.000000	1.440215 
3889.000000	1.440215 
3888.000000	1.440238 
3887.000000	1.440405 
3886.000000	1.440715 
3885.000000	1.441240 
3884.000000	1.442003 
3883.000000	1.442956 
3882.000000	1.444053 
3881.000000	1.445174 
3880.000000	1.446199 
3879.000000	1.447081 
3878.000000	1.447653 
3877.000000	1.447916 
3876.000000	1.447844 
3875.000000	1.447510 
3874.000000	1.447033 
3873.000000	1.446580 
3872.000000	1.446247 
3871.000000	1.446223 
3870.000000	1.446557 
3869.000000	1.447391 
3868.000000	1.448678 
3867.000000	1.450443 
3866.000000	1.452541 
3865.000000	1.454758 
3864.000000	1.456832 
3863.000000	1.458549 
3862.000000	1.459598 
3861.000000	1.459670 
3860.000000	1.458764 
3859.000000	1.456904 
3858.000000	1.454401 
3857.000000	1.451683 
3856.000000	1.449298 
3855.000000	1.447749 
3854.000000	1.447463 
3853.000000	1.448631 
3852.000000	1.451230 
3851.000000	1.454973 
3850.000000	1.459360 
3849.000000	1.463890 
3848.000000	1.467967 
3847.000000	1.471209 
3846.000000	1.473307 
3845.000000	1.474308 
3844.000000	1.474285 
3843.000000	1.473593 
3842.000000	1.472520 
3841.000000	1.471471 
3840.000000	1.470851 
3839.000000	1.470804 
3838.000000	1.471567 
3837.000000	1.473116 
3836.000000	1.475453 
3835.000000	1.478385 
3834.000000	1.481723 
3833.000000	1.485180 
3832.000000	1.488566 
3831.000000	1.491594 
3830.000000	1.494097 
3829.000000	1.495981 
3828.000000	1.497149 
3827.000000	1.497673 
3826.000000	1.497602 
3825.000000	1.497101 
3824.000000	1.496338 
3823.000000	1.495528 
3822.000000	1.494884 
3821.000000	1.494574 
3820.000000	1.494812 
3819.000000	1.495695 
3818.000000	1.497244 
3817.000000	1.499366 
3816.000000	1.501989 
3815.000000	1.504826 
3814.000000	1.507687 
3813.000000	1.510310 
3812.000000	1.512527 
3811.000000	1.514196 
3810.000000	1.515221 
3809.000000	1.515674 
3808.000000	1.515650 
3807.000000	1.515316 
3806.000000	1.514911 
3805.000000	1.514625 
3804.000000	1.514673 
3803.000000	1.515150 
3802.000000	1.516222 
3801.000000	1.517820 
3800.000000	1.519966 
3799.000000	1.522541 
3798.000000	1.525449 
3797.000000	1.528477 
3796.000000	1.531505 
3795.000000	1.534390 
3794.000000	1.537036 
3793.000000	1.539373 
3792.000000	1.541352 
3791.000000	1.543068 
3790.000000	1.544499 
3789.000000	1.545691 
3788.000000	1.546716 
3787.000000	1.547598 
3786.000000	1.548361 
3785.000000	1.549077 
3784.000000	1.549768 
3783.000000	1.550483 
3782.000000	1.551222 
3781.000000	1.552033 
3780.000000	1.552987 
3779.000000	1.553988 
3778.000000	1.554989 
3777.000000	1.555967 
3776.000000	1.556825 
3775.000000	1.557660 
3774.000000	1.558351 
3773.000000	1.559019 
3772.000000	1.559686 
3771.000000	1.560401 
3770.000000	1.561141 
3769.000000	1.561951 
3768.000000	1.562738 
3767.000000	1.563477 
3766.000000	1.564145 
3765.000000	1.564645 
3764.000000	1.565027 
3763.000000	1.565194 
3762.000000	1.565170 
3761.000000	1.564931 
3760.000000	1.564383 
3759.000000	1.563549 
3758.000000	1.562261 
3757.000000	1.560616 
3756.000000	1.558518 
3755.000000	1.556086 
3754.000000	1.553463 
3753.000000	1.550769 
3752.000000	1.548242 
3751.000000	1.546001 
3750.000000	1.544237 
3749.000000	1.543140 
3748.000000	1.542735 
3747.000000	1.543092 
3746.000000	1.544189 
3745.000000	1.545929 
3744.000000	1.548123 
3743.000000	1.550555 
3742.000000	1.553010 
3741.000000	1.555252 
3740.000000	1.557135 
3739.000000	1.558518 
3738.000000	1.559519 
3737.000000	1.560235 
3736.000000	1.560902 
3735.000000	1.561689 
3734.000000	1.562809 
3733.000000	1.564335 
3732.000000	1.566243 
3731.000000	1.568484 
3730.000000	1.570820 
3729.000000	1.573133 
3728.000000	1.575279 
3727.000000	1.577186 
3726.000000	1.578807 
3725.000000	1.580190 
3724.000000	1.581358 
3723.000000	1.582336 
3722.000000	1.583051 
3721.000000	1.583480 
3720.000000	1.583576 
3719.000000	1.583266 
3718.000000	1.582527 
3717.000000	1.581454 
3716.000000	1.580119 
3715.000000	1.578760 
3714.000000	1.577591 
3713.000000	1.576805 
3712.000000	1.576566 
3711.000000	1.576876 
3710.000000	1.577687 
3709.000000	1.578950 
3708.000000	1.580405 
3707.000000	1.581859 
3706.000000	1.583242 
3705.000000	1.584386 
3704.000000	1.585268 
3703.000000	1.585984 
3702.000000	1.586532 
3701.000000	1.586937 
3700.000000	1.587200 
3699.000000	1.587295 
3698.000000	1.587104 
3697.000000	1.586556 
3696.000000	1.585507 
3695.000000	1.584005 
3694.000000	1.582121 
3693.000000	1.580095 
3692.000000	1.578140 
3691.000000	1.576638 
3690.000000	1.575756 
3689.000000	1.575684 
3688.000000	1.576447 
3687.000000	1.577854 
3686.000000	1.579666 
3685.000000	1.581454 
3684.000000	1.582860 
3683.000000	1.583552 
3682.000000	1.583337 
3681.000000	1.582145 
3680.000000	1.580047 
3679.000000	1.577305 
3678.000000	1.574254 
3677.000000	1.571202 
3676.000000	1.568508 
3675.000000	1.566457 
3674.000000	1.565265 
3673.000000	1.564979 
3672.000000	1.565670 
3671.000000	1.567244 
3670.000000	1.569557 
3669.000000	1.572394 
3668.000000	1.575517 
3667.000000	1.578640 
3666.000000	1.581501 
3665.000000	1.583886 
3664.000000	1.585626 
3663.000000	1.586651 
3662.000000	1.586961 
3661.000000	1.586675 
3660.000000	1.585865 
3659.000000	1.584649 
3658.000000	1.583170 
3657.000000	1.581501 
3656.000000	1.579713 
3655.000000	1.577854 
3654.000000	1.576042 
3653.000000	1.574373 
3652.000000	1.573109 
3651.000000	1.572346 
3650.000000	1.572275 
3649.000000	1.572990 
3648.000000	1.574444 
3647.000000	1.576519 
3646.000000	1.578998 
3645.000000	1.581573 
3644.000000	1.584029 
3643.000000	1.586151 
3642.000000	1.587796 
3641.000000	1.588916 
3640.000000	1.589465 
3639.000000	1.589465 
3638.000000	1.588916 
3637.000000	1.587843 
3636.000000	1.586365 
3635.000000	1.584529 
3634.000000	1.582455 
3633.000000	1.580381 
3632.000000	1.578545 
3631.000000	1.577234 
3630.000000	1.576662 
3629.000000	1.576876 
3628.000000	1.577854 
3627.000000	1.579403 
3626.000000	1.581287 
3625.000000	1.583170 
3624.000000	1.584815 
3623.000000	1.586079 
3622.000000	1.586890 
3621.000000	1.587295 
3620.000000	1.587462 
3619.000000	1.587462 
3618.000000	1.587367 
3617.000000	1.587319 
3616.000000	1.587319 
3615.000000	1.587390 
3614.000000	1.587486 
3613.000000	1.587724 
3612.000000	1.588082 
3611.000000	1.588678 
3610.000000	1.589584 
3609.000000	1.590800 
3608.000000	1.592254 
3607.000000	1.593923 
3606.000000	1.595664 
3605.000000	1.597356 
3604.000000	1.598858 
3603.000000	1.600122 
3602.000000	1.601076 
3601.000000	1.601815 
3600.000000	1.602387 
3599.000000	1.602840 
3598.000000	1.603198 
3597.000000	1.603531 
3596.000000	1.603794 
3595.000000	1.603984 
3594.000000	1.604127 
3593.000000	1.604127 
3592.000000	1.604127 
3591.000000	1.604080 
3590.000000	1.604104 
3589.000000	1.604366 
3588.000000	1.604795 
3587.000000	1.605510 
3586.000000	1.606464 
3585.000000	1.607632 
3584.000000	1.608872 
3583.000000	1.610183 
3582.000000	1.611447 
3581.000000	1.612615 
3580.000000	1.613664 
3579.000000	1.614570 
3578.000000	1.615333 
3577.000000	1.616001 
3576.000000	1.616501 
3575.000000	1.616835 
3574.000000	1.617026 
3573.000000	1.617026 
3572.000000	1.616835 
3571.000000	1.616525 
3570.000000	1.616096 
3569.000000	1.615691 
3568.000000	1.615452 
3567.000000	1.615428 
3566.000000	1.615715 
3565.000000	1.616358 
3564.000000	1.617288 
3563.000000	1.618456 
3562.000000	1.619696 
3561.000000	1.620960 
3560.000000	1.622080 
3559.000000	1.623058 
3558.000000	1.623821 
3557.000000	1.624417 
3556.000000	1.624917 
3555.000000	1.625323 
3554.000000	1.625728 
3553.000000	1.626181 
3552.000000	1.626706 
3551.000000	1.627349 
3550.000000	1.628136 
3549.000000	1.629018 
3548.000000	1.629972 
3547.000000	1.631069 
3546.000000	1.632189 
3545.000000	1.633262 
3544.000000	1.634263 
3543.000000	1.635098 
3542.000000	1.635694 
3541.000000	1.636004 
3540.000000	1.636075 
3539.000000	1.635837 
3538.000000	1.635360 
3537.000000	1.634764 
3536.000000	1.634073 
3535.000000	1.633429 
3534.000000	1.632833 
3533.000000	1.632404 
3532.000000	1.632142 
3531.000000	1.632070 
3530.000000	1.632189 
3529.000000	1.632452 
3528.000000	1.632857 
3527.000000	1.633334 
3526.000000	1.633930 
3525.000000	1.634597 
3524.000000	1.635241 
3523.000000	1.635861 
3522.000000	1.636457 
3521.000000	1.637005 
3520.000000	1.637411 
3519.000000	1.637721 
3518.000000	1.637887 
3517.000000	1.638007 
3516.000000	1.638054 
3515.000000	1.638007 
3514.000000	1.637935 
3513.000000	1.637816 
3512.000000	1.637721 
3511.000000	1.637578 
3510.000000	1.637387 
3509.000000	1.637172 
3508.000000	1.636910 
3507.000000	1.636624 
3506.000000	1.636290 
3505.000000	1.635909 
3504.000000	1.635527 
3503.000000	1.635122 
3502.000000	1.634693 
3501.000000	1.634240 
3500.000000	1.633834 
3499.000000	1.633405 
3498.000000	1.632976 
3497.000000	1.632547 
3496.000000	1.632094 
3495.000000	1.631569 
3494.000000	1.630973 
3493.000000	1.630330 
3492.000000	1.629662 
3491.000000	1.628971 
3490.000000	1.628279 
3489.000000	1.627683 
3488.000000	1.627159 
3487.000000	1.626753 
3486.000000	1.626491 
3485.000000	1.626276 
3484.000000	1.626110 
3483.000000	1.625943 
3482.000000	1.625752 
3481.000000	1.625514 
3480.000000	1.625204 
3479.000000	1.624846 
3478.000000	1.624464 
3477.000000	1.624035 
3476.000000	1.623582 
3475.000000	1.623082 
3474.000000	1.622533 
3473.000000	1.621913 
3472.000000	1.621198 
3471.000000	1.620388 
3470.000000	1.619529 
3469.000000	1.618599 
3468.000000	1.617622 
3467.000000	1.616668 
3466.000000	1.615762 
3465.000000	1.614880 
3464.000000	1.614093 
3463.000000	1.613402 
3462.000000	1.612854 
3461.000000	1.612401 
3460.000000	1.612019 
3459.000000	1.611733 
3458.000000	1.611423 
3457.000000	1.611137 
3456.000000	1.610732 
3455.000000	1.610231 
3454.000000	1.609587 
3453.000000	1.608800 
3452.000000	1.607871 
3451.000000	1.606798 
3450.000000	1.605677 
3449.000000	1.604509 
3448.000000	1.603317 
3447.000000	1.602196 
3446.000000	1.601147 
3445.000000	1.600170 
3444.000000	1.599311 
3443.000000	1.598525 
3442.000000	1.597857 
3441.000000	1.597285 
3440.000000	1.596784 
3439.000000	1.596355 
3438.000000	1.596045 
3437.000000	1.595735 
3436.000000	1.595473 
3435.000000	1.595234 
3434.000000	1.594996 
3433.000000	1.594758 
3432.000000	1.594495 
3431.000000	1.594233 
3430.000000	1.593995 
3429.000000	1.593780 
3428.000000	1.593613 
3427.000000	1.593518 
3426.000000	1.593494 
3425.000000	1.593589 
3424.000000	1.593756 
3423.000000	1.593995 
3422.000000	1.594328 
3421.000000	1.594686 
3420.000000	1.595091 
3419.000000	1.595544 
3418.000000	1.596021 
3417.000000	1.596522 
3416.000000	1.597046 
3415.000000	1.597595 
3414.000000	1.598143 
3413.000000	1.598691 
3412.000000	1.599264 
3411.000000	1.599836 
3410.000000	1.600408 
3409.000000	1.600956 
3408.000000	1.601600 
3407.000000	1.602268 
3406.000000	1.602935 
3405.000000	1.603627 
3404.000000	1.604366 
3403.000000	1.605057 
3402.000000	1.605772 
3401.000000	1.606392 
3400.000000	1.606965 
3399.000000	1.607441 
3398.000000	1.607871 
3397.000000	1.608300 
3396.000000	1.608753 
3395.000000	1.609277 
3394.000000	1.609873 
3393.000000	1.610612 
3392.000000	1.611447 
3391.000000	1.612377 
3390.000000	1.613306 
3389.000000	1.614236 
3388.000000	1.615118 
3387.000000	1.615881 
3386.000000	1.616549 
3385.000000	1.617074 
3384.000000	1.617503 
3383.000000	1.617908 
3382.000000	1.618289 
3381.000000	1.618742 
3380.000000	1.619219 
3379.000000	1.619815 
3378.000000	1.620483 
3377.000000	1.621246 
3376.000000	1.622152 
3375.000000	1.623106 
3374.000000	1.624178 
3373.000000	1.625347 
3372.000000	1.626610 
3371.000000	1.627898 
3370.000000	1.629209 
3369.000000	1.630520 
3368.000000	1.631832 
3367.000000	1.633143 
3366.000000	1.634478 
3365.000000	1.635789 
3364.000000	1.637172 
3363.000000	1.638579 
3362.000000	1.640081 
3361.000000	1.641654 
3360.000000	1.643252 
3359.000000	1.644897 
3358.000000	1.646542 
3357.000000	1.648235 
3356.000000	1.649951 
3355.000000	1.651716 
3354.000000	1.653575 
3353.000000	1.655483 
3352.000000	1.657438 
3351.000000	1.659369 
3350.000000	1.661252 
3349.000000	1.662993 
3348.000000	1.664543 
3347.000000	1.665902 
3346.000000	1.667070 
3345.000000	1.668071 
3344.000000	1.669001 
3343.000000	1.669955 
3342.000000	1.671028 
3341.000000	1.672244 
3340.000000	1.673698 
3339.000000	1.675343 
3338.000000	1.677107 
3337.000000	1.678943 
3336.000000	1.680803 
3335.000000	1.682567 
3334.000000	1.684188 
3333.000000	1.685714 
3332.000000	1.687216 
3331.000000	1.688647 
3330.000000	1.690077 
3329.000000	1.691555 
3328.000000	1.693058 
3327.000000	1.694607 
3326.000000	1.696133 
3325.000000	1.697635 
3324.000000	1.699137 
3323.000000	1.700568 
3322.000000	1.701974 
3321.000000	1.703333 
3320.000000	1.704740 
3319.000000	1.706194 
3318.000000	1.707673 
3317.000000	1.709222 
3316.000000	1.710796 
3315.000000	1.712393 
3314.000000	1.714015 
3313.000000	1.715612 
3312.000000	1.717233 
3311.000000	1.718854 
3310.000000	1.720476 
3309.000000	1.722121 
3308.000000	1.723718 
3307.000000	1.725292 
3306.000000	1.726770 
3305.000000	1.728200 
3304.000000	1.729512 
3303.000000	1.730728 
3302.000000	1.731896 
3301.000000	1.733064 
3300.000000	1.734185 
3299.000000	1.735377 
3298.000000	1.736593 
3297.000000	1.737880 
3296.000000	1.739215 
3295.000000	1.740574 
3294.000000	1.741981 
3293.000000	1.743388 
3292.000000	1.744771 
3291.000000	1.746106 
3290.000000	1.747369 
3289.000000	1.748538 
3288.000000	1.749610 
3287.000000	1.750588 
3286.000000	1.751494 
3285.000000	1.752376 
3284.000000	1.753306 
3283.000000	1.754283 
3282.000000	1.755332 
3281.000000	1.756525 
3280.000000	1.757860 
3279.000000	1.759290 
3278.000000	1.760816 
3277.000000	1.762342 
3276.000000	1.763892 
3275.000000	1.765298 
3274.000000	1.766633 
3273.000000	1.767778 
3272.000000	1.768827 
3271.000000	1.769709 
3270.000000	1.770424 
3269.000000	1.771020 
3268.000000	1.771473 
3267.000000	1.771831 
3266.000000	1.772093 
3265.000000	1.772308 
3264.000000	1.772570 
3263.000000	1.772880 
3262.000000	1.773357 
3261.000000	1.773953 
3260.000000	1.774764 
3259.000000	1.775741 
3258.000000	1.776933 
3257.000000	1.778173 
3256.000000	1.779484 
3255.000000	1.780724 
3254.000000	1.781892 
3253.000000	1.782941 
3252.000000	1.783895 
3251.000000	1.784753 
3250.000000	1.785588 
3249.000000	1.786375 
3248.000000	1.787185 
3247.000000	1.787996 
3246.000000	1.788806 
3245.000000	1.789593 
3244.000000	1.790308 
3243.000000	1.790928 
3242.000000	1.791405 
3241.000000	1.791739 
3240.000000	1.791930 
3239.000000	1.792049 
3238.000000	1.792168 
3237.000000	1.792263 
3236.000000	1.792454 
3235.000000	1.792788 
3234.000000	1.793241 
3233.000000	1.793813 
3232.000000	1.794576 
3231.000000	1.795387 
3230.000000	1.796269 
3229.000000	1.797080 
3228.000000	1.797795 
3227.000000	1.798415 
3226.000000	1.798892 
3225.000000	1.799273 
3224.000000	1.799511 
3223.000000	1.799726 
3222.000000	1.799893 
3221.000000	1.800012 
3220.000000	1.800084 
3219.000000	1.800107 
3218.000000	1.800060 
3217.000000	1.799941 
3216.000000	1.799750 
3215.000000	1.799511 
3214.000000	1.799297 
3213.000000	1.799154 
3212.000000	1.799106 
3211.000000	1.799178 
3210.000000	1.799345 
3209.000000	1.799678 
3208.000000	1.800036 
3207.000000	1.800489 
3206.000000	1.800918 
3205.000000	1.801347 
3204.000000	1.801729 
3203.000000	1.802062 
3202.000000	1.802253 
3201.000000	1.802349 
3200.000000	1.802325 
3199.000000	1.802229 
3198.000000	1.801991 
3197.000000	1.801729 
3196.000000	1.801443 
3195.000000	1.801276 
3194.000000	1.801276 
3193.000000	1.801443 
3192.000000	1.801800 
3191.000000	1.802396 
3190.000000	1.803088 
3189.000000	1.803898 
3188.000000	1.804709 
3187.000000	1.805424 
3186.000000	1.806068 
3185.000000	1.806592 
3184.000000	1.806950 
3183.000000	1.807236 
3182.000000	1.807475 
3181.000000	1.807761 
3180.000000	1.808142 
3179.000000	1.808619 
3178.000000	1.809191 
3177.000000	1.809835 
3176.000000	1.810526 
3175.000000	1.811194 
3174.000000	1.811742 
3173.000000	1.812171 
3172.000000	1.812481 
3171.000000	1.812648 
3170.000000	1.812696 
3169.000000	1.812696 
3168.000000	1.812720 
3167.000000	1.812744 
3166.000000	1.812839 
3165.000000	1.813030 
3164.000000	1.813292 
3163.000000	1.813673 
3162.000000	1.814126 
3161.000000	1.814603 
3160.000000	1.815104 
3159.000000	1.815629 
3158.000000	1.816177 
3157.000000	1.816678 
3156.000000	1.817178 
3155.000000	1.817703 
3154.000000	1.818251 
3153.000000	1.818871 
3152.000000	1.819539 
3151.000000	1.820254 
3150.000000	1.821041 
3149.000000	1.821851 
3148.000000	1.822710 
3147.000000	1.823544 
3146.000000	1.824378 
3145.000000	1.825237 
3144.000000	1.826095 
3143.000000	1.826930 
3142.000000	1.827883 
3141.000000	1.828908 
3140.000000	1.830053 
3139.000000	1.831269 
3138.000000	1.832556 
3137.000000	1.833915 
3136.000000	1.835322 
3135.000000	1.836752 
3134.000000	1.838135 
3133.000000	1.839494 
3132.000000	1.840853 
3131.000000	1.842188 
3130.000000	1.843523 
3129.000000	1.844859 
3128.000000	1.846194 
3127.000000	1.847529 
3126.000000	1.848864 
3125.000000	1.850199 
3124.000000	1.851534 
3123.000000	1.852822 
3122.000000	1.854038 
3121.000000	1.855278 
3120.000000	1.856470 
3119.000000	1.857638 
3118.000000	1.858782 
3117.000000	1.859903 
3116.000000	1.861047 
3115.000000	1.862168 
3114.000000	1.863336 
3113.000000	1.864504 
3112.000000	1.865768 
3111.000000	1.867127 
3110.000000	1.868629 
3109.000000	1.870274 
3108.000000	1.872062 
3107.000000	1.873993 
3106.000000	1.876020 
3105.000000	1.878094 
3104.000000	1.880240 
3103.000000	1.882314 
3102.000000	1.884341 
3101.000000	1.886343 
3100.000000	1.888298 
3099.000000	1.890182 
3098.000000	1.892066 
3097.000000	1.893925 
3096.000000	1.895785 
3095.000000	1.897621 
3094.000000	1.899456 
3093.000000	1.901292 
3092.000000	1.903176 
3091.000000	1.905107 
3090.000000	1.907062 
3089.000000	1.909112 
3088.000000	1.911258 
3087.000000	1.913428 
3086.000000	1.915740 
3085.000000	1.918077 
3084.000000	1.920413 
3083.000000	1.922750 
3082.000000	1.925039 
3081.000000	1.927304 
3080.000000	1.929426 
3079.000000	1.931452 
3078.000000	1.933336 
3077.000000	1.935052 
3076.000000	1.936578 
3075.000000	1.937937 
3074.000000	1.939201 
3073.000000	1.940298 
3072.000000	1.941370 
3071.000000	1.942396 
3070.000000	1.943469 
3069.000000	1.944637 
3068.000000	1.945900 
3067.000000	1.947188 
3066.000000	1.948547 
3065.000000	1.949882 
3064.000000	1.951217 
3063.000000	1.952457 
3062.000000	1.953649 
3061.000000	1.954817 
3060.000000	1.955986 
3059.000000	1.957249 
3058.000000	1.958560 
3057.000000	1.960015 
3056.000000	1.961612 
3055.000000	1.963305 
3054.000000	1.965093 
3053.000000	1.966905 
3052.000000	1.968741 
3051.000000	1.970577 
3050.000000	1.972365 
3049.000000	1.974153 
3048.000000	1.975870 
3047.000000	1.977610 
3046.000000	1.979255 
3045.000000	1.980853 
3044.000000	1.982355 
3043.000000	1.983690 
3042.000000	1.984882 
3041.000000	1.985931 
3040.000000	1.986885 
3039.000000	1.987767 
3038.000000	1.988530 
3037.000000	1.989221 
3036.000000	1.989865 
3035.000000	1.990365 
3034.000000	1.990652 
3033.000000	1.990699 
3032.000000	1.990437 
3031.000000	1.989817 
3030.000000	1.988840 
3029.000000	1.987552 
3028.000000	1.985979 
3027.000000	1.984190 
3026.000000	1.982235 
3025.000000	1.980185 
3024.000000	1.978063 
3023.000000	1.976060 
3022.000000	1.974296 
3021.000000	1.972961 
3020.000000	1.972150 
3019.000000	1.972126 
3018.000000	1.972961 
3017.000000	1.974797 
3016.000000	1.977610 
3015.000000	1.981353 
3014.000000	1.985859 
3013.000000	1.990914 
3012.000000	1.996302 
3011.000000	2.001833 
3010.000000	2.007246 
3009.000000	2.012372 
3008.000000	2.017116 
3007.000000	2.021455 
3006.000000	2.025318 
3005.000000	2.028656 
3004.000000	2.031564 
3003.000000	2.034091 
3002.000000	2.036237 
3001.000000	2.038049 
3000.000000	2.039623 
2999.000000	2.040982 
2998.000000	2.042126 
2997.000000	2.043032 
2996.000000	2.043771 
2995.000000	2.044343 
2994.000000	2.044749 
2993.000000	2.044963 
2992.000000	2.045011 
2991.000000	2.044892 
2990.000000	2.044582 
2989.000000	2.044105 
2988.000000	2.043437 
2987.000000	2.042579 
2986.000000	2.041459 
2985.000000	2.040076 
2984.000000	2.038431 
2983.000000	2.036523 
2982.000000	2.034306 
2981.000000	2.031803 
2980.000000	2.029037 
2979.000000	2.025938 
2978.000000	2.022576 
2977.000000	2.018904 
2976.000000	2.014851 
2975.000000	2.010393 
2974.000000	2.005529 
2973.000000	2.000308 
2972.000000	1.994657 
2971.000000	1.988744 
2970.000000	1.982545 
2969.000000	1.976299 
2968.000000	1.970076 
2967.000000	1.963996 
2966.000000	1.958227 
2965.000000	1.952981 
2964.000000	1.948261 
2963.000000	1.944184 
2962.000000	1.940798 
2961.000000	1.938128 
2960.000000	1.936078 
2959.000000	1.934647 
2958.000000	1.933693 
2957.000000	1.933145 
2956.000000	1.932859 
2955.000000	1.932644 
2954.000000	1.932382 
2953.000000	1.931929 
2952.000000	1.931095 
2951.000000	1.929736 
2950.000000	1.927542 
2949.000000	1.924562 
2948.000000	1.920604 
2947.000000	1.915621 
2946.000000	1.909613 
2945.000000	1.902651 
2944.000000	1.894903 
2943.000000	1.886558 
2942.000000	1.877713 
2941.000000	1.868700 
2940.000000	1.859688 
2939.000000	1.850771 
2938.000000	1.842093 
2937.000000	1.833772 
2936.000000	1.825809 
2935.000000	1.818180 
2934.000000	1.810860 
2933.000000	1.803851 
2932.000000	1.797223 
2931.000000	1.791000 
2930.000000	1.785397 
2929.000000	1.780605 
2928.000000	1.776909 
2927.000000	1.774644 
2926.000000	1.774048 
2925.000000	1.775383 
2924.000000	1.778745 
2923.000000	1.784253 
2922.000000	1.791715 
2921.000000	1.800942 
2920.000000	1.811599 
2919.000000	1.823377 
2918.000000	1.835799 
2917.000000	1.848483 
2916.000000	1.861119 
2915.000000	1.873373 
2914.000000	1.884961 
2913.000000	1.895809 
2912.000000	1.905703 
2911.000000	1.914644 
2910.000000	1.922655 
2909.000000	1.929783 
2908.000000	1.936149 
2907.000000	1.941752 
2906.000000	1.946854 
2905.000000	1.951456 
2904.000000	1.955652 
2903.000000	1.959586 
2902.000000	1.963353 
2901.000000	1.966977 
2900.000000	1.970481 
2899.000000	1.973938 
2898.000000	1.977348 
2897.000000	1.980733 
2896.000000	1.984095 
2895.000000	1.987481 
2894.000000	1.990818 
2893.000000	1.994085 
2892.000000	1.997303 
2891.000000	2.000403 
2890.000000	2.003312 
2889.000000	2.006030 
2888.000000	2.008509 
2887.000000	2.010726 
2886.000000	2.012610 
2885.000000	2.014160 
2884.000000	2.015376 
2883.000000	2.016234 
2882.000000	2.016687 
2881.000000	2.016782 
2880.000000	2.016472 
2879.000000	2.015781 
2878.000000	2.014660 
2877.000000	2.013087 
2876.000000	2.011013 
2875.000000	2.008318 
2874.000000	2.004933 
2873.000000	2.000761 
2872.000000	1.995682 
2871.000000	1.989555 
2870.000000	1.982450 
2869.000000	1.974391 
2868.000000	1.965546 
2867.000000	1.956272 
2866.000000	1.946973 
2865.000000	1.938104 
2864.000000	1.930212 
2863.000000	1.923799 
2862.000000	1.919293 
2861.000000	1.917004 
2860.000000	1.916956 
2859.000000	1.919221 
2858.000000	1.923584 
2857.000000	1.929807 
2856.000000	1.937484 
2855.000000	1.946353 
2854.000000	1.955986 
2853.000000	1.966118 
2852.000000	1.976490 
2851.000000	1.986956 
2850.000000	1.997327 
2849.000000	2.007508 
2848.000000	2.017474 
2847.000000	2.027106 
2846.000000	2.036356 
2845.000000	2.045202 
2844.000000	2.053570 
2843.000000	2.061533 
2842.000000	2.068948 
2841.000000	2.075839 
2840.000000	2.082133 
2839.000000	2.087950 
2838.000000	2.093219 
2837.000000	2.097940 
2836.000000	2.102303 
2835.000000	2.106237 
2834.000000	2.109885 
2833.000000	2.113270 
2832.000000	2.116560 
2831.000000	2.119708 
2830.000000	2.122783 
2829.000000	2.125930 
2828.000000	2.129077 
2827.000000	2.132272 
2826.000000	2.135515 
2825.000000	2.138733 
2824.000000	2.141952 
2823.000000	2.145075 
2822.000000	2.148103 
2821.000000	2.150940 
2820.000000	2.153563 
2819.000000	2.155995 
2818.000000	2.158260 
2817.000000	2.160358 
2816.000000	2.162313 
2815.000000	2.164220 
2814.000000	2.166128 
2813.000000	2.168083 
2812.000000	2.170157 
2811.000000	2.172327 
2810.000000	2.174615 
2809.000000	2.176976 
2808.000000	2.179336 
2807.000000	2.181673 
2806.000000	2.183914 
2805.000000	2.185988 
2804.000000	2.187871 
2803.000000	2.189612 
2802.000000	2.191209 
2801.000000	2.192711 
2800.000000	2.194213 
2799.000000	2.195739 
2798.000000	2.197337 
2797.000000	2.199006 
2796.000000	2.200722 
2795.000000	2.202510 
2794.000000	2.204275 
2793.000000	2.205991 
2792.000000	2.207636 
2791.000000	2.209258 
2790.000000	2.210855 
2789.000000	2.212452 
2788.000000	2.214121 
2787.000000	2.215909 
2786.000000	2.217793 
2785.000000	2.219843 
2784.000000	2.221965 
2783.000000	2.224230 
2782.000000	2.226495 
2781.000000	2.228713 
2780.000000	2.230882 
2779.000000	2.232956 
2778.000000	2.234864 
2777.000000	2.236676 
2776.000000	2.238321 
2775.000000	2.239871 
2774.000000	2.241349 
2773.000000	2.242732 
2772.000000	2.244091 
2771.000000	2.245378 
2770.000000	2.246618 
2769.000000	2.247810 
2768.000000	2.248954 
2767.000000	2.250051 
2766.000000	2.251100 
2765.000000	2.252078 
2764.000000	2.253007 
2763.000000	2.253913 
2762.000000	2.254796 
2761.000000	2.255702 
2760.000000	2.256655 
2759.000000	2.257633 
2758.000000	2.258586 
2757.000000	2.259540 
2756.000000	2.260327 
2755.000000	2.260971 
2754.000000	2.261495 
2753.000000	2.261829 
2752.000000	2.262020 
2751.000000	2.262067 
2750.000000	2.262115 
2749.000000	2.262187 
2748.000000	2.262330 
2747.000000	2.262544 
2746.000000	2.262854 
2745.000000	2.263212 
2744.000000	2.263593 
2743.000000	2.263927 
2742.000000	2.264165 
2741.000000	2.264308 
2740.000000	2.264332 
2739.000000	2.264308 
2738.000000	2.264285 
2737.000000	2.264285 
2736.000000	2.264380 
2735.000000	2.264571 
2734.000000	2.264881 
2733.000000	2.265405 
2732.000000	2.266025 
2731.000000	2.266669 
2730.000000	2.267360 
2729.000000	2.268028 
2728.000000	2.268624 
2727.000000	2.269101 
2726.000000	2.269411 
2725.000000	2.269506 
2724.000000	2.269411 
2723.000000	2.269101 
2722.000000	2.268600 
2721.000000	2.267956 
2720.000000	2.267241 
2719.000000	2.266502 
2718.000000	2.265763 
2717.000000	2.265095 
2716.000000	2.264523 
2715.000000	2.264046 
2714.000000	2.263712 
2713.000000	2.263450 
2712.000000	2.263212 
2711.000000	2.262973 
2710.000000	2.262687 
2709.000000	2.262258 
2708.000000	2.261710 
2707.000000	2.260971 
2706.000000	2.260160 
2705.000000	2.259206 
2704.000000	2.258205 
2703.000000	2.257227 
2702.000000	2.256250 
2701.000000	2.255415 
2700.000000	2.254748 
2699.000000	2.254247 
2698.000000	2.253890 
2697.000000	2.253675 
2696.000000	2.253532 
2695.000000	2.253508 
2694.000000	2.253508 
2693.000000	2.253460 
2692.000000	2.253413 
2691.000000	2.253317 
2690.000000	2.253198 
2689.000000	2.253007 
2688.000000	2.252817 
2687.000000	2.252626 
2686.000000	2.252411 
2685.000000	2.252149 
2684.000000	2.251863 
2683.000000	2.251458 
2682.000000	2.250909 
2681.000000	2.250194 
2680.000000	2.249264 
2679.000000	2.248191 
2678.000000	2.246904 
2677.000000	2.245521 
2676.000000	2.244091 
2675.000000	2.242708 
2674.000000	2.241396 
2673.000000	2.240228 
2672.000000	2.239227 
2671.000000	2.238392 
2670.000000	2.237677 
2669.000000	2.237057 
2668.000000	2.236485 
2667.000000	2.235913 
2666.000000	2.235269 
2665.000000	2.234578 
2664.000000	2.233862 
2663.000000	2.233076 
2662.000000	2.232265 
2661.000000	2.231454 
2660.000000	2.230691 
2659.000000	2.229976 
2658.000000	2.229380 
2657.000000	2.228879 
2656.000000	2.228474 
2655.000000	2.228164 
2654.000000	2.227950 
2653.000000	2.227783 
2652.000000	2.227687 
2651.000000	2.227592 
2650.000000	2.227497 
2649.000000	2.227449 
2648.000000	2.227449 
2647.000000	2.227497 
2646.000000	2.227568 
2645.000000	2.227663 
2644.000000	2.227830 
2643.000000	2.227950 
2642.000000	2.228069 
2641.000000	2.228069 
2640.000000	2.227950 
2639.000000	2.227759 
2638.000000	2.227497 
2637.000000	2.227163 
2636.000000	2.226829 
2635.000000	2.226567 
2634.000000	2.226424 
2633.000000	2.226448 
2632.000000	2.226614 
2631.000000	2.226924 
2630.000000	2.227377 
2629.000000	2.227950 
2628.000000	2.228498 
2627.000000	2.229046 
2626.000000	2.229499 
2625.000000	2.229857 
2624.000000	2.230000 
2623.000000	2.230000 
2622.000000	2.229857 
2621.000000	2.229571 
2620.000000	2.229237 
2619.000000	2.228879 
2618.000000	2.228617 
2617.000000	2.228522 
2616.000000	2.228617 
2615.000000	2.228951 
2614.000000	2.229499 
2613.000000	2.230238 
2612.000000	2.231049 
2611.000000	2.231931 
2610.000000	2.232718 
2609.000000	2.233433 
2608.000000	2.233982 
2607.000000	2.234339 
2606.000000	2.234601 
2605.000000	2.234792 
2604.000000	2.234959 
2603.000000	2.235102 
2602.000000	2.235293 
2601.000000	2.235603 
2600.000000	2.235889 
2599.000000	2.236247 
2598.000000	2.236628 
2597.000000	2.237057 
2596.000000	2.237558 
2595.000000	2.238130 
2594.000000	2.238821 
2593.000000	2.239632 
2592.000000	2.240610 
2591.000000	2.241706 
2590.000000	2.242851 
2589.000000	2.244091 
2588.000000	2.245402 
2587.000000	2.246689 
2586.000000	2.248001 
2585.000000	2.249336 
2584.000000	2.250576 
2583.000000	2.251839 
2582.000000	2.253127 
2581.000000	2.254438 
2580.000000	2.255797 
2579.000000	2.257227 
2578.000000	2.258729 
2577.000000	2.260351 
2576.000000	2.262091 
2575.000000	2.263903 
2574.000000	2.265810 
2573.000000	2.267694 
2572.000000	2.269506 
2571.000000	2.271270 
2570.000000	2.272915 
2569.000000	2.274417 
2568.000000	2.275753 
2567.000000	2.276968 
2566.000000	2.278041 
2565.000000	2.279090 
2564.000000	2.280116 
2563.000000	2.281165 
2562.000000	2.282309 
2561.000000	2.283573 
2560.000000	2.284955 
2559.000000	2.286481 
2558.000000	2.288055 
2557.000000	2.289605 
2556.000000	2.291178 
2555.000000	2.292656 
2554.000000	2.294063 
2553.000000	2.295327 
2552.000000	2.296495 
2551.000000	2.297568 
2550.000000	2.298593 
2549.000000	2.299594 
2548.000000	2.300643 
2547.000000	2.301716 
2546.000000	2.302837 
2545.000000	2.303981 
2544.000000	2.305150 
2543.000000	2.306270 
2542.000000	2.307343 
2541.000000	2.308392 
2540.000000	2.309393 
2539.000000	2.310371 
2538.000000	2.311420 
2537.000000	2.312517 
2536.000000	2.313637 
2535.000000	2.314782 
2534.000000	2.315950 
2533.000000	2.317047 
2532.000000	2.318048 
2531.000000	2.318954 
2530.000000	2.319788 
2529.000000	2.320575 
2528.000000	2.321314 
2527.000000	2.322125 
2526.000000	2.323055 
2525.000000	2.324056 
2524.000000	2.325177 
2523.000000	2.326369 
2522.000000	2.327561 
2521.000000	2.328729 
2520.000000	2.329778 
2519.000000	2.330636 
2518.000000	2.331280 
2517.000000	2.331757 
2516.000000	2.332019 
2515.000000	2.332162 
2514.000000	2.332234 
2513.000000	2.332258 
2512.000000	2.332305 
2511.000000	2.332353 
2510.000000	2.332496 
2509.000000	2.332735 
2508.000000	2.333092 
2507.000000	2.333521 
2506.000000	2.334046 
2505.000000	2.334570 
2504.000000	2.335071 
2503.000000	2.335548 
2502.000000	2.335906 
2501.000000	2.336168 
2500.000000	2.336263 
2499.000000	2.336215 
2498.000000	2.336049 
2497.000000	2.335810 
2496.000000	2.335572 
2495.000000	2.335309 
2494.000000	2.335047 
2493.000000	2.334833 
2492.000000	2.334666 
2491.000000	2.334594 
2490.000000	2.334594 
2489.000000	2.334666 
2488.000000	2.334761 
2487.000000	2.334952 
2486.000000	2.335119 
2485.000000	2.335262 
2484.000000	2.335309 
2483.000000	2.335262 
2482.000000	2.335047 
2481.000000	2.334642 
2480.000000	2.334094 
2479.000000	2.333402 
2478.000000	2.332615 
2477.000000	2.331733 
2476.000000	2.330827 
2475.000000	2.329921 
2474.000000	2.329087 
2473.000000	2.328348 
2472.000000	2.327704 
2471.000000	2.327156 
2470.000000	2.326726 
2469.000000	2.326321 
2468.000000	2.325940 
2467.000000	2.325558 
2466.000000	2.325129 
2465.000000	2.324509 
2464.000000	2.323675 
2463.000000	2.322673 
2462.000000	2.321410 
2461.000000	2.320027 
2460.000000	2.318525 
2459.000000	2.316999 
2458.000000	2.315497 
2457.000000	2.314090 
2456.000000	2.312850 
2455.000000	2.311778 
2454.000000	2.310919 
2453.000000	2.310228 
2452.000000	2.309656 
2451.000000	2.309203 
2450.000000	2.308726 
2449.000000	2.308249 
2448.000000	2.307629 
2447.000000	2.306842 
2446.000000	2.305889 
2445.000000	2.304744 
2444.000000	2.303457 
2443.000000	2.302074 
2442.000000	2.300620 
2441.000000	2.299165 
2440.000000	2.297806 
2439.000000	2.296543 
2438.000000	2.295398 
2437.000000	2.294373 
2436.000000	2.293372 
2435.000000	2.292418 
2434.000000	2.291464 
2433.000000	2.290463 
2432.000000	2.289414 
2431.000000	2.288317 
2430.000000	2.287149 
2429.000000	2.285933 
2428.000000	2.284693 
2427.000000	2.283453 
2426.000000	2.282166 
2425.000000	2.280950 
2424.000000	2.279734 
2423.000000	2.278590 
2422.000000	2.277541 
2421.000000	2.276611 
2420.000000	2.275824 
2419.000000	2.275180 
2418.000000	2.274727 
2417.000000	2.274394 
2416.000000	2.274155 
2415.000000	2.273941 
2414.000000	2.273702 
2413.000000	2.273440 
2412.000000	2.273130 
2411.000000	2.272701 
2410.000000	2.272200 
2409.000000	2.271699 
2408.000000	2.271175 
2407.000000	2.270603 
2406.000000	2.270030 
2405.000000	2.269411 
2404.000000	2.268743 
2403.000000	2.268052 
2402.000000	2.267289 
2401.000000	2.266454 
2400.000000	2.265572 
2399.000000	2.264666 
2398.000000	2.263712 
2397.000000	2.262806 
2396.000000	2.261924 
2395.000000	2.261066 
2394.000000	2.260279 
2393.000000	2.259588 
2392.000000	2.259016 
2391.000000	2.258586 
2390.000000	2.258205 
2389.000000	2.257919 
2388.000000	2.257657 
2387.000000	2.257394 
2386.000000	2.257084 
2385.000000	2.256727 
2384.000000	2.256226 
2383.000000	2.255606 
2382.000000	2.254819 
2381.000000	2.253937 
2380.000000	2.252984 
2379.000000	2.251958 
2378.000000	2.250933 
2377.000000	2.249932 
2376.000000	2.248954 
2375.000000	2.248024 
2374.000000	2.247118 
2373.000000	2.246212 
2372.000000	2.245354 
2371.000000	2.244496 
2370.000000	2.243685 
2369.000000	2.242922 
2368.000000	2.242231 
2367.000000	2.241635 
2366.000000	2.241206 
2365.000000	2.240967 
2364.000000	2.240920 
2363.000000	2.241158 
2362.000000	2.241611 
2361.000000	2.242302 
2360.000000	2.243256 
2359.000000	2.244472 
2358.000000	2.245974 
2357.000000	2.247786 
2356.000000	2.249932 
2355.000000	2.252292 
2354.000000	2.254867 
2353.000000	2.257561 
2352.000000	2.260279 
2351.000000	2.262878 
2350.000000	2.265262 
2349.000000	2.267289 
2348.000000	2.268934 
2347.000000	2.270174 
2346.000000	2.270984 
2345.000000	2.271509 
2344.000000	2.271771 
2343.000000	2.271890 
2342.000000	2.271986 
2341.000000	2.272152 
2340.000000	2.272439 
2339.000000	2.272939 
2338.000000	2.273678 
2337.000000	2.274680 
2336.000000	2.275991 
2335.000000	2.277541 
2334.000000	2.279329 
2333.000000	2.281308 
2332.000000	2.283430 
2331.000000	2.285647 
2330.000000	2.287864 
2329.000000	2.290058 
2328.000000	2.292275 
2327.000000	2.294421 
2326.000000	2.296566 
2325.000000	2.298665 
2324.000000	2.300786 
2323.000000	2.302932 
2322.000000	2.305102 
2321.000000	2.307319 
2320.000000	2.309536 
2319.000000	2.311730 
2318.000000	2.313899 
2317.000000	2.315998 
2316.000000	2.317953 
2315.000000	2.319836 
2314.000000	2.321624 
2313.000000	2.323341 
2312.000000	2.325057 
2311.000000	2.326726 
2310.000000	2.328443 
2309.000000	2.330183 
2308.000000	2.331995 
2307.000000	2.333784 
2306.000000	2.335619 
2305.000000	2.337431 
2304.000000	2.339267 
2303.000000	2.340984 
2302.000000	2.342677 
2301.000000	2.344322 
2300.000000	2.345943 
2299.000000	2.347469 
2298.000000	2.349019 
2297.000000	2.350497 
2296.000000	2.351975 
2295.000000	2.353477 
2294.000000	2.355003 
2293.000000	2.356481 
2292.000000	2.357959 
2291.000000	2.359414 
2290.000000	2.360844 
2289.000000	2.362203 
2288.000000	2.363467 
2287.000000	2.364635 
2286.000000	2.365684 
2285.000000	2.366566 
2284.000000	2.367353 
2283.000000	2.368021 
2282.000000	2.368569 
2281.000000	2.369093 
2280.000000	2.369594 
2279.000000	2.370166 
2278.000000	2.370834 
2277.000000	2.371668 
2276.000000	2.372622 
2275.000000	2.373719 
2274.000000	2.375006 
2273.000000	2.376365 
2272.000000	2.377772 
2271.000000	2.379131 
2270.000000	2.380442 
2269.000000	2.381634 
2268.000000	2.382707 
2267.000000	2.383613 
2266.000000	2.384400 
2265.000000	2.385091 
2264.000000	2.385640 
2263.000000	2.386093 
2262.000000	2.386426 
2261.000000	2.386665 
2260.000000	2.386832 
2259.000000	2.386903 
2258.000000	2.386903 
2257.000000	2.386879 
2256.000000	2.386856 
2255.000000	2.386879 
2254.000000	2.386999 
2253.000000	2.387189 
2252.000000	2.387499 
2251.000000	2.387905 
2250.000000	2.388334 
2249.000000	2.388787 
2248.000000	2.389264 
2247.000000	2.389717 
2246.000000	2.390122 
2245.000000	2.390456 
2244.000000	2.390694 
2243.000000	2.390861 
2242.000000	2.390909 
2241.000000	2.390813 
2240.000000	2.390575 
2239.000000	2.390265 
2238.000000	2.389860 
2237.000000	2.389430 
2236.000000	2.388978 
2235.000000	2.388548 
2234.000000	2.388119 
2233.000000	2.387666 
2232.000000	2.387261 
2231.000000	2.386832 
2230.000000	2.386403 
2229.000000	2.385878 
2228.000000	2.385282 
2227.000000	2.384638 
2226.000000	2.383947 
2225.000000	2.383232 
2224.000000	2.382469 
2223.000000	2.381658 
2222.000000	2.380871 
2221.000000	2.380037 
2220.000000	2.379202 
2219.000000	2.378392 
2218.000000	2.377605 
2217.000000	2.376890 
2216.000000	2.376222 
2215.000000	2.375650 
2214.000000	2.375149 
2213.000000	2.374768 
2212.000000	2.374410 
2211.000000	2.374100 
2210.000000	2.373838 
2209.000000	2.373504 
2208.000000	2.373147 
2207.000000	2.372717 
2206.000000	2.372217 
2205.000000	2.371621 
2204.000000	2.371001 
2203.000000	2.370333 
2202.000000	2.369666 
2201.000000	2.368903 
2200.000000	2.368164 
2199.000000	2.367353 
2198.000000	2.366471 
2197.000000	2.365565 
2196.000000	2.364635 
2195.000000	2.363634 
2194.000000	2.362632 
2193.000000	2.361631 
2192.000000	2.360630 
2191.000000	2.359676 
2190.000000	2.358746 
2189.000000	2.357816 
2188.000000	2.356958 
2187.000000	2.356123 
2186.000000	2.355337 
2185.000000	2.354598 
2184.000000	2.353930 
2183.000000	2.353286 
2182.000000	2.352666 
2181.000000	2.352070 
2180.000000	2.351450 
2179.000000	2.350807 
2178.000000	2.350139 
2177.000000	2.349424 
2176.000000	2.348709 
2175.000000	2.347993 
2174.000000	2.347326 
2173.000000	2.346682 
2172.000000	2.346086 
2171.000000	2.345514 
2170.000000	2.344942 
2169.000000	2.344393 
2168.000000	2.343869 
2167.000000	2.343344 
2166.000000	2.342796 
2165.000000	2.342271 
2164.000000	2.341818 
2163.000000	2.341389 
2162.000000	2.341055 
2161.000000	2.340745 
2160.000000	2.340531 
2159.000000	2.340316 
2158.000000	2.340149 
2157.000000	2.340006 
2156.000000	2.339863 
2155.000000	2.339673 
2154.000000	2.339482 
2153.000000	2.339315 
2152.000000	2.339196 
2151.000000	2.339172 
2150.000000	2.339243 
2149.000000	2.339434 
2148.000000	2.339720 
2147.000000	2.340126 
2146.000000	2.340602 
2145.000000	2.341032 
2144.000000	2.341413 
2143.000000	2.341747 
2142.000000	2.341961 
2141.000000	2.342033 
2140.000000	2.342057 
2139.000000	2.342033 
2138.000000	2.341961 
2137.000000	2.341914 
2136.000000	2.341866 
2135.000000	2.341842 
2134.000000	2.341866 
2133.000000	2.341961 
2132.000000	2.342128 
2131.000000	2.342343 
2130.000000	2.342534 
2129.000000	2.342820 
2128.000000	2.343058 
2127.000000	2.343273 
2126.000000	2.343440 
2125.000000	2.343535 
2124.000000	2.343559 
2123.000000	2.343511 
2122.000000	2.343416 
2121.000000	2.343320 
2120.000000	2.343225 
2119.000000	2.343177 
2118.000000	2.343153 
2117.000000	2.343249 
2116.000000	2.343416 
2115.000000	2.343702 
2114.000000	2.344131 
2113.000000	2.344655 
2112.000000	2.345228 
2111.000000	2.345800 
2110.000000	2.346372 
2109.000000	2.346801 
2108.000000	2.347135 
2107.000000	2.347254 
2106.000000	2.347230 
2105.000000	2.346992 
2104.000000	2.346611 
2103.000000	2.346181 
2102.000000	2.345728 
2101.000000	2.345275 
2100.000000	2.344942 
2099.000000	2.344703 
2098.000000	2.344560 
2097.000000	2.344512 
2096.000000	2.344536 
2095.000000	2.344608 
2094.000000	2.344727 
2093.000000	2.344870 
2092.000000	2.345013 
2091.000000	2.345204 
2090.000000	2.345395 
2089.000000	2.345633 
2088.000000	2.345895 
2087.000000	2.346253 
2086.000000	2.346706 
2085.000000	2.347207 
2084.000000	2.347779 
2083.000000	2.348375 
2082.000000	2.349042 
2081.000000	2.349781 
2080.000000	2.350640 
2079.000000	2.351665 
2078.000000	2.352857 
2077.000000	2.354264 
2076.000000	2.355861 
2075.000000	2.357625 
2074.000000	2.359533 
2073.000000	2.361559 
2072.000000	2.363634 
2071.000000	2.365732 
2070.000000	2.367830 
2069.000000	2.369904 
2068.000000	2.371954 
2067.000000	2.374005 
2066.000000	2.376055 
2065.000000	2.378153 
2064.000000	2.380251 
2063.000000	2.382397 
2062.000000	2.384543 
2061.000000	2.386736 
2060.000000	2.388954 
2059.000000	2.391219 
2058.000000	2.393484 
2057.000000	2.395772 
2056.000000	2.398085 
2055.000000	2.400445 
2054.000000	2.402806 
2053.000000	2.405214 
2052.000000	2.407574 
2051.000000	2.409934 
2050.000000	2.412223 
2049.000000	2.414441 
2048.000000	2.416634 
2047.000000	2.418732 
2046.000000	2.420783 
2045.000000	2.422714 
2044.000000	2.424550 
2043.000000	2.426266 
2042.000000	2.427864 
2041.000000	2.429366 
2040.000000	2.430796 
2039.000000	2.432155 
2038.000000	2.433514 
2037.000000	2.434897 
2036.000000	2.436304 
2035.000000	2.437758 
2034.000000	2.439212 
2033.000000	2.440643 
2032.000000	2.442002 
2031.000000	2.443265 
2030.000000	2.444338 
2029.000000	2.445220 
2028.000000	2.445983 
2027.000000	2.446579 
2026.000000	2.447104 
2025.000000	2.447605 
2024.000000	2.448153 
2023.000000	2.448773 
2022.000000	2.449512 
2021.000000	2.450370 
2020.000000	2.451348 
2019.000000	2.452397 
2018.000000	2.453494 
2017.000000	2.454638 
2016.000000	2.455782 
2015.000000	2.456903 
2014.000000	2.457928 
2013.000000	2.458858 
2012.000000	2.459669 
2011.000000	2.460360 
2010.000000	2.461004 
2009.000000	2.461576 
2008.000000	2.462077 
2007.000000	2.462506 
2006.000000	2.462935 
2005.000000	2.463316 
2004.000000	2.463698 
2003.000000	2.464032 
2002.000000	2.464318 
2001.000000	2.464532 
2000.000000	2.464699 
1999.000000	2.464747 
1998.000000	2.464723 
1997.000000	2.464604 
1996.000000	2.464413 
1995.000000	2.464151 
1994.000000	2.463817 
1993.000000	2.463436 
1992.000000	2.463030 
1991.000000	2.462553 
1990.000000	2.462077 
1989.000000	2.461576 
1988.000000	2.461051 
1987.000000	2.460479 
1986.000000	2.459907 
1985.000000	2.459239 
1984.000000	2.458500 
1983.000000	2.457737 
1982.000000	2.456903 
1981.000000	2.456021 
1980.000000	2.455139 
1979.000000	2.454233 
1978.000000	2.453327 
1977.000000	2.452445 
1976.000000	2.451539 
1975.000000	2.450585 
1974.000000	2.449607 
1973.000000	2.448630 
1972.000000	2.447581 
1971.000000	2.446532 
1970.000000	2.445507 
1969.000000	2.444553 
1968.000000	2.443695 
1967.000000	2.442955 
1966.000000	2.442264 
1965.000000	2.441668 
1964.000000	2.441072 
1963.000000	2.440428 
1962.000000	2.439761 
1961.000000	2.439045 
1960.000000	2.438282 
1959.000000	2.437496 
1958.000000	2.436733 
1957.000000	2.435970 
1956.000000	2.435326 
1955.000000	2.434754 
1954.000000	2.434206 
1953.000000	2.433681 
1952.000000	2.433133 
1951.000000	2.432441 
1950.000000	2.431607 
1949.000000	2.430558 
1948.000000	2.429366 
1947.000000	2.428054 
1946.000000	2.426767 
1945.000000	2.425479 
1944.000000	2.424311 
1943.000000	2.423286 
1942.000000	2.422404 
1941.000000	2.421665 
1940.000000	2.420997 
1939.000000	2.420330 
1938.000000	2.419686 
1937.000000	2.418947 
1936.000000	2.418160 
1935.000000	2.417302 
1934.000000	2.416396 
1933.000000	2.415442 
1932.000000	2.414417 
1931.000000	2.413368 
1930.000000	2.412271 
1929.000000	2.411079 
1928.000000	2.409791 
1927.000000	2.408385 
1926.000000	2.406907 
1925.000000	2.405381 
1924.000000	2.403903 
1923.000000	2.402424 
1922.000000	2.401113 
1921.000000	2.399992 
1920.000000	2.399015 
1919.000000	2.398204 
1918.000000	2.397561 
1917.000000	2.396941 
1916.000000	2.396368 
1915.000000	2.395772 
1914.000000	2.395105 
1913.000000	2.394318 
1912.000000	2.393412 
1911.000000	2.392411 
1910.000000	2.391338 
1909.000000	2.390289 
1908.000000	2.389264 
1907.000000	2.388262 
1906.000000	2.387309 
1905.000000	2.386379 
1904.000000	2.385497 
1903.000000	2.384567 
1902.000000	2.383613 
1901.000000	2.382612 
1900.000000	2.381563 
1899.000000	2.380442 
1898.000000	2.379298 
1897.000000	2.378153 
1896.000000	2.377057 
1895.000000	2.376031 
1894.000000	2.375149 
1893.000000	2.374529 
1892.000000	2.374196 
1891.000000	2.374148 
1890.000000	2.374434 
1889.000000	2.374982 
1888.000000	2.375698 
1887.000000	2.376580 
1886.000000	2.377462 
1885.000000	2.378296 
1884.000000	2.378964 
1883.000000	2.379536 
1882.000000	2.379989 
1881.000000	2.380347 
1880.000000	2.380657 
1879.000000	2.380895 
1878.000000	2.381134 
1877.000000	2.381300 
1876.000000	2.381396 
1875.000000	2.381420 
1874.000000	2.381324 
1873.000000	2.381157 
1872.000000	2.380990 
1871.000000	2.380943 
1870.000000	2.381062 
1869.000000	2.381396 
1868.000000	2.382040 
1867.000000	2.382969 
1866.000000	2.384138 
1865.000000	2.385497 
1864.000000	2.386903 
1863.000000	2.388310 
1862.000000	2.389645 
1861.000000	2.390861 
1860.000000	2.391934 
1859.000000	2.392911 
1858.000000	2.393817 
1857.000000	2.394604 
1856.000000	2.395367 
1855.000000	2.396082 
1854.000000	2.396607 
1853.000000	2.396965 
1852.000000	2.397108 
1851.000000	2.396965 
1850.000000	2.396631 
1849.000000	2.396178 
1848.000000	2.395701 
1847.000000	2.395415 
1846.000000	2.395534 
1845.000000	2.396178 
1844.000000	2.397346 
1843.000000	2.399063 
1842.000000	2.401208 
1841.000000	2.403569 
1840.000000	2.405905 
1839.000000	2.407932 
1838.000000	2.409553 
1837.000000	2.410674 
1836.000000	2.411222 
1835.000000	2.411317 
1834.000000	2.411103 
1833.000000	2.410721 
1832.000000	2.410387 
1831.000000	2.410221 
1830.000000	2.410364 
1829.000000	2.410817 
1828.000000	2.411675 
1827.000000	2.412843 
1826.000000	2.414250 
1825.000000	2.415895 
1824.000000	2.417683 
1823.000000	2.419543 
1822.000000	2.421402 
1821.000000	2.423191 
1820.000000	2.424860 
1819.000000	2.426385 
1818.000000	2.427744 
1817.000000	2.428936 
1816.000000	2.429914 
1815.000000	2.430701 
1814.000000	2.431368 
1813.000000	2.431917 
1812.000000	2.432346 
1811.000000	2.432656 
1810.000000	2.432894 
1809.000000	2.433037 
1808.000000	2.433085 
1807.000000	2.433037 
1806.000000	2.432894 
1805.000000	2.432703 
1804.000000	2.432489 
1803.000000	2.432298 
1802.000000	2.432155 
1801.000000	2.432036 
1800.000000	2.431893 
1799.000000	2.431678 
1798.000000	2.431273 
1797.000000	2.430653 
1796.000000	2.429866 
1795.000000	2.428936 
1794.000000	2.428007 
1793.000000	2.427220 
1792.000000	2.426695 
1791.000000	2.426481 
1790.000000	2.426576 
1789.000000	2.427005 
1788.000000	2.427673 
1787.000000	2.428483 
1786.000000	2.429294 
1785.000000	2.430057 
1784.000000	2.430629 
1783.000000	2.430963 
1782.000000	2.430939 
1781.000000	2.430438 
1780.000000	2.429366 
1779.000000	2.427673 
1778.000000	2.425312 
1777.000000	2.422475 
1776.000000	2.419281 
1775.000000	2.416086 
1774.000000	2.413177 
1773.000000	2.410888 
1772.000000	2.409386 
1771.000000	2.408766 
1770.000000	2.408862 
1769.000000	2.409529 
1768.000000	2.410411 
1767.000000	2.411246 
1766.000000	2.411818 
1765.000000	2.411961 
1764.000000	2.411627 
1763.000000	2.410912 
1762.000000	2.409863 
1761.000000	2.408576 
1760.000000	2.407050 
1759.000000	2.405285 
1758.000000	2.403163 
1757.000000	2.400732 
1756.000000	2.397918 
1755.000000	2.394747 
1754.000000	2.391338 
1753.000000	2.387809 
1752.000000	2.384376 
1751.000000	2.381110 
1750.000000	2.378129 
1749.000000	2.375435 
1748.000000	2.372908 
1747.000000	2.370381 
1746.000000	2.367687 
1745.000000	2.364659 
1744.000000	2.361154 
1743.000000	2.357053 
1742.000000	2.352237 
1741.000000	2.346873 
1740.000000	2.341008 
1739.000000	2.334976 
1738.000000	2.329039 
1737.000000	2.323675 
1736.000000	2.319264 
1735.000000	2.316188 
1734.000000	2.314591 
1733.000000	2.314567 
1732.000000	2.315902 
1731.000000	2.318382 
1730.000000	2.321410 
1729.000000	2.324461 
1728.000000	2.326965 
1727.000000	2.328467 
1726.000000	2.328634 
1725.000000	2.327227 
1724.000000	2.324342 
1723.000000	2.320146 
1722.000000	2.315044 
1721.000000	2.309489 
1720.000000	2.304077 
1719.000000	2.299308 
1718.000000	2.295613 
1717.000000	2.293300 
1716.000000	2.292394 
1715.000000	2.292728 
1714.000000	2.293944 
1713.000000	2.295470 
1712.000000	2.296757 
1711.000000	2.297353 
1710.000000	2.296876 
1709.000000	2.295017 
1708.000000	2.291774 
1707.000000	2.287220 
1706.000000	2.281546 
1705.000000	2.275013 
1704.000000	2.267980 
1703.000000	2.260899 
1702.000000	2.254128 
1701.000000	2.248167 
1700.000000	2.243399 
1699.000000	2.240252 
1698.000000	2.238893 
1697.000000	2.239298 
1696.000000	2.241253 
1695.000000	2.244234 
1694.000000	2.247571 
1693.000000	2.250504 
1692.000000	2.252340 
1691.000000	2.252578 
1690.000000	2.251076 
1689.000000	2.248001 
1688.000000	2.243828 
1687.000000	2.239227 
1686.000000	2.234959 
1685.000000	2.231621 
1684.000000	2.229571 
1683.000000	2.228879 
1682.000000	2.229261 
1681.000000	2.230262 
1680.000000	2.231335 
1679.000000	2.231979 
1678.000000	2.231884 
1677.000000	2.230882 
1676.000000	2.229166 
1675.000000	2.227020 
1674.000000	2.224707 
1673.000000	2.222585 
1672.000000	2.220797 
1671.000000	2.219462 
1670.000000	2.218532 
1669.000000	2.217841 
1668.000000	2.217268 
1667.000000	2.216696 
1666.000000	2.216005 
1665.000000	2.215027 
1664.000000	2.213644 
1663.000000	2.211666 
1662.000000	2.208828 
1661.000000	2.204895 
1660.000000	2.199625 
1659.000000	2.193021 
1658.000000	2.185273 
1657.000000	2.176809 
1656.000000	2.168202 
1655.000000	2.160215 
1654.000000	2.153444 
1653.000000	2.148389 
1652.000000	2.145266 
1651.000000	2.144074 
1650.000000	2.144551 
1649.000000	2.146315 
1648.000000	2.148795 
1647.000000	2.151513 
1646.000000	2.154016 
1645.000000	2.155923 
1644.000000	2.156949 
1643.000000	2.156901 
1642.000000	2.155828 
1641.000000	2.153682 
1640.000000	2.150726 
1639.000000	2.147221 
1638.000000	2.143549 
1637.000000	2.140116 
1636.000000	2.137255 
1635.000000	2.135086 
1634.000000	2.133679 
1633.000000	2.132821 
1632.000000	2.132153 
1631.000000	2.131342 
1630.000000	2.130031 
1629.000000	2.127957 
1628.000000	2.125096 
1627.000000	2.121305 
1626.000000	2.116632 
1625.000000	2.111220 
1624.000000	2.105093 
1623.000000	2.098178 
1622.000000	2.090597 
1621.000000	2.082300 
1620.000000	2.073407 
1619.000000	2.063941 
1618.000000	2.054142 
1617.000000	2.044224 
1616.000000	2.034306 
1615.000000	2.024650 
1614.000000	2.015256 
1613.000000	2.006435 
1612.000000	1.998257 
1611.000000	1.990914 
1610.000000	1.984620 
1609.000000	1.979660 
1608.000000	1.976203 
1607.000000	1.974439 
1606.000000	1.974391 
1605.000000	1.975917 
1604.000000	1.978826 
1603.000000	1.982760 
1602.000000	1.987338 
1601.000000	1.992249 
1600.000000	1.997160 
1599.000000	2.001881 
1598.000000	2.006268 
1597.000000	2.010226 
1596.000000	2.013683 
1595.000000	2.016663 
1594.000000	2.019071 
1593.000000	2.020907 
1592.000000	2.022051 
1591.000000	2.022647 
1590.000000	2.022552 
1589.000000	2.021908 
1588.000000	2.020621 
1587.000000	2.018809 
1586.000000	2.016472 
1585.000000	2.013587 
1584.000000	2.010178 
1583.000000	2.006268 
1582.000000	2.001976 
1581.000000	1.997470 
1580.000000	1.992964 
1579.000000	1.988744 
1578.000000	1.985025 
1577.000000	1.982021 
1576.000000	1.979827 
1575.000000	1.978445 
1574.000000	1.977777 
1573.000000	1.977562 
1572.000000	1.977586 
1571.000000	1.977491 
1570.000000	1.976966 
1569.000000	1.975584 
1568.000000	1.972985 
1567.000000	1.968979 
1566.000000	1.963305 
1565.000000	1.956105 
1564.000000	1.947736 
1563.000000	1.938724 
1562.000000	1.929831 
1561.000000	1.921987 
1560.000000	1.915979 
1559.000000	1.912569 
1558.000000	1.912021 
1557.000000	1.914310 
1556.000000	1.919007 
1555.000000	1.925396 
1554.000000	1.932549 
1553.000000	1.939582 
1552.000000	1.945734 
1551.000000	1.950383 
1550.000000	1.953268 
1549.000000	1.954340 
1548.000000	1.953887 
1547.000000	1.952242 
1546.000000	1.950192 
1545.000000	1.948332 
1544.000000	1.947546 
1543.000000	1.948571 
1542.000000	1.951980 
1541.000000	1.958179 
1540.000000	1.967167 
1539.000000	1.978731 
1538.000000	1.992440 
1537.000000	2.007484 
1536.000000	2.023124 
1535.000000	2.038550 
1534.000000	2.053046 
1533.000000	2.066016 
1532.000000	2.077102 
1531.000000	2.086186 
1530.000000	2.093243 
1529.000000	2.098321 
1528.000000	2.101516 
1527.000000	2.103161 
1526.000000	2.103590 
1525.000000	2.103090 
1524.000000	2.102017 
1523.000000	2.100706 
1522.000000	2.099537 
1521.000000	2.098631 
1520.000000	2.098107 
1519.000000	2.097821 
1518.000000	2.097630 
1517.000000	2.097272 
1516.000000	2.096414 
1515.000000	2.094721 
1514.000000	2.091908 
1513.000000	2.087879 
1512.000000	2.082681 
1511.000000	2.076268 
1510.000000	2.068877 
1509.000000	2.060461 
1508.000000	2.050781 
1507.000000	2.039337 
1506.000000	2.025365 
1505.000000	2.007865 
1504.000000	1.985907 
1503.000000	1.958703 
1502.000000	1.926064 
1501.000000	1.888489 
1500.000000	1.847457 
1499.000000	1.805114 
1498.000000	1.764154 
1497.000000	1.727581 
1496.000000	1.698136 
1495.000000	1.677942 
1494.000000	1.668286 
1493.000000	1.669383 
1492.000000	1.680564 
1491.000000	1.700210 
1490.000000	1.726293 
1489.000000	1.756453 
1488.000000	1.788568 
1487.000000	1.820611 
1486.000000	1.850986 
1485.000000	1.878499 
1484.000000	1.902532 
1483.000000	1.922631 
1482.000000	1.938796 
1481.000000	1.951074 
1480.000000	1.959848 
1479.000000	1.965665 
1478.000000	1.969099 
1477.000000	1.970744 
1476.000000	1.971101 
1475.000000	1.970815 
1474.000000	1.970171 
1473.000000	1.969361 
1472.000000	1.968383 
1471.000000	1.967215 
1470.000000	1.965689 
1469.000000	1.963448 
1468.000000	1.960253 
1467.000000	1.955819 
1466.000000	1.949882 
1465.000000	1.942133 
1464.000000	1.932358 
1463.000000	1.920461 
1462.000000	1.906466 
1461.000000	1.890468 
1460.000000	1.872777 
1459.000000	1.853919 
1458.000000	1.834678 
1457.000000	1.815962 
1456.000000	1.798582 
1455.000000	1.783514 
1454.000000	1.771664 
1453.000000	1.763772 
1452.000000	1.760172 
1451.000000	1.760911 
1450.000000	1.765799 
1449.000000	1.774239 
1448.000000	1.785254 
1447.000000	1.797795 
1446.000000	1.810789 
1445.000000	1.823163 
1444.000000	1.834058 
1443.000000	1.842999 
1442.000000	1.849770 
1441.000000	1.854515 
1440.000000	1.857590 
1439.000000	1.859474 
1438.000000	1.860666 
1437.000000	1.861667 
1436.000000	1.862668 
1435.000000	1.863837 
1434.000000	1.865077 
1433.000000	1.866316 
1432.000000	1.867437 
1431.000000	1.868271 
1430.000000	1.868653 
1429.000000	1.868605 
1428.000000	1.868104 
1427.000000	1.867079 
1426.000000	1.865601 
1425.000000	1.863718 
1424.000000	1.861500 
1423.000000	1.859116 
1422.000000	1.856613 
1421.000000	1.854157 
1420.000000	1.851844 
1419.000000	1.849675 
1418.000000	1.847529 
1417.000000	1.845097 
1416.000000	1.842069 
1415.000000	1.838016 
1414.000000	1.832556 
1413.000000	1.825380 
1412.000000	1.816272 
1411.000000	1.805424 
1410.000000	1.793122 
1409.000000	1.779961 
1408.000000	1.766681 
1407.000000	1.754093 
1406.000000	1.743006 
1405.000000	1.734137 
1404.000000	1.727867 
1403.000000	1.724576 
1402.000000	1.724219 
1401.000000	1.726555 
1400.000000	1.731204 
1399.000000	1.737666 
1398.000000	1.745343 
1397.000000	1.753687 
1396.000000	1.762056 
1395.000000	1.769948 
1394.000000	1.776862 
1393.000000	1.782488 
1392.000000	1.786541 
1391.000000	1.788973 
1390.000000	1.789927 
1389.000000	1.789665 
1388.000000	1.788616 
1387.000000	1.787328 
1386.000000	1.786327 
1385.000000	1.786041 
1384.000000	1.786684 
1383.000000	1.788353 
1382.000000	1.790928 
1381.000000	1.794123 
1380.000000	1.797604 
1379.000000	1.801013 
1378.000000	1.804137 
1377.000000	1.806759 
1376.000000	1.808905 
1375.000000	1.810598 
1374.000000	1.812005 
1373.000000	1.813173 
1372.000000	1.814174 
1371.000000	1.815128 
1370.000000	1.815915 
1369.000000	1.816558 
1368.000000	1.817035 
1367.000000	1.817274 
1366.000000	1.817345 
1365.000000	1.817250 
1364.000000	1.817107 
1363.000000	1.817011 
1362.000000	1.816987 
1361.000000	1.817059 
1360.000000	1.817250 
1359.000000	1.817464 
1358.000000	1.817655 
1357.000000	1.817727 
1356.000000	1.817679 
1355.000000	1.817464 
1354.000000	1.817154 
1353.000000	1.816725 
1352.000000	1.816225 
1351.000000	1.815724 
1350.000000	1.815247 
1349.000000	1.814818 
1348.000000	1.814460 
1347.000000	1.814174 
1346.000000	1.813960 
1345.000000	1.813817 
1344.000000	1.813840 
1343.000000	1.814055 
1342.000000	1.814579 
1341.000000	1.815485 
1340.000000	1.816821 
1339.000000	1.818656 
1338.000000	1.820993 
1337.000000	1.823759 
1336.000000	1.826882 
1335.000000	1.830220 
1334.000000	1.833581 
1333.000000	1.836895 
1332.000000	1.839995 
1331.000000	1.842832 
1330.000000	1.845312 
1329.000000	1.847338 
1328.000000	1.849007 
1327.000000	1.850318 
1326.000000	1.851320 
1325.000000	1.852107 
1324.000000	1.852726 
1323.000000	1.853179 
1322.000000	1.853632 
1321.000000	1.854062 
1320.000000	1.854467 
1319.000000	1.854920 
1318.000000	1.855397 
1317.000000	1.855850 
1316.000000	1.856303 
1315.000000	1.856637 
1314.000000	1.856923 
1313.000000	1.857066 
1312.000000	1.857089 
1311.000000	1.857042 
1310.000000	1.856875 
1309.000000	1.856684 
1308.000000	1.856470 
1307.000000	1.856279 
1306.000000	1.856136 
1305.000000	1.856017 
1304.000000	1.856017 
1303.000000	1.856112 
1302.000000	1.856279 
1301.000000	1.856470 
1300.000000	1.856637 
1299.000000	1.856827 
1298.000000	1.856994 
1297.000000	1.857089 
1296.000000	1.857089 
1295.000000	1.857066 
1294.000000	1.856970 
1293.000000	1.856803 
1292.000000	1.856565 
1291.000000	1.856327 
1290.000000	1.856064 
1289.000000	1.855778 
1288.000000	1.855421 
1287.000000	1.855015 
1286.000000	1.854491 
1285.000000	1.853895 
1284.000000	1.853132 
1283.000000	1.852130 
1282.000000	1.850891 
1281.000000	1.849341 
1280.000000	1.847386 
1279.000000	1.844954 
1278.000000	1.841998 
1277.000000	1.838350 
1276.000000	1.833963 
1275.000000	1.828718 
1274.000000	1.822447 
1273.000000	1.815176 
1272.000000	1.806759 
1271.000000	1.797175 
1270.000000	1.786613 
1269.000000	1.775288 
1268.000000	1.763558 
1267.000000	1.751899 
1266.000000	1.740932 
1265.000000	1.731324 
1264.000000	1.723718 
1263.000000	1.718640 
1262.000000	1.716470 
1261.000000	1.717400 
1260.000000	1.721310 
1259.000000	1.727890 
1258.000000	1.736640 
1257.000000	1.746940 
1256.000000	1.758098 
1255.000000	1.769399 
1254.000000	1.780343 
1253.000000	1.790475 
1252.000000	1.799535 
1251.000000	1.807379 
1250.000000	1.813912 
1249.000000	1.819229 
1248.000000	1.823496 
1247.000000	1.826834 
1246.000000	1.829433 
1245.000000	1.831412 
1244.000000	1.832866 
1243.000000	1.833963 
1242.000000	1.834750 
1241.000000	1.835203 
1240.000000	1.835465 
1239.000000	1.835465 
1238.000000	1.835250 
1237.000000	1.834797 
1236.000000	1.834154 
1235.000000	1.833319 
1234.000000	1.832342 
1233.000000	1.831197 
1232.000000	1.829934 
1231.000000	1.828551 
1230.000000	1.827049 
1229.000000	1.825380 
1228.000000	1.823592 
1227.000000	1.821541 
1226.000000	1.819276 
1225.000000	1.816773 
1224.000000	1.813960 
1223.000000	1.810836 
1222.000000	1.807403 
1221.000000	1.803660 
1220.000000	1.799559 
1219.000000	1.795148 
1218.000000	1.790428 
1217.000000	1.785516 
1216.000000	1.780414 
1215.000000	1.775264 
1214.000000	1.770162 
1213.000000	1.765275 
1212.000000	1.760673 
1211.000000	1.756501 
1210.000000	1.752829 
1209.000000	1.749777 
1208.000000	1.747250 
1207.000000	1.745343 
1206.000000	1.743984 
1205.000000	1.743102 
1204.000000	1.742649 
1203.000000	1.742625 
1202.000000	1.742863 
1201.000000	1.743292 
1200.000000	1.743817 
1199.000000	1.744318 
1198.000000	1.744675 
1197.000000	1.744842 
1196.000000	1.744747 
1195.000000	1.744318 
1194.000000	1.743578 
1193.000000	1.742577 
1192.000000	1.741337 
1191.000000	1.739835 
1190.000000	1.738166 
1189.000000	1.736307 
1188.000000	1.734304 
1187.000000	1.732110 
1186.000000	1.729750 
1185.000000	1.727199 
1184.000000	1.724505 
1183.000000	1.721692 
1182.000000	1.718783 
1181.000000	1.715803 
1180.000000	1.712703 
1179.000000	1.709580 
1178.000000	1.706361 
1177.000000	1.703071 
1176.000000	1.699662 
1175.000000	1.696109 
1174.000000	1.692438 
1173.000000	1.688575 
1172.000000	1.684522 
1171.000000	1.680326 
1170.000000	1.675987 
1169.000000	1.671481 
1168.000000	1.666831 
1167.000000	1.662015 
1166.000000	1.657128 
1165.000000	1.652097 
1164.000000	1.647067 
1163.000000	1.642060 
1162.000000	1.637196 
1161.000000	1.632666 
1160.000000	1.628494 
1159.000000	1.624822 
1158.000000	1.621651 
1157.000000	1.619052 
1156.000000	1.616954 
1155.000000	1.615214 
1154.000000	1.613807 
1153.000000	1.612591 
1152.000000	1.611447 
1151.000000	1.610279 
1150.000000	1.609015 
1149.000000	1.607608 
1148.000000	1.606082 
1147.000000	1.604437 
1146.000000	1.602697 
1145.000000	1.600861 
1144.000000	1.598978 
1143.000000	1.596975 
1142.000000	1.594853 
1141.000000	1.592564 
1140.000000	1.590013 
1139.000000	1.587224 
1138.000000	1.584100 
1137.000000	1.580691 
1136.000000	1.576924 
1135.000000	1.572895 
1134.000000	1.568603 
1133.000000	1.564097 
1132.000000	1.559400 
1131.000000	1.554584 
1130.000000	1.549673 
1129.000000	1.544690 
1128.000000	1.539683 
1127.000000	1.534628 
1126.000000	1.529526 
1125.000000	1.524400 
1124.000000	1.519250 
1123.000000	1.514077 
1122.000000	1.508927 
1121.000000	1.503753 
1120.000000	1.498556 
1119.000000	1.493334 
1118.000000	1.488041 
1117.000000	1.482748 
1116.000000	1.477456 
1115.000000	1.472234 
1114.000000	1.467180 
1113.000000	1.462340 
1112.000000	1.457786 
1111.000000	1.453638 
1110.000000	1.449871 
1109.000000	1.446580 
1108.000000	1.443696 
1107.000000	1.441192 
1106.000000	1.439023 
1105.000000	1.437163 
1104.000000	1.435518 
1103.000000	1.434016 
1102.000000	1.432657 
1101.000000	1.431417 
1100.000000	1.430296 
1099.000000	1.429295 
1098.000000	1.428413 
1097.000000	1.427674 
1096.000000	1.427125 
1095.000000	1.426720 
1094.000000	1.426482 
1093.000000	1.426482 
1092.000000	1.426601 
1091.000000	1.426863 
1090.000000	1.427221 
1089.000000	1.427602 
1088.000000	1.427984 
1087.000000	1.428318 
1086.000000	1.428484 
1085.000000	1.428461 
1084.000000	1.428246 
1083.000000	1.427888 
1082.000000	1.427435 
1081.000000	1.426935 
1080.000000	1.426506 
1079.000000	1.426267 
1078.000000	1.426291 
1077.000000	1.426672 
1076.000000	1.427435 
1075.000000	1.428580 
1074.000000	1.430058 
1073.000000	1.431775 
1072.000000	1.433563 
1071.000000	1.435303 
1070.000000	1.436877 
1069.000000	1.438188 
1068.000000	1.439118 
1067.000000	1.439642 
1066.000000	1.439666 
1065.000000	1.439189 
1064.000000	1.437973 
1063.000000	1.435852 
1062.000000	1.432538 
1061.000000	1.427626 
1060.000000	1.420688 
1059.000000	1.411461 
1058.000000	1.399779 
1057.000000	1.385807 
1056.000000	1.370048 
1055.000000	1.353454 
1054.000000	1.337099 
1053.000000	1.322364 
1052.000000	1.310563 
1051.000000	1.302671 
1050.000000	1.299428 
1049.000000	1.300859 
1048.000000	1.306629 
1047.000000	1.315832 
1046.000000	1.327252 
1045.000000	1.339650 
1044.000000	1.351785 
1043.000000	1.362705 
1042.000000	1.371765 
1041.000000	1.378679 
1040.000000	1.383495 
1039.000000	1.386451 
1038.000000	1.387834 
1037.000000	1.388049 
1036.000000	1.387429 
1035.000000	1.386189 
1034.000000	1.384544 
1033.000000	1.382541 
1032.000000	1.380324 
1031.000000	1.377916 
1030.000000	1.375365 
1029.000000	1.372742 
1028.000000	1.370120 
1027.000000	1.367616 
1026.000000	1.365351 
1025.000000	1.363372 
1024.000000	1.361823 
1023.000000	1.360774 
1022.000000	1.360273 
1021.000000	1.360368 
1020.000000	1.361083 
1019.000000	1.362323 
1018.000000	1.364064 
1017.000000	1.366186 
1016.000000	1.368546 
1015.000000	1.371073 
1014.000000	1.373696 
1013.000000	1.376366 
1012.000000	1.378941 
1011.000000	1.381444 
1010.000000	1.383876 
1009.000000	1.386237 
1008.000000	1.388502 
1007.000000	1.390647 
1006.000000	1.392650 
1005.000000	1.394462 
1004.000000	1.396083 
1003.000000	1.397514 
1002.000000	1.398658 
1001.000000	1.399564 
1000.000000	1.400208 
999.000000	 1.400661 
998.000000	 1.400876 
997.000000	 1.400923 
996.000000	 1.400756 
995.000000	 1.400375 
994.000000	 1.399755 
993.000000	 1.398921 
992.000000	 1.397848 
991.000000	 1.396536 
990.000000	 1.395058 
989.000000	 1.393437 
988.000000	 1.391696 
987.000000	 1.389980 
986.000000	 1.388239 
985.000000	 1.386523 
984.000000	 1.384830 
983.000000	 1.383137 
982.000000	 1.381421 
981.000000	 1.379656 
980.000000	 1.377820 
979.000000	 1.375842 
978.000000	 1.373767 
977.000000	 1.371526 
976.000000	 1.369142 
975.000000	 1.366519 
974.000000	 1.363801 
973.000000	 1.360917 
972.000000	 1.357889 
971.000000	 1.354718 
970.000000	 1.351475 
969.000000	 1.348161 
968.000000	 1.344776 
967.000000	 1.341366 
966.000000	 1.337981 
965.000000	 1.334524 
964.000000	 1.330995 
963.000000	 1.327419 
962.000000	 1.323723 
961.000000	 1.319980 
960.000000	 1.316213 
959.000000	 1.312398 
958.000000	 1.308655 
957.000000	 1.304960 
956.000000	 1.301383 
955.000000	 1.297926 
954.000000	 1.294589 
953.000000	 1.291322 
952.000000	 1.288151 
951.000000	 1.285052 
950.000000	 1.282024 
949.000000	 1.279115 
948.000000	 1.276397 
947.000000	 1.273894 
946.000000	 1.271581 
945.000000	 1.269531 
944.000000	 1.267647 
943.000000	 1.265907 
942.000000	 1.264166 
941.000000	 1.262402 
940.000000	 1.260495 
939.000000	 1.258420 
938.000000	 1.256179 
937.000000	 1.253700 
936.000000	 1.251101 
935.000000	 1.248431 
934.000000	 1.245713 
933.000000	 1.243066 
932.000000	 1.240468 
931.000000	 1.238059 
930.000000	 1.235747 
929.000000	 1.233649 
928.000000	 1.231718 
927.000000	 1.229906 
926.000000	 1.228189 
925.000000	 1.226496 
924.000000	 1.224756 
923.000000	 1.222968 
922.000000	 1.221036 
921.000000	 1.218962 
920.000000	 1.216650 
919.000000	 1.214027 
918.000000	 1.211142 
917.000000	 1.207900 
916.000000	 1.204323 
915.000000	 1.200413 
914.000000	 1.196289 
913.000000	 1.192021 
912.000000	 1.187658 
911.000000	 1.183390 
910.000000	 1.179289 
909.000000	 1.175451 
908.000000	 1.171946 
907.000000	 1.168775 
906.000000	 1.165938 
905.000000	 1.163434 
904.000000	 1.161193 
903.000000	 1.159262 
902.000000	 1.157546 
901.000000	 1.156044 
900.000000	 1.154708 
899.000000	 1.153492 
898.000000	 1.152324 
897.000000	 1.151108 
896.000000	 1.149749 
895.000000	 1.148176 
894.000000	 1.146149 
893.000000	 1.143670 
892.000000	 1.140546 
891.000000	 1.136660 
890.000000	 1.131963 
889.000000	 1.126360 
888.000000	 1.119899 
887.000000	 1.112556 
886.000000	 1.104450 
885.000000	 1.095700 
884.000000	 1.086544 
883.000000	 1.077175 
882.000000	 1.067900 
881.000000	 1.059031 
880.000000	 1.050877 
879.000000	 1.043701 
878.000000	 1.037812 
877.000000	 1.033425 
876.000000	 1.030707 
875.000000	 1.029753 
874.000000	 1.030516 
873.000000	 1.032924 
872.000000	 1.036715 
871.000000	 1.041674 
870.000000	 1.047396 
869.000000	 1.053571 
868.000000	 1.059842 
867.000000	 1.065897 
866.000000	 1.071500 
865.000000	 1.076459 
864.000000	 1.080727 
863.000000	 1.084280 
862.000000	 1.087069 
861.000000	 1.089167 
860.000000	 1.090645 
859.000000	 1.091551 
858.000000	 1.091957 
857.000000	 1.091909 
856.000000	 1.091480 
855.000000	 1.090764 
854.000000	 1.089811 
853.000000	 1.088714 
852.000000	 1.087498 
851.000000	 1.086211 
850.000000	 1.084923 
849.000000	 1.083612 
848.000000	 1.082229 
847.000000	 1.080751 
846.000000	 1.079154 
845.000000	 1.077365 
844.000000	 1.075243 
843.000000	 1.072716 
842.000000	 1.069641 
841.000000	 1.065778 
840.000000	 1.060914 
839.000000	 1.054954 
838.000000	 1.047468 
837.000000	 1.038336 
836.000000	 1.027321 
835.000000	 1.014256 
834.000000	 0.999116 
833.000000	 0.982046 
832.000000	 0.963330 
831.000000	 0.943470 
830.000000	 0.923228 
829.000000	 0.903463 
828.000000	 0.885248 
827.000000	 0.869631 
826.000000	 0.857520 
825.000000	 0.849604 
824.000000	 0.846242 
823.000000	 0.847434 
822.000000	 0.852680 
821.000000	 0.861239 
820.000000	 0.872111 
819.000000	 0.884246 
818.000000	 0.896549 
817.000000	 0.908160 
816.000000	 0.918483 
815.000000	 0.927114 
814.000000	 0.933957 
813.000000	 0.939106 
812.000000	 0.942730 
811.000000	 0.945186 
810.000000	 0.946736 
809.000000	 0.947499 
808.000000	 0.947809 
807.000000	 0.947761 
806.000000	 0.947499 
805.000000	 0.947022 
804.000000	 0.946545 
803.000000	 0.946116 
802.000000	 0.945806 
801.000000	 0.945711 
800.000000	 0.945925 
799.000000	 0.946521 
798.000000	 0.947499 
797.000000	 0.948834 
796.000000	 0.950551 
795.000000	 0.952577 
794.000000	 0.954914 
793.000000	 0.957441 
792.000000	 0.960111 
791.000000	 0.962829 
790.000000	 0.965571 
789.000000	 0.968194 
788.000000	 0.970602 
787.000000	 0.972771 
786.000000	 0.974655 
785.000000	 0.976085 
784.000000	 0.977158 
783.000000	 0.977754 
782.000000	 0.977993 
781.000000	 0.977897 
780.000000	 0.977540 
779.000000	 0.976991 
778.000000	 0.976347 
777.000000	 0.975656 
776.000000	 0.974965 
775.000000	 0.974249 
774.000000	 0.973534 
773.000000	 0.972843 
772.000000	 0.972151 
771.000000	 0.971484 
770.000000	 0.970816 
769.000000	 0.970149 
768.000000	 0.969505 
767.000000	 0.968861 
766.000000	 0.968217 
765.000000	 0.967574 
764.000000	 0.966882 
763.000000	 0.966143 
762.000000	 0.965356 
761.000000	 0.964474 
760.000000	 0.963568 
759.000000	 0.962615 
758.000000	 0.961661 
757.000000	 0.960731 
756.000000	 0.959753 
755.000000	 0.958824 
754.000000	 0.957918 
753.000000	 0.956940 
752.000000	 0.955891 
751.000000	 0.954723 
750.000000	 0.953507 
749.000000	 0.952124 
748.000000	 0.950622 
747.000000	 0.949001 
746.000000	 0.947308 
745.000000	 0.945544 
744.000000	 0.943684 
743.000000	 0.941729 
742.000000	 0.939679 
741.000000	 0.937509 
740.000000	 0.935220 
739.000000	 0.932860 
738.000000	 0.930380 
737.000000	 0.927853 
736.000000	 0.925207 
735.000000	 0.922560 
734.000000	 0.919890 
733.000000	 0.917220 
732.000000	 0.914525 
731.000000	 0.911855 
730.000000	 0.909137 
729.000000	 0.906395 
728.000000	 0.903606 
727.000000	 0.900816 
726.000000	 0.897955 
725.000000	 0.895094 
724.000000	 0.892233 
723.000000	 0.889372 
722.000000	 0.886464 
721.000000	 0.883579 
720.000000	 0.880670 
719.000000	 0.877785 
718.000000	 0.874853 
717.000000	 0.871920 
716.000000	 0.868964 
715.000000	 0.865960 
714.000000	 0.862932 
713.000000	 0.859832 
712.000000	 0.856685 
711.000000	 0.853490 
710.000000	 0.850272 
709.000000	 0.847005 
708.000000	 0.843739 
707.000000	 0.840449 
706.000000	 0.837159 
705.000000	 0.833797 
704.000000	 0.830411 
703.000000	 0.826883 
702.000000	 0.823163 
701.000000	 0.819182 
700.000000	 0.814843 
699.000000	 0.810074 
698.000000	 0.804758 
697.000000	 0.798845 
696.000000	 0.792241 
695.000000	 0.785088 
694.000000	 0.777387 
693.000000	 0.769424 
692.000000	 0.761413 
691.000000	 0.753760 
690.000000	 0.746798 
689.000000	 0.740861 
688.000000	 0.736212 
687.000000	 0.732946 
686.000000	 0.731086 
685.000000	 0.730443 
684.000000	 0.730705 
683.000000	 0.731563 
682.000000	 0.732660 
681.000000	 0.733685 
680.000000	 0.734376 
679.000000	 0.734567 
678.000000	 0.734257 
677.000000	 0.733447 
676.000000	 0.732111 
675.000000	 0.730395 
674.000000	 0.728368 
673.000000	 0.726127 
672.000000	 0.723791 
671.000000	 0.721454 
670.000000	 0.719118 
669.000000	 0.716853 
668.000000	 0.714659 
667.000000	 0.712561 
666.000000	 0.710463 
665.000000	 0.708413 
664.000000	 0.706291 
663.000000	 0.704097 
662.000000	 0.701808 
661.000000	 0.699400 
660.000000	 0.696969 
659.000000	 0.694465 
658.000000	 0.691914 
657.000000	 0.689291 
656.000000	 0.686645 
655.000000	 0.683927 
654.000000	 0.681161 
653.000000	 0.678324 
652.000000	 0.675487 
651.000000	 0.672650 
650.000000	 0.669884 
649.000000	 0.667190 
648.000000	 0.664591 
647.000000	 0.662064 
646.000000	 0.659656 
645.000000	 0.657248 
644.000000	 0.654840 
643.000000	 0.652408 
642.000000	 0.649881 
641.000000	 0.647258 
640.000000	 0.644540 
639.000000	 0.641798 
638.000000	 0.639033 
637.000000	 0.636315 
636.000000	 0.633692 
635.000000	 0.631165 
634.000000	 0.628805 
633.000000	 0.626587 
632.000000	 0.624465 
631.000000	 0.622415 
630.000000	 0.620365 
629.000000	 0.618267 
628.000000	 0.616049 
627.000000	 0.613641 
626.000000	 0.611042 
625.000000	 0.608158 
624.000000	 0.605082 
623.000000	 0.601792 
622.000000	 0.598430 
621.000000	 0.594854 
620.000000	 0.591230 
619.000000	 0.587487 
618.000000	 0.583624 
617.000000	 0.579619 
616.000000	 0.575399 
615.000000	 0.570893 
614.000000	 0.566148 
613.000000	 0.561165 
612.000000	 0.555968 
611.000000	 0.550675 
610.000000	 0.545501 
609.000000	 0.540614 
608.000000	 0.536155 
607.000000	 0.532388 
606.000000	 0.529384 
605.000000	 0.527191 
604.000000	 0.525736 
603.000000	 0.524973 
602.000000	 0.524640 
601.000000	 0.524616 
600.000000	 0.524663 
599.000000	 0.524616 
598.000000	 0.524330 
597.000000	 0.523734 
596.000000	 0.522804 
595.000000	 0.521636 
594.000000	 0.520253 
593.000000	 0.518751 
592.000000	 0.517201 
591.000000	 0.515675 
590.000000	 0.514292 
589.000000	 0.513005 
588.000000	 0.511837 
587.000000	 0.510787 
586.000000	 0.509834 
585.000000	 0.508952 
584.000000	 0.508093 
583.000000	 0.507283 
582.000000	 0.506496 
581.000000	 0.505733 
580.000000	 0.504946 
579.000000	 0.504136 
578.000000	 0.503277 
577.000000	 0.502324 
576.000000	 0.501251 
575.000000	 0.500035 
574.000000	 0.498628 
573.000000	 0.497150 
572.000000	 0.495600 
571.000000	 0.494027 
570.000000	 0.492429 
569.000000	 0.490951 
568.000000	 0.489521 
567.000000	 0.488114 
566.000000	 0.486826 
565.000000	 0.485539 
564.000000	 0.484275 
563.000000	 0.482940 
562.000000	 0.481605 
561.000000	 0.480222 
560.000000	 0.478720 
559.000000	 0.477123 
558.000000	 0.475430 
557.000000	 0.473690 
556.000000	 0.471878 
555.000000	 0.470042 
554.000000	 0.468206 
553.000000	 0.466370 
552.000000	 0.464534 
551.000000	 0.462722 
550.000000	 0.460958 
549.000000	 0.459218 
548.000000	 0.457453 
547.000000	 0.455737 
546.000000	 0.454020 
545.000000	 0.452280 
544.000000	 0.450539 
543.000000	 0.448751 
542.000000	 0.446891 
541.000000	 0.444984 
540.000000	 0.443053 
539.000000	 0.441122 
538.000000	 0.439214 
537.000000	 0.437283 
536.000000	 0.435376 
535.000000	 0.433468 
534.000000	 0.431537 
533.000000	 0.429582 
532.000000	 0.427579 
531.000000	 0.425457 
530.000000	 0.423216 
529.000000	 0.420880 
528.000000	 0.418424 
527.000000	 0.415873 
526.000000	 0.413298 
525.000000	 0.410747 
524.000000	 0.408220 
523.000000	 0.405788 
522.000000	 0.403475 
521.000000	 0.401163 
520.000000	 0.398921 
519.000000	 0.396680 
518.000000	 0.394463 
517.000000	 0.392246 
516.000000	 0.390052 
515.000000	 0.387811 
514.000000	 0.385522 
513.000000	 0.383162 
512.000000	 0.380730 
511.000000	 0.378274 
510.000000	 0.375747 
509.000000	 0.373196 
508.000000	 0.370645 
507.000000	 0.368022 
506.000000	 0.365376 
505.000000	 0.362682 
504.000000	 0.359940 
503.000000	 0.357103 
502.000000	 0.354123 
501.000000	 0.350999 
500.000000	 0.347733 
499.000000	 0.344252 
498.000000	 0.340652 
497.000000	 0.336885 
496.000000	 0.333046 
495.000000	 0.329184 
494.000000	 0.325322 
493.000000	 0.321507 
492.000000	 0.317740 
491.000000	 0.314044 
490.000000	 0.310420 
489.000000	 0.306892 
488.000000	 0.303339 
487.000000	 0.299811 
486.000000	 0.296258 
485.000000	 0.292658 
484.000000	 0.289058 
483.000000	 0.285506 
482.000000	 0.281977 
481.000000	 0.278568 
480.000000	 0.275278 
479.000000	 0.272130 
478.000000	 0.269103 
477.000000	 0.266194 
476.000000	 0.263357 
475.000000	 0.260567 
474.000000	 0.257802 
473.000000	 0.255036 
472.000000	 0.252246 
471.000000	 0.249433 
470.000000	 0.246644 
469.000000	 0.243782 
468.000000	 0.240874 
467.000000	 0.237941 
466.000000	 0.234913 
465.000000	 0.231742 
464.000000	 0.228476 
463.000000	 0.224971 
462.000000	 0.221300 
461.000000	 0.217461 
460.000000	 0.213479 
459.000000	 0.209307 
458.000000	 0.205063 
457.000000	 0.200843 
456.000000	 0.196647 
455.000000	 0.192618 
454.000000	 0.188803 
453.000000	 0.185227 
452.000000	 0.181961 
451.000000	 0.178956 
450.000000	 0.176215 
449.000000	 0.173616 
448.000000	 0.171113 
447.000000	 0.168681 
446.000000	 0.166201 
445.000000	 0.163626 
444.000000	 0.160932 
443.000000	 0.158119 
442.000000	 0.155162 
441.000000	 0.152134 
440.000000	 0.149059 
439.000000	 0.145959 
438.000000	 0.142836 
437.000000	 0.139737 
436.000000	 0.136709 
435.000000	 0.133728 
434.000000	 0.130724 
433.000000	 0.127744 
432.000000	 0.124716 
431.000000	 0.121617 
430.000000	 0.118470 
429.000000	 0.115251 
428.000000	 0.111937 
427.000000	 0.108599 
426.000000	 0.105285 
425.000000	 0.101995 
424.000000	 0.098824 
423.000000	 0.095748 
422.000000	 0.092792 
421.000000	 0.089979 
420.000000	 0.087237 
419.000000	 0.084590 
418.000000	 0.081992 
417.000000	 0.079393 
416.000000	 0.076842 
415.000000	 0.074219 
414.000000	 0.071573 
413.000000	 0.068902 
412.000000	 0.066161 
411.000000	 0.063443 
410.000000	 0.060725 
409.000000	 0.058054 
408.000000	 0.055527 
407.000000	 0.053119 
406.000000	 0.050878 
405.000000	 0.048780 
404.000000	 0.046920 
403.000000	 0.045108 
402.000000	 0.043416 
401.000000	 0.041770 
400.000000	 0.040102 
399.000000	 0.038385 
398.000000	 0.036621 
397.000000	 0.034785 
396.000000	 0.032925 
395.000000	 0.031065 
394.000000	 0.029253 
393.000000	 0.027537 
392.000000	 0.025892 
391.000000	 0.024437 
390.000000	 0.023055 
389.000000	 0.021815 
388.000000	 0.020670 
387.000000	 0.019669 
386.000000	 0.018692 
385.000000	 0.017738 
384.000000	 0.016808 
383.000000	 0.015878 
382.000000	 0.014925 
381.000000	 0.013995 
380.000000	 0.013041 
379.000000	 0.012159 
378.000000	 0.011301 
377.000000	 0.010538 
376.000000	 0.009822 
375.000000	 0.009202 
374.000000	 0.008678 
373.000000	 0.008153 
372.000000	 0.007748 
371.000000	 0.007367 
370.000000	 0.007033 

