PE IR       SPECTRUM    SPECTRUM    ASCII       PEDS        1.60        
  -1
BZ2C7E~1.ASC
17/04/10
10:09:00.00
17/04/10
10:09:00.00
tln
$BZ12041010-4_t0015$<tbV0>[-5.2,-7.2,9.0,0.0,22,1,0]
370.000000
64









2002,4.07    
MIRTGS : RIGHTBACK : INTERNAL 2
MIR : ON : INTERNAL 2
OPTKBR

0.200000
8
8.000000
FILLER
RATIO
SPECTRUM
UNLOCKED 256

DOUBLE
64
COMBINED
1
0
0


1.000000
RATIO


1
0
TRUE
51149
0
LEFT NOT FITTED RIGHT NOT FITTED 0
NONE
NONE
15600
12.000000
4.427000
51148
TRUE
1 0 8 72 0 0 0 0 

15798.010000






#HDR
-1
-1
#GR
CM-1
%T
0.00002384185791015625
0.0
5000.000000
-1.000000
4631
8
78.984522
31.791090
#DATA
5000.000000	64.682173 
4999.000000	64.560413 
4998.000000	64.457964 
4997.000000	64.387369 
4996.000000	64.356994 
4995.000000	64.369726 
4994.000000	64.421987 
4993.000000	64.504027 
4992.000000	64.602541 
4991.000000	64.703154 
4990.000000	64.793491 
4989.000000	64.864063 
4988.000000	64.910840 
4987.000000	64.934802 
4986.000000	64.941310 
4985.000000	64.937734 
4984.000000	64.932537 
4983.000000	64.933180 
4982.000000	64.945363 
4981.000000	64.972090 
4980.000000	65.013718 
4979.000000	65.067791 
4978.000000	65.130591 
4977.000000	65.196919 
4976.000000	65.261268 
4975.000000	65.317559 
4974.000000	65.360617 
4973.000000	65.385270 
4972.000000	65.386915 
4971.000000	65.361523 
4970.000000	65.307497 
4969.000000	65.224909 
4968.000000	65.116667 
4967.000000	64.988040 
4966.000000	64.847683 
4965.000000	64.705014 
4964.000000	64.569735 
4963.000000	64.449477 
4962.000000	64.349150 
4961.000000	64.270544 
4960.000000	64.212679 
4959.000000	64.172530 
4958.000000	64.146065 
4957.000000	64.130234 
4956.000000	64.123845 
4955.000000	64.127540 
4954.000000	64.143490 
4953.000000	64.174318 
4952.000000	64.222192 
4951.000000	64.286899 
4950.000000	64.365792 
4949.000000	64.453673 
4948.000000	64.544177 
4947.000000	64.630460 
4946.000000	64.706921 
4945.000000	64.770197 
4944.000000	64.819622 
4943.000000	64.857363 
4942.000000	64.886736 
4941.000000	64.911031 
4940.000000	64.931845 
4939.000000	64.949750 
4938.000000	64.962482 
4937.000000	64.966273 
4936.000000	64.957261 
4935.000000	64.933776 
4934.000000	64.897274 
4933.000000	64.852762 
4932.000000	64.808869 
4931.000000	64.776134 
4930.000000	64.764070 
4929.000000	64.778661 
4928.000000	64.820241 
4927.000000	64.882993 
4926.000000	64.956116 
4925.000000	65.026283 
4924.000000	65.079784 
4923.000000	65.106606 
4922.000000	65.102458 
4921.000000	65.070509 
4920.000000	65.019321 
4919.000000	64.962410 
4918.000000	64.915013 
4917.000000	64.890933 
4916.000000	64.899492 
4915.000000	64.943504 
4914.000000	65.020132 
4913.000000	65.120172 
4912.000000	65.230798 
4911.000000	65.337538 
4910.000000	65.427231 
4909.000000	65.490174 
4908.000000	65.521621 
4907.000000	65.521883 
4906.000000	65.495300 
4905.000000	65.449047 
4904.000000	65.391087 
4903.000000	65.327858 
4902.000000	65.263319 
4901.000000	65.197992 
4900.000000	65.129590 
4899.000000	65.054941 
4898.000000	64.971709 
4897.000000	64.879488 
4896.000000	64.780926 
4895.000000	64.681410 
4894.000000	64.587974 
4893.000000	64.506816 
4892.000000	64.442157 
4891.000000	64.394569 
4890.000000	64.361572 
4889.000000	64.338302 
4888.000000	64.319610 
4887.000000	64.298582 
4886.000000	64.272141 
4885.000000	64.241433 
4884.000000	64.212942 
4883.000000	64.195585 
4882.000000	64.199686 
4881.000000	64.233565 
4880.000000	64.299559 
4879.000000	64.392066 
4878.000000	64.497566 
4877.000000	64.597177 
4876.000000	64.669489 
4875.000000	64.695453 
4874.000000	64.664053 
4873.000000	64.574718 
4872.000000	64.436507 
4871.000000	64.265966 
4870.000000	64.082169 
4869.000000	63.903808 
4868.000000	63.744854 
4867.000000	63.616299 
4866.000000	63.522815 
4865.000000	63.470435 
4864.000000	63.466835 
4863.000000	63.525223 
4862.000000	63.660550 
4861.000000	63.886690 
4860.000000	64.210033 
4859.000000	64.624190 
4858.000000	65.105080 
4857.000000	65.614008 
4856.000000	66.101002 
4855.000000	66.517376 
4854.000000	66.824436 
4853.000000	67.005562 
4852.000000	67.069530 
4851.000000	67.049670 
4850.000000	66.995429 
4849.000000	66.959691 
4848.000000	66.984724 
4847.000000	67.089939 
4846.000000	67.265820 
4845.000000	67.476963 
4844.000000	67.670154 
4843.000000	67.789626 
4842.000000	67.790603 
4841.000000	67.652010 
4840.000000	67.381262 
4839.000000	67.012929 
4838.000000	66.599798 
4837.000000	66.197919 
4836.000000	65.855693 
4835.000000	65.604066 
4834.000000	65.453052 
4833.000000	65.393543 
4832.000000	65.403795 
4831.000000	65.458369 
4830.000000	65.536046 
4829.000000	65.625619 
4828.000000	65.723943 
4827.000000	65.831112 
4826.000000	65.945672 
4825.000000	66.059088 
4824.000000	66.153526 
4823.000000	66.202926 
4822.000000	66.181254 
4821.000000	66.069960 
4820.000000	65.864324 
4819.000000	65.577149 
4818.000000	65.235805 
4817.000000	64.878964 
4816.000000	64.546370 
4815.000000	64.274525 
4814.000000	64.090681 
4813.000000	64.011192 
4812.000000	64.040589 
4811.000000	64.172554 
4810.000000	64.392733 
4809.000000	64.679813 
4808.000000	65.006256 
4807.000000	65.342116 
4806.000000	65.653896 
4805.000000	65.912628 
4804.000000	66.094398 
4803.000000	66.188049 
4802.000000	66.194653 
4801.000000	66.130781 
4800.000000	66.025614 
4799.000000	65.914630 
4798.000000	65.833139 
4797.000000	65.807318 
4796.000000	65.849757 
4795.000000	65.955710 
4794.000000	66.105270 
4793.000000	66.268157 
4792.000000	66.411256 
4791.000000	66.504454 
4790.000000	66.527795 
4789.000000	66.474413 
4788.000000	66.352057 
4787.000000	66.179251 
4786.000000	65.981245 
4785.000000	65.785908 
4784.000000	65.616536 
4783.000000	65.488600 
4782.000000	65.406250 
4781.000000	65.364956 
4780.000000	65.352201 
4779.000000	65.352416 
4778.000000	65.350675 
4777.000000	65.334725 
4776.000000	65.300321 
4775.000000	65.250706 
4774.000000	65.196013 
4773.000000	65.147352 
4772.000000	65.116500 
4771.000000	65.111541 
4770.000000	65.134978 
4769.000000	65.182805 
4768.000000	65.246677 
4767.000000	65.316319 
4766.000000	65.383434 
4765.000000	65.443539 
4764.000000	65.497088 
4763.000000	65.548181 
4762.000000	65.602397 
4761.000000	65.663480 
4760.000000	65.731120 
4759.000000	65.799593 
4758.000000	65.858697 
4757.000000	65.896487 
4756.000000	65.903687 
4755.000000	65.875983 
4754.000000	65.817975 
4753.000000	65.740060 
4752.000000	65.656805 
4751.000000	65.582156 
4750.000000	65.526819 
4749.000000	65.494585 
4748.000000	65.481781 
4747.000000	65.479421 
4746.000000	65.476393 
4745.000000	65.463590 
4744.000000	65.436792 
4743.000000	65.398263 
4742.000000	65.355682 
4741.000000	65.319228 
4740.000000	65.298295 
4739.000000	65.298247 
4738.000000	65.318942 
4737.000000	65.356326 
4736.000000	65.402936 
4735.000000	65.450954 
4734.000000	65.492987 
4733.000000	65.523147 
4732.000000	65.537238 
4731.000000	65.531420 
4730.000000	65.503454 
4729.000000	65.452790 
4728.000000	65.381598 
4727.000000	65.295028 
4726.000000	65.201139 
4725.000000	65.110516 
4724.000000	65.034031 
4723.000000	64.981079 
4722.000000	64.957571 
4721.000000	64.964485 
4720.000000	64.998531 
4719.000000	65.052676 
4718.000000	65.118527 
4717.000000	65.187883 
4716.000000	65.254330 
4715.000000	65.314149 
4714.000000	65.364670 
4713.000000	65.403628 
4712.000000	65.428233 
4711.000000	65.435242 
4710.000000	65.422821 
4709.000000	65.391397 
4708.000000	65.345549 
4707.000000	65.292549 
4706.000000	65.241312 
4705.000000	65.199112 
4704.000000	65.169954 
4703.000000	65.153241 
4702.000000	65.144085 
4701.000000	65.135407 
4700.000000	65.120029 
4699.000000	65.093541 
4698.000000	65.055465 
4697.000000	65.010142 
4696.000000	64.965176 
4695.000000	64.929699 
4694.000000	64.910578 
4693.000000	64.911818 
4692.000000	64.932560 
4691.000000	64.968371 
4690.000000	65.012478 
4689.000000	65.057539 
4688.000000	65.097618 
4687.000000	65.128159 
4686.000000	65.146780 
4685.000000	65.151715 
4684.000000	65.142297 
4683.000000	65.119338 
4682.000000	65.085387 
4681.000000	65.045189 
4680.000000	65.004849 
4679.000000	64.971065 
4678.000000	64.949703 
4677.000000	64.944219 
4676.000000	64.955306 
4675.000000	64.980125 
4674.000000	65.014052 
4673.000000	65.051317 
4672.000000	65.087080 
4671.000000	65.118241 
4670.000000	65.144062 
4669.000000	65.166044 
4668.000000	65.186905 
4667.000000	65.209031 
4666.000000	65.233516 
4665.000000	65.259289 
4664.000000	65.283226 
4663.000000	65.301251 
4662.000000	65.309405 
4661.000000	65.305662 
4660.000000	65.289664 
4659.000000	65.263128 
4658.000000	65.229249 
4657.000000	65.191960 
4656.000000	65.155243 
4655.000000	65.122151 
4654.000000	65.094780 
4653.000000	65.073633 
4652.000000	65.057849 
4651.000000	65.045666 
4650.000000	65.034604 
4649.000000	65.022420 
4648.000000	65.007710 
4647.000000	64.990425 
4646.000000	64.971542 
4645.000000	64.953088 
4644.000000	64.937281 
4643.000000	64.925861 
4642.000000	64.919257 
4641.000000	64.916777 
4640.000000	64.916586 
4639.000000	64.916682 
4638.000000	64.915156 
4637.000000	64.911937 
4636.000000	64.908838 
4635.000000	64.909982 
4634.000000	64.920353 
4633.000000	64.945125 
4632.000000	64.987683 
4631.000000	65.048265 
4630.000000	65.123271 
4629.000000	65.205550 
4628.000000	65.285348 
4627.000000	65.352559 
4626.000000	65.398430 
4625.000000	65.417170 
4624.000000	65.406823 
4623.000000	65.369820 
4622.000000	65.312290 
4621.000000	65.242385 
4620.000000	65.168690 
4619.000000	65.099334 
4618.000000	65.040159 
4617.000000	64.994597 
4616.000000	64.963507 
4615.000000	64.946341 
4614.000000	64.941358 
4613.000000	64.946436 
4612.000000	64.959478 
4611.000000	64.978146 
4610.000000	65.000057 
4609.000000	65.022468 
4608.000000	65.042185 
4607.000000	65.055632 
4606.000000	65.059876 
4605.000000	65.053153 
4604.000000	65.035724 
4603.000000	65.010046 
4602.000000	64.980912 
4601.000000	64.954352 
4600.000000	64.936232 
4599.000000	64.930677 
4598.000000	64.939022 
4597.000000	64.959645 
4596.000000	64.987373 
4595.000000	65.016031 
4594.000000	65.039968 
4593.000000	65.056133 
4592.000000	65.064668 
4591.000000	65.068912 
4590.000000	65.074229 
4589.000000	65.085744 
4588.000000	65.106773 
4587.000000	65.136504 
4586.000000	65.169835 
4585.000000	65.198469 
4584.000000	65.213632 
4583.000000	65.208172 
4582.000000	65.178990 
4581.000000	65.128397 
4580.000000	65.063953 
4579.000000	64.996480 
4578.000000	64.937329 
4577.000000	64.895510 
4576.000000	64.875268 
4575.000000	64.874911 
4574.000000	64.886975 
4573.000000	64.901208 
4572.000000	64.907002 
4571.000000	64.896321 
4570.000000	64.865517 
4569.000000	64.815998 
4568.000000	64.753437 
4567.000000	64.684844 
4566.000000	64.617681 
4565.000000	64.556646 
4564.000000	64.504766 
4563.000000	64.463257 
4562.000000	64.432740 
4561.000000	64.414238 
4560.000000	64.409422 
4559.000000	64.420509 
4558.000000	64.448833 
4557.000000	64.493250 
4556.000000	64.550352 
4555.000000	64.613866 
4554.000000	64.676690 
4553.000000	64.731955 
4552.000000	64.775705 
4551.000000	64.807605 
4550.000000	64.831852 
4549.000000	64.855861 
4548.000000	64.887928 
4547.000000	64.934587 
4546.000000	64.998769 
4545.000000	65.078067 
4544.000000	65.165185 
4543.000000	65.249180 
4542.000000	65.319156 
4541.000000	65.366029 
4540.000000	65.385413 
4539.000000	65.377616 
4538.000000	65.347814 
4537.000000	65.303611 
4536.000000	65.253567 
4535.000000	65.204071 
4534.000000	65.158915 
4533.000000	65.118098 
4532.000000	65.078783 
4531.000000	65.037274 
4530.000000	64.991259 
4529.000000	64.941716 
4528.000000	64.893627 
4527.000000	64.854955 
4526.000000	64.834547 
4525.000000	64.839053 
4524.000000	64.870572 
4523.000000	64.924502 
4522.000000	64.990329 
4521.000000	65.055775 
4520.000000	65.109634 
4519.000000	65.144824 
4518.000000	65.159535 
4517.000000	65.156769 
4516.000000	65.142703 
4515.000000	65.123558 
4514.000000	65.104079 
4513.000000	65.086317 
4512.000000	65.069317 
4511.000000	65.050935 
4510.000000	65.028142 
4509.000000	64.998817 
4508.000000	64.962983 
4507.000000	64.921236 
4506.000000	64.878296 
4505.000000	64.843153 
4504.000000	64.825797 
4503.000000	64.833641 
4502.000000	64.870405 
4501.000000	64.934325 
4500.000000	65.017652 
4499.000000	65.108847 
4498.000000	65.190172 
4497.000000	65.241408 
4496.000000	65.245962 
4495.000000	65.195393 
4494.000000	65.092968 
4493.000000	64.953255 
4492.000000	64.801526 
4491.000000	64.667224 
4490.000000	64.570069 
4489.000000	64.519906 
4488.000000	64.520645 
4487.000000	64.568161 
4486.000000	64.653587 
4485.000000	64.762020 
4484.000000	64.883875 
4483.000000	65.001654 
4482.000000	65.096616 
4481.000000	65.138077 
4480.000000	65.084147 
4479.000000	64.893984 
4478.000000	64.532971 
4477.000000	63.998985 
4476.000000	63.322520 
4475.000000	62.587785 
4474.000000	61.921620 
4473.000000	61.464476 
4472.000000	61.338639 
4471.000000	61.601543 
4470.000000	62.229108 
4469.000000	63.106703 
4468.000000	64.064025 
4467.000000	64.929389 
4466.000000	65.586519 
4465.000000	66.013908 
4464.000000	66.293835 
4463.000000	66.592431 
4462.000000	67.098522 
4461.000000	67.963266 
4460.000000	69.232726 
4459.000000	70.823144 
4458.000000	72.524261 
4457.000000	74.057841 
4456.000000	75.139832 
4455.000000	75.575184 
4454.000000	75.287699 
4453.000000	74.364352 
4452.000000	72.997999 
4451.000000	71.436762 
4450.000000	69.913840 
4449.000000	68.586754 
4448.000000	67.527937 
4447.000000	66.731929 
4446.000000	66.146063 
4445.000000	65.717720 
4444.000000	65.396499 
4443.000000	65.157461 
4442.000000	64.982151 
4441.000000	64.858865 
4440.000000	64.776730 
4439.000000	64.725136 
4438.000000	64.694428 
4437.000000	64.676713 
4436.000000	64.668369 
4435.000000	64.668011 
4434.000000	64.667439 
4433.000000	64.656829 
4432.000000	64.629149 
4431.000000	64.579749 
4430.000000	64.506649 
4429.000000	64.411664 
4428.000000	64.299201 
4427.000000	64.176964 
4426.000000	64.052152 
4425.000000	63.934826 
4424.000000	63.838267 
4423.000000	63.774585 
4422.000000	63.752079 
4421.000000	63.773369 
4420.000000	63.832855 
4419.000000	63.922691 
4418.000000	64.035582 
4417.000000	64.160132 
4416.000000	64.281582 
4415.000000	64.388346 
4414.000000	64.473342 
4413.000000	64.532256 
4412.000000	64.564228 
4411.000000	64.572644 
4410.000000	64.563536 
4409.000000	64.543485 
4408.000000	64.518547 
4407.000000	64.493632 
4406.000000	64.472532 
4405.000000	64.457917 
4404.000000	64.452791 
4403.000000	64.460206 
4402.000000	64.484763 
4401.000000	64.531421 
4400.000000	64.604902 
4399.000000	64.707636 
4398.000000	64.838528 
4397.000000	64.991474 
4396.000000	65.156006 
4395.000000	65.318560 
4394.000000	65.464639 
4393.000000	65.581631 
4392.000000	65.661454 
4391.000000	65.702104 
4390.000000	65.707325 
4389.000000	65.685319 
4388.000000	65.646386 
4387.000000	65.600275 
4386.000000	65.554881 
4385.000000	65.514373 
4384.000000	65.479826 
4383.000000	65.449023 
4382.000000	65.418767 
4381.000000	65.385603 
4380.000000	65.347075 
4379.000000	65.302252 
4378.000000	65.251994 
4377.000000	65.198683 
4376.000000	65.144968 
4375.000000	65.093779 
4374.000000	65.047264 
4373.000000	65.007162 
4372.000000	64.974546 
4371.000000	64.950084 
4370.000000	64.934039 
4369.000000	64.926147 
4368.000000	64.925575 
4367.000000	64.930343 
4366.000000	64.937520 
4365.000000	64.943122 
4364.000000	64.942526 
4363.000000	64.932084 
4362.000000	64.909815 
4361.000000	64.876103 
4360.000000	64.833831 
4359.000000	64.788532 
4358.000000	64.746928 
4357.000000	64.715623 
4356.000000	64.699125 
4355.000000	64.698529 
4354.000000	64.711356 
4353.000000	64.732003 
4352.000000	64.753365 
4351.000000	64.768576 
4350.000000	64.773702 
4349.000000	64.768242 
4348.000000	64.756488 
4347.000000	64.745378 
4346.000000	64.744138 
4345.000000	64.760780 
4344.000000	64.801025 
4343.000000	64.865946 
4342.000000	64.952278 
4341.000000	65.053105 
4340.000000	65.159368 
4339.000000	65.261936 
4338.000000	65.353250 
4337.000000	65.428471 
4336.000000	65.485405 
4335.000000	65.524220 
4334.000000	65.546178 
4333.000000	65.552878 
4332.000000	65.545701 
4331.000000	65.525317 
4330.000000	65.492892 
4329.000000	65.449690 
4328.000000	65.398097 
4327.000000	65.341353 
4326.000000	65.283632 
4325.000000	65.229630 
4324.000000	65.183758 
4323.000000	65.149664 
4322.000000	65.129375 
4321.000000	65.123271 
4320.000000	65.130257 
4319.000000	65.148043 
4318.000000	65.173053 
4317.000000	65.201926 
4316.000000	65.231561 
4315.000000	65.259504 
4314.000000	65.283608 
4313.000000	65.302324 
4312.000000	65.314602 
4311.000000	65.319705 
4310.000000	65.317201 
4309.000000	65.307140 
4308.000000	65.290427 
4307.000000	65.268611 
4306.000000	65.244030 
4305.000000	65.219855 
4304.000000	65.199279 
4303.000000	65.185117 
4302.000000	65.178823 
4301.000000	65.179753 
4300.000000	65.185379 
4299.000000	65.191483 
4298.000000	65.193700 
4297.000000	65.188431 
4296.000000	65.173864 
4295.000000	65.151023 
4294.000000	65.122628 
4293.000000	65.092253 
4292.000000	65.063071 
4291.000000	65.036988 
4290.000000	65.014195 
4289.000000	64.993095 
4288.000000	64.971733 
4287.000000	64.948415 
4286.000000	64.923405 
4285.000000	64.899039 
4284.000000	64.879369 
4283.000000	64.868974 
4282.000000	64.871692 
4281.000000	64.889287 
4280.000000	64.920520 
4279.000000	64.961218 
4278.000000	65.005588 
4277.000000	65.047550 
4276.000000	65.082144 
4275.000000	65.106582 
4274.000000	65.120148 
4273.000000	65.124058 
4272.000000	65.120434 
4271.000000	65.111947 
4270.000000	65.100884 
4269.000000	65.089416 
4268.000000	65.079760 
4267.000000	65.073728 
4266.000000	65.073394 
4265.000000	65.079975 
4264.000000	65.094351 
4263.000000	65.115666 
4262.000000	65.141296 
4261.000000	65.167093 
4260.000000	65.188026 
4259.000000	65.199494 
4258.000000	65.198278 
4257.000000	65.183758 
4256.000000	65.158104 
4255.000000	65.125441 
4254.000000	65.090918 
4253.000000	65.059375 
4252.000000	65.034103 
4251.000000	65.016317 
4250.000000	65.005087 
4249.000000	64.998006 
4248.000000	64.992046 
4247.000000	64.984273 
4246.000000	64.972996 
4245.000000	64.957499 
4244.000000	64.938592 
4243.000000	64.918255 
4242.000000	64.899516 
4241.000000	64.885473 
4240.000000	64.879202 
4239.000000	64.883255 
4238.000000	64.899039 
4237.000000	64.926648 
4236.000000	64.964222 
4235.000000	65.008044 
4234.000000	65.053319 
4233.000000	65.094518 
4232.000000	65.127277 
4231.000000	65.149116 
4230.000000	65.160417 
4229.000000	65.164375 
4228.000000	65.165877 
4227.000000	65.170097 
4226.000000	65.180850 
4225.000000	65.199470 
4224.000000	65.224027 
4223.000000	65.249824 
4222.000000	65.271115 
4221.000000	65.282559 
4220.000000	65.280938 
4219.000000	65.266036 
4218.000000	65.241074 
4217.000000	65.211343 
4216.000000	65.182590 
4215.000000	65.159487 
4214.000000	65.144157 
4213.000000	65.136075 
4212.000000	65.132665 
4211.000000	65.130567 
4210.000000	65.127086 
4209.000000	65.121293 
4208.000000	65.114402 
4207.000000	65.109467 
4206.000000	65.109825 
4205.000000	65.118646 
4204.000000	65.137481 
4203.000000	65.165758 
4202.000000	65.200662 
4201.000000	65.237832 
4200.000000	65.272331 
4199.000000	65.299940 
4198.000000	65.318012 
4197.000000	65.325903 
4196.000000	65.325069 
4195.000000	65.318369 
4194.000000	65.309405 
4193.000000	65.301513 
4192.000000	65.297174 
4191.000000	65.297603 
4190.000000	65.302681 
4189.000000	65.311622 
4188.000000	65.322828 
4187.000000	65.334963 
4186.000000	65.346503 
4185.000000	65.356516 
4184.000000	65.364074 
4183.000000	65.368270 
4182.000000	65.368103 
4181.000000	65.362358 
4180.000000	65.350079 
4179.000000	65.330839 
4178.000000	65.305733 
4177.000000	65.277123 
4176.000000	65.249085 
4175.000000	65.226602 
4174.000000	65.214872 
4173.000000	65.218019 
4172.000000	65.237689 
4171.000000	65.272545 
4170.000000	65.318274 
4169.000000	65.368318 
4168.000000	65.414643 
4167.000000	65.449523 
4166.000000	65.467405 
4165.000000	65.465974 
4164.000000	65.446305 
4163.000000	65.412306 
4162.000000	65.369820 
4161.000000	65.324950 
4160.000000	65.282988 
4159.000000	65.247488 
4158.000000	65.219950 
4157.000000	65.200233 
4156.000000	65.187382 
4155.000000	65.180563 
4154.000000	65.179491 
4153.000000	65.184712 
4152.000000	65.197205 
4151.000000	65.217781 
4150.000000	65.246009 
4149.000000	65.279984 
4148.000000	65.316057 
4147.000000	65.349030 
4146.000000	65.373015 
4145.000000	65.382623 
4144.000000	65.374016 
4143.000000	65.345740 
4142.000000	65.299105 
4141.000000	65.237808 
4140.000000	65.167403 
4139.000000	65.094304 
4138.000000	65.025091 
4137.000000	64.965152 
4136.000000	64.918565 
4135.000000	64.887785 
4134.000000	64.873623 
4133.000000	64.875411 
4132.000000	64.891290 
4131.000000	64.918231 
4130.000000	64.953017 
4129.000000	64.991855 
4128.000000	65.031337 
4127.000000	65.067887 
4126.000000	65.099191 
4125.000000	65.123987 
4124.000000	65.142536 
4123.000000	65.156126 
4122.000000	65.166783 
4121.000000	65.176582 
4120.000000	65.186667 
4119.000000	65.196967 
4118.000000	65.205717 
4117.000000	65.210008 
4116.000000	65.207028 
4115.000000	65.194940 
4114.000000	65.173816 
4113.000000	65.145850 
4112.000000	65.114879 
4111.000000	65.085315 
4110.000000	65.061306 
4109.000000	65.045857 
4108.000000	65.039825 
4107.000000	65.042805 
4106.000000	65.053176 
4105.000000	65.069437 
4104.000000	65.089988 
4103.000000	65.114688 
4102.000000	65.144228 
4101.000000	65.180492 
4100.000000	65.225458 
4099.000000	65.280032 
4098.000000	65.343332 
4097.000000	65.411639 
4096.000000	65.479278 
4095.000000	65.538501 
4094.000000	65.581369 
4093.000000	65.601277 
4092.000000	65.594696 
4091.000000	65.562129 
4090.000000	65.508460 
4089.000000	65.442252 
4088.000000	65.374088 
4087.000000	65.314531 
4086.000000	65.271854 
4085.000000	65.250492 
4084.000000	65.250658 
4083.000000	65.268540 
4082.000000	65.298223 
4081.000000	65.333604 
4080.000000	65.370202 
4079.000000	65.405845 
4078.000000	65.440869 
4077.000000	65.476846 
4076.000000	65.515041 
4075.000000	65.554642 
4074.000000	65.592479 
4073.000000	65.622997 
4072.000000	65.639829 
4071.000000	65.637493 
4070.000000	65.613436 
4069.000000	65.569663 
4068.000000	65.512061 
4067.000000	65.449547 
4066.000000	65.391492 
4065.000000	65.345573 
4064.000000	65.315413 
4063.000000	65.300154 
4062.000000	65.295124 
4061.000000	65.293788 
4060.000000	65.289950 
4059.000000	65.279865 
4058.000000	65.263104 
4057.000000	65.242671 
4056.000000	65.223360 
4055.000000	65.210318 
4054.000000	65.206241 
4053.000000	65.211057 
4052.000000	65.221285 
4051.000000	65.231442 
4050.000000	65.235805 
4049.000000	65.230011 
4048.000000	65.212750 
4047.000000	65.185427 
4046.000000	65.151858 
4045.000000	65.116691 
4044.000000	65.083909 
4043.000000	65.055847 
4042.000000	65.032768 
4041.000000	65.013194 
4040.000000	64.994883 
4039.000000	64.975643 
4038.000000	64.954257 
4037.000000	64.930963 
4036.000000	64.907240 
4035.000000	64.885044 
4034.000000	64.866280 
4033.000000	64.852428 
4032.000000	64.844250 
4031.000000	64.841628 
4030.000000	64.843821 
4029.000000	64.850020 
4028.000000	64.859414 
4027.000000	64.871025 
4026.000000	64.884424 
4025.000000	64.898657 
4024.000000	64.913201 
4023.000000	64.927721 
4022.000000	64.942550 
4021.000000	64.958357 
4020.000000	64.976096 
4019.000000	64.996480 
4018.000000	65.019464 
4017.000000	65.044116 
4016.000000	65.068459 
4015.000000	65.089845 
4014.000000	65.105915 
4013.000000	65.115356 
4012.000000	65.118646 
4011.000000	65.118098 
4010.000000	65.117621 
4009.000000	65.121793 
4008.000000	65.134763 
4007.000000	65.158700 
4006.000000	65.193343 
4005.000000	65.235185 
4004.000000	65.278553 
4003.000000	65.316224 
4002.000000	65.341734 
4001.000000	65.350198 
4000.000000	65.339612 
3999.000000	65.311002 
3998.000000	65.268182 
3997.000000	65.216803 
3996.000000	65.163183 
3995.000000	65.113210 
3994.000000	65.071368 
3993.000000	65.040850 
3992.000000	65.023207 
3991.000000	65.018844 
3990.000000	65.027284 
3989.000000	65.046954 
3988.000000	65.075397 
3987.000000	65.109276 
3986.000000	65.144300 
3985.000000	65.175700 
3984.000000	65.198850 
3983.000000	65.210056 
3982.000000	65.207529 
3981.000000	65.192151 
3980.000000	65.167427 
3979.000000	65.138816 
3978.000000	65.112614 
3977.000000	65.094661 
3976.000000	65.089035 
3975.000000	65.096950 
3974.000000	65.116596 
3973.000000	65.144062 
3972.000000	65.174078 
3971.000000	65.201544 
3970.000000	65.222382 
3969.000000	65.234231 
3968.000000	65.236973 
3967.000000	65.232133 
3966.000000	65.222716 
3965.000000	65.211939 
3964.000000	65.203213 
3963.000000	65.199685 
3962.000000	65.203738 
3961.000000	65.216708 
3960.000000	65.238618 
3959.000000	65.268397 
3958.000000	65.303158 
3957.000000	65.338850 
3956.000000	65.370106 
3955.000000	65.391254 
3954.000000	65.397310 
3953.000000	65.385103 
3952.000000	65.353941 
3951.000000	65.305829 
3950.000000	65.245532 
3949.000000	65.179538 
3948.000000	65.114855 
3947.000000	65.058183 
3946.000000	65.014839 
3945.000000	64.988589 
3944.000000	64.981007 
3943.000000	64.992403 
3942.000000	65.021586 
3941.000000	65.066456 
3940.000000	65.123987 
3939.000000	65.190267 
3938.000000	65.260386 
3937.000000	65.328979 
3936.000000	65.390086 
3935.000000	65.438508 
3934.000000	65.470194 
3933.000000	65.483355 
3932.000000	65.478825 
3931.000000	65.459775 
3930.000000	65.430927 
3929.000000	65.397548 
3928.000000	65.364360 
3927.000000	65.334510 
3926.000000	65.309023 
3925.000000	65.287065 
3924.000000	65.266299 
3923.000000	65.243959 
3922.000000	65.217947 
3921.000000	65.187001 
3920.000000	65.151977 
3919.000000	65.114760 
3918.000000	65.078997 
3917.000000	65.048336 
3916.000000	65.026736 
3915.000000	65.016841 
3914.000000	65.020537 
3913.000000	65.038061 
3912.000000	65.068435 
3911.000000	65.109395 
3910.000000	65.157628 
3909.000000	65.209054 
3908.000000	65.259528 
3907.000000	65.305352 
3906.000000	65.343689 
3905.000000	65.372562 
3904.000000	65.391325 
3903.000000	65.400505 
3902.000000	65.401625 
3901.000000	65.396690 
3900.000000	65.387773 
3899.000000	65.376543 
3898.000000	65.364408 
3897.000000	65.351986 
3896.000000	65.339422 
3895.000000	65.326619 
3894.000000	65.313839 
3893.000000	65.301728 
3892.000000	65.291476 
3891.000000	65.284705 
3890.000000	65.283155 
3889.000000	65.288114 
3888.000000	65.299868 
3887.000000	65.317392 
3886.000000	65.338492 
3885.000000	65.359759 
3884.000000	65.377283 
3883.000000	65.387511 
3882.000000	65.387821 
3881.000000	65.377593 
3880.000000	65.358328 
3879.000000	65.333318 
3878.000000	65.306949 
3877.000000	65.283894 
3876.000000	65.267968 
3875.000000	65.261030 
3874.000000	65.262460 
3873.000000	65.269780 
3872.000000	65.279197 
3871.000000	65.286540 
3870.000000	65.288496 
3869.000000	65.283226 
3868.000000	65.271019 
3867.000000	65.253996 
3866.000000	65.235710 
3865.000000	65.219950 
3864.000000	65.209913 
3863.000000	65.207552 
3862.000000	65.212726 
3861.000000	65.223741 
3860.000000	65.237474 
3859.000000	65.250396 
3858.000000	65.259456 
3857.000000	65.262794 
3856.000000	65.260195 
3855.000000	65.252876 
3854.000000	65.242815 
3853.000000	65.232014 
3852.000000	65.221548 
3851.000000	65.211343 
3850.000000	65.199899 
3849.000000	65.184950 
3848.000000	65.164303 
3847.000000	65.136981 
3846.000000	65.103650 
3845.000000	65.067195 
3844.000000	65.032291 
3843.000000	65.004706 
3842.000000	64.989757 
3841.000000	64.991259 
3840.000000	65.010213 
3839.000000	65.044641 
3838.000000	65.089797 
3837.000000	65.139079 
3836.000000	65.185093 
3835.000000	65.221571 
3834.000000	65.244054 
3833.000000	65.251183 
3832.000000	65.244340 
3831.000000	65.227651 
3830.000000	65.206432 
3829.000000	65.186500 
3828.000000	65.172958 
3827.000000	65.169119 
3826.000000	65.176200 
3825.000000	65.193152 
3824.000000	65.217471 
3823.000000	65.245485 
3822.000000	65.273666 
3821.000000	65.299153 
3820.000000	65.320110 
3819.000000	65.336012 
3818.000000	65.347409 
3817.000000	65.355634 
3816.000000	65.362143 
3815.000000	65.368151 
3814.000000	65.374135 
3813.000000	65.379905 
3812.000000	65.384674 
3811.000000	65.386962 
3810.000000	65.385413 
3809.000000	65.379166 
3808.000000	65.368413 
3807.000000	65.354728 
3806.000000	65.340995 
3805.000000	65.330696 
3804.000000	65.327453 
3803.000000	65.334177 
3802.000000	65.352058 
3801.000000	65.380096 
3800.000000	65.414786 
3799.000000	65.451097 
3798.000000	65.483045 
3797.000000	65.505099 
3796.000000	65.513205 
3795.000000	65.505504 
3794.000000	65.482854 
3793.000000	65.448617 
3792.000000	65.407800 
3791.000000	65.366220 
3790.000000	65.329194 
3789.000000	65.300631 
3788.000000	65.282702 
3787.000000	65.275478 
3786.000000	65.277481 
3785.000000	65.285897 
3784.000000	65.297436 
3783.000000	65.308880 
3782.000000	65.317630 
3781.000000	65.321588 
3780.000000	65.319633 
3779.000000	65.311336 
3778.000000	65.296840 
3777.000000	65.276956 
3776.000000	65.252733 
3775.000000	65.225768 
3774.000000	65.197801 
3773.000000	65.171122 
3772.000000	65.148138 
3771.000000	65.131402 
3770.000000	65.123128 
3769.000000	65.125155 
3768.000000	65.138363 
3767.000000	65.162467 
3766.000000	65.195798 
3765.000000	65.235328 
3764.000000	65.277004 
3763.000000	65.316081 
3762.000000	65.348100 
3761.000000	65.369081 
3760.000000	65.376591 
3759.000000	65.370225 
3758.000000	65.351772 
3757.000000	65.324783 
3756.000000	65.294003 
3755.000000	65.264940 
3754.000000	65.242266 
3753.000000	65.229177 
3752.000000	65.226650 
3751.000000	65.233612 
3750.000000	65.247058 
3749.000000	65.262985 
3748.000000	65.277314 
3747.000000	65.286827 
3746.000000	65.289831 
3745.000000	65.286374 
3744.000000	65.278077 
3743.000000	65.267539 
3742.000000	65.257787 
3741.000000	65.251302 
3740.000000	65.249872 
3739.000000	65.253949 
3738.000000	65.263104 
3737.000000	65.275979 
3736.000000	65.290951 
3735.000000	65.306234 
3734.000000	65.320324 
3733.000000	65.332269 
3732.000000	65.341377 
3731.000000	65.347790 
3730.000000	65.352082 
3729.000000	65.355515 
3728.000000	65.359711 
3727.000000	65.365815 
3726.000000	65.374779 
3725.000000	65.386581 
3724.000000	65.400457 
3723.000000	65.414977 
3722.000000	65.428304 
3721.000000	65.438699 
3720.000000	65.445184 
3719.000000	65.447187 
3718.000000	65.444993 
3717.000000	65.439248 
3716.000000	65.430879 
3715.000000	65.420627 
3714.000000	65.408897 
3713.000000	65.395903 
3712.000000	65.381598 
3711.000000	65.366268 
3710.000000	65.350413 
3709.000000	65.335083 
3708.000000	65.321469 
3707.000000	65.310740 
3706.000000	65.303468 
3705.000000	65.299344 
3704.000000	65.297365 
3703.000000	65.296101 
3702.000000	65.294170 
3701.000000	65.290403 
3700.000000	65.284395 
3699.000000	65.276098 
3698.000000	65.266251 
3697.000000	65.255594 
3696.000000	65.245175 
3695.000000	65.235829 
3694.000000	65.228629 
3693.000000	65.224504 
3692.000000	65.224456 
3691.000000	65.229392 
3690.000000	65.239930 
3689.000000	65.255904 
3688.000000	65.276241 
3687.000000	65.298891 
3686.000000	65.321040 
3685.000000	65.339422 
3684.000000	65.351295 
3683.000000	65.354681 
3682.000000	65.349245 
3681.000000	65.336084 
3680.000000	65.317559 
3679.000000	65.296578 
3678.000000	65.276122 
3677.000000	65.258526 
3676.000000	65.245294 
3675.000000	65.236830 
3674.000000	65.233182 
3673.000000	65.233635 
3672.000000	65.237545 
3671.000000	65.244150 
3670.000000	65.252661 
3669.000000	65.262079 
3668.000000	65.271329 
3667.000000	65.278983 
3666.000000	65.283489 
3665.000000	65.283513 
3664.000000	65.278148 
3663.000000	65.267491 
3662.000000	65.252637 
3661.000000	65.235567 
3660.000000	65.218734 
3659.000000	65.204596 
3658.000000	65.195083 
3657.000000	65.191006 
3656.000000	65.192079 
3655.000000	65.197014 
3654.000000	65.203881 
3653.000000	65.210676 
3652.000000	65.215873 
3651.000000	65.218734 
3650.000000	65.219259 
3649.000000	65.218210 
3648.000000	65.216541 
3647.000000	65.215182 
3646.000000	65.214514 
3645.000000	65.214061 
3644.000000	65.212869 
3643.000000	65.209746 
3642.000000	65.203928 
3641.000000	65.195298 
3640.000000	65.184950 
3639.000000	65.174698 
3638.000000	65.166926 
3637.000000	65.164017 
3636.000000	65.167665 
3635.000000	65.178394 
3634.000000	65.195703 
3633.000000	65.218019 
3632.000000	65.243315 
3631.000000	65.269327 
3630.000000	65.294146 
3629.000000	65.316486 
3628.000000	65.335559 
3627.000000	65.350985 
3626.000000	65.362405 
3625.000000	65.369534 
3624.000000	65.371942 
3623.000000	65.369749 
3622.000000	65.363764 
3621.000000	65.355491 
3620.000000	65.347409 
3619.000000	65.342378 
3618.000000	65.342807 
3617.000000	65.350294 
3616.000000	65.364718 
3615.000000	65.384769 
3614.000000	65.407896 
3613.000000	65.431070 
3612.000000	65.451598 
3611.000000	65.467238 
3610.000000	65.476703 
3609.000000	65.479707 
3608.000000	65.476632 
3607.000000	65.468358 
3606.000000	65.455818 
3605.000000	65.440130 
3604.000000	65.422224 
3603.000000	65.403151 
3602.000000	65.383958 
3601.000000	65.365648 
3600.000000	65.349173 
3599.000000	65.335178 
3598.000000	65.324330 
3597.000000	65.316772 
3596.000000	65.312528 
3595.000000	65.311646 
3594.000000	65.314340 
3593.000000	65.320777 
3592.000000	65.330910 
3591.000000	65.344214 
3590.000000	65.359497 
3589.000000	65.374612 
3588.000000	65.387439 
3587.000000	65.395998 
3586.000000	65.399217 
3585.000000	65.397405 
3584.000000	65.392017 
3583.000000	65.385651 
3582.000000	65.381002 
3581.000000	65.380239 
3580.000000	65.384268 
3579.000000	65.392494 
3578.000000	65.402889 
3577.000000	65.412497 
3576.000000	65.418148 
3575.000000	65.417313 
3574.000000	65.408921 
3573.000000	65.393590 
3572.000000	65.373086 
3571.000000	65.349936 
3570.000000	65.326833 
3569.000000	65.306091 
3568.000000	65.289020 
3567.000000	65.275907 
3566.000000	65.266609 
3565.000000	65.260267 
3564.000000	65.255713 
3563.000000	65.251827 
3562.000000	65.247559 
3561.000000	65.242290 
3560.000000	65.235733 
3559.000000	65.227961 
3558.000000	65.219092 
3557.000000	65.209436 
3556.000000	65.199303 
3555.000000	65.189146 
3554.000000	65.179300 
3553.000000	65.170598 
3552.000000	65.164327 
3551.000000	65.162348 
3550.000000	65.166616 
3549.000000	65.178823 
3548.000000	65.199947 
3547.000000	65.229797 
3546.000000	65.266847 
3545.000000	65.308594 
3544.000000	65.351748 
3543.000000	65.393018 
3542.000000	65.429568 
3541.000000	65.459609 
3540.000000	65.482568 
3539.000000	65.499210 
3538.000000	65.510869 
3537.000000	65.519285 
3536.000000	65.525555 
3535.000000	65.530514 
3534.000000	65.533685 
3533.000000	65.534138 
3532.000000	65.530228 
3531.000000	65.520715 
3530.000000	65.504789 
3529.000000	65.482544 
3528.000000	65.455102 
3527.000000	65.424585 
3526.000000	65.393900 
3525.000000	65.366172 
3524.000000	65.344405 
3523.000000	65.330672 
3522.000000	65.325951 
3521.000000	65.329694 
3520.000000	65.340089 
3519.000000	65.354347 
3518.000000	65.369367 
3517.000000	65.382385 
3516.000000	65.391278 
3515.000000	65.394997 
3514.000000	65.393757 
3513.000000	65.388607 
3512.000000	65.380859 
3511.000000	65.371966 
3510.000000	65.363168 
3509.000000	65.355348 
3508.000000	65.348887 
3507.000000	65.343928 
3506.000000	65.340709 
3505.000000	65.339565 
3504.000000	65.340828 
3503.000000	65.344691 
3502.000000	65.350866 
3501.000000	65.358495 
3500.000000	65.366172 
3499.000000	65.372419 
3498.000000	65.376138 
3497.000000	65.376949 
3496.000000	65.375256 
3495.000000	65.372228 
3494.000000	65.369367 
3493.000000	65.367960 
3492.000000	65.368652 
3491.000000	65.371227 
3490.000000	65.374636 
3489.000000	65.377306 
3488.000000	65.377616 
3487.000000	65.374135 
3486.000000	65.366315 
3485.000000	65.354299 
3484.000000	65.339326 
3483.000000	65.323281 
3482.000000	65.308308 
3481.000000	65.296483 
3480.000000	65.289354 
3479.000000	65.287566 
3478.000000	65.290689 
3477.000000	65.297436 
3476.000000	65.305519 
3475.000000	65.312051 
3474.000000	65.313959 
3473.000000	65.308666 
3472.000000	65.294671 
3471.000000	65.271949 
3470.000000	65.241837 
3469.000000	65.207004 
3468.000000	65.170788 
3467.000000	65.136575 
3466.000000	65.106892 
3465.000000	65.083456 
3464.000000	65.066957 
3463.000000	65.057396 
3462.000000	65.054225 
3461.000000	65.056729 
3460.000000	65.064048 
3459.000000	65.075421 
3458.000000	65.089511 
3457.000000	65.105056 
3456.000000	65.120267 
3455.000000	65.133762 
3454.000000	65.144228 
3453.000000	65.151309 
3452.000000	65.155506 
3451.000000	65.158367 
3450.000000	65.162396 
3449.000000	65.169763 
3448.000000	65.181803 
3447.000000	65.198302 
3446.000000	65.217471 
3445.000000	65.236043 
3444.000000	65.249943 
3443.000000	65.255403 
3442.000000	65.249872 
3441.000000	65.232563 
3440.000000	65.204739 
3439.000000	65.169501 
3438.000000	65.131139 
3437.000000	65.094089 
3436.000000	65.061950 
3435.000000	65.037345 
3434.000000	65.021324 
3433.000000	65.013313 
3432.000000	65.011715 
3431.000000	65.014314 
3430.000000	65.019178 
3429.000000	65.024662 
3428.000000	65.030360 
3427.000000	65.036153 
3426.000000	65.043187 
3425.000000	65.052771 
3424.000000	65.066528 
3423.000000	65.085577 
3422.000000	65.110492 
3421.000000	65.140938 
3420.000000	65.175509 
3419.000000	65.211963 
3418.000000	65.247416 
3417.000000	65.278792 
3416.000000	65.303468 
3415.000000	65.319633 
3414.000000	65.326881 
3413.000000	65.326428 
3412.000000	65.320730 
3411.000000	65.312862 
3410.000000	65.306305 
3409.000000	65.303635 
3408.000000	65.306591 
3407.000000	65.315151 
3406.000000	65.327930 
3405.000000	65.342521 
3404.000000	65.356159 
3403.000000	65.366482 
3402.000000	65.372157 
3401.000000	65.373086 
3400.000000	65.370321 
3399.000000	65.365791 
3398.000000	65.361714 
3397.000000	65.359926 
3396.000000	65.361499 
3395.000000	65.366387 
3394.000000	65.373706 
3393.000000	65.381813 
3392.000000	65.388917 
3391.000000	65.393185 
3390.000000	65.393257 
3389.000000	65.388107 
3388.000000	65.377426 
3387.000000	65.361380 
3386.000000	65.340590 
3385.000000	65.316200 
3384.000000	65.289616 
3383.000000	65.262508 
3382.000000	65.236520 
3381.000000	65.213203 
3380.000000	65.193796 
3379.000000	65.178537 
3378.000000	65.166878 
3377.000000	65.157532 
3376.000000	65.148997 
3375.000000	65.139627 
3374.000000	65.128564 
3373.000000	65.115547 
3372.000000	65.101432 
3371.000000	65.087771 
3370.000000	65.076565 
3369.000000	65.069317 
3368.000000	65.067243 
3367.000000	65.070557 
3366.000000	65.078783 
3365.000000	65.090680 
3364.000000	65.104842 
3363.000000	65.120124 
3362.000000	65.135836 
3361.000000	65.151810 
3360.000000	65.168595 
3359.000000	65.187335 
3358.000000	65.209269 
3357.000000	65.235447 
3356.000000	65.266704 
3355.000000	65.303325 
3354.000000	65.344953 
3353.000000	65.390419 
3352.000000	65.437912 
3351.000000	65.484738 
3350.000000	65.528011 
3349.000000	65.564608 
3348.000000	65.591812 
3347.000000	65.607452 
3346.000000	65.610766 
3345.000000	65.602087 
3344.000000	65.583300 
3343.000000	65.557026 
3342.000000	65.526652 
3341.000000	65.495061 
3340.000000	65.464711 
3339.000000	65.436768 
3338.000000	65.411520 
3337.000000	65.388321 
3336.000000	65.366244 
3335.000000	65.344429 
3334.000000	65.322542 
3333.000000	65.301036 
3332.000000	65.281200 
3331.000000	65.264439 
3330.000000	65.252113 
3329.000000	65.245056 
3328.000000	65.243506 
3327.000000	65.246844 
3326.000000	65.253853 
3325.000000	65.263271 
3324.000000	65.273761 
3323.000000	65.284252 
3322.000000	65.293860 
3321.000000	65.301823 
3320.000000	65.307402 
3319.000000	65.309596 
3318.000000	65.307402 
3317.000000	65.300345 
3316.000000	65.288519 
3315.000000	65.273022 
3314.000000	65.255427 
3313.000000	65.237975 
3312.000000	65.222764 
3311.000000	65.211391 
3310.000000	65.204405 
3309.000000	65.201091 
3308.000000	65.199875 
3307.000000	65.198874 
3306.000000	65.196323 
3305.000000	65.191221 
3304.000000	65.183758 
3303.000000	65.175271 
3302.000000	65.167999 
3301.000000	65.164303 
3300.000000	65.166020 
3299.000000	65.173864 
3298.000000	65.186929 
3297.000000	65.202951 
3296.000000	65.218830 
3295.000000	65.231323 
3294.000000	65.238118 
3293.000000	65.238142 
3292.000000	65.231966 
3291.000000	65.221524 
3290.000000	65.209317 
3289.000000	65.197706 
3288.000000	65.188407 
3287.000000	65.182065 
3286.000000	65.178251 
3285.000000	65.175914 
3284.000000	65.174007 
3283.000000	65.171694 
3282.000000	65.168762 
3281.000000	65.165758 
3280.000000	65.163779 
3279.000000	65.164160 
3278.000000	65.168023 
3277.000000	65.176153 
3276.000000	65.188670 
3275.000000	65.204906 
3274.000000	65.223336 
3273.000000	65.242218 
3272.000000	65.259313 
3271.000000	65.272712 
3270.000000	65.280723 
3269.000000	65.282487 
3268.000000	65.277934 
3267.000000	65.267896 
3266.000000	65.254330 
3265.000000	65.239620 
3264.000000	65.226483 
3263.000000	65.217351 
3262.000000	65.213847 
3261.000000	65.216612 
3260.000000	65.225076 
3259.000000	65.237760 
3258.000000	65.252470 
3257.000000	65.267062 
3256.000000	65.279936 
3255.000000	65.290212 
3254.000000	65.298008 
3253.000000	65.304279 
3252.000000	65.310287 
3251.000000	65.317153 
3250.000000	65.325641 
3249.000000	65.335655 
3248.000000	65.346455 
3247.000000	65.356636 
3246.000000	65.364789 
3245.000000	65.369701 
3244.000000	65.370750 
3243.000000	65.367865 
3242.000000	65.361475 
3241.000000	65.352511 
3240.000000	65.342235 
3239.000000	65.332055 
3238.000000	65.323162 
3237.000000	65.316510 
3236.000000	65.312600 
3235.000000	65.311622 
3234.000000	65.313529 
3233.000000	65.317964 
3232.000000	65.324354 
3231.000000	65.332150 
3230.000000	65.340757 
3229.000000	65.349435 
3228.000000	65.357470 
3227.000000	65.364027 
3226.000000	65.368413 
3225.000000	65.370535 
3224.000000	65.370702 
3223.000000	65.369820 
3222.000000	65.368914 
3221.000000	65.369105 
3220.000000	65.370821 
3219.000000	65.373754 
3218.000000	65.376472 
3217.000000	65.376806 
3216.000000	65.372443 
3215.000000	65.361118 
3214.000000	65.341997 
3213.000000	65.315628 
3212.000000	65.284585 
3211.000000	65.252733 
3210.000000	65.224933 
3209.000000	65.205788 
3208.000000	65.198898 
3207.000000	65.206027 
3206.000000	65.226793 
3205.000000	65.258598 
3204.000000	65.297245 
3203.000000	65.337848 
3202.000000	65.375638 
3201.000000	65.406847 
3200.000000	65.429115 
3199.000000	65.441751 
3198.000000	65.445613 
3197.000000	65.442633 
3196.000000	65.435314 
3195.000000	65.426063 
3194.000000	65.416908 
3193.000000	65.408968 
3192.000000	65.402555 
3191.000000	65.397119 
3190.000000	65.391516 
3189.000000	65.384340 
3188.000000	65.374279 
3187.000000	65.360879 
3186.000000	65.344405 
3185.000000	65.326356 
3184.000000	65.308952 
3183.000000	65.294861 
3182.000000	65.286612 
3181.000000	65.285992 
3180.000000	65.293359 
3179.000000	65.307688 
3178.000000	65.326642 
3177.000000	65.346932 
3176.000000	65.365076 
3175.000000	65.378093 
3174.000000	65.384101 
3173.000000	65.382552 
3172.000000	65.374183 
3171.000000	65.360927 
3170.000000	65.345454 
3169.000000	65.330433 
3168.000000	65.318012 
3167.000000	65.309786 
3166.000000	65.306496 
3165.000000	65.308189 
3164.000000	65.314149 
3163.000000	65.323233 
3162.000000	65.333986 
3161.000000	65.344762 
3160.000000	65.353989 
3159.000000	65.360045 
3158.000000	65.361666 
3157.000000	65.358185 
3156.000000	65.349459 
3155.000000	65.336084 
3154.000000	65.319323 
3153.000000	65.301108 
3152.000000	65.283465 
3151.000000	65.268111 
3150.000000	65.255975 
3149.000000	65.247416 
3148.000000	65.242004 
3147.000000	65.238714 
3146.000000	65.236258 
3145.000000	65.233612 
3144.000000	65.230059 
3143.000000	65.225505 
3142.000000	65.220069 
3141.000000	65.214180 
3140.000000	65.208315 
3139.000000	65.202879 
3138.000000	65.198063 
3137.000000	65.193843 
3136.000000	65.189957 
3135.000000	65.186166 
3134.000000	65.182471 
3133.000000	65.179228 
3132.000000	65.177154 
3131.000000	65.177226 
3130.000000	65.180492 
3129.000000	65.187668 
3128.000000	65.199065 
3127.000000	65.214443 
3126.000000	65.232706 
3125.000000	65.252470 
3124.000000	65.272116 
3123.000000	65.290379 
3122.000000	65.306425 
3121.000000	65.320038 
3120.000000	65.331363 
3119.000000	65.340805 
3118.000000	65.348768 
3117.000000	65.355157 
3116.000000	65.359473 
3115.000000	65.361118 
3114.000000	65.359425 
3113.000000	65.354394 
3112.000000	65.346670 
3111.000000	65.337944 
3110.000000	65.330433 
3109.000000	65.326547 
3108.000000	65.328001 
3107.000000	65.335464 
3106.000000	65.348029 
3105.000000	65.363311 
3104.000000	65.377902 
3103.000000	65.388154 
3102.000000	65.391016 
3101.000000	65.384936 
3100.000000	65.370202 
3099.000000	65.348815 
3098.000000	65.324044 
3097.000000	65.299630 
3096.000000	65.278983 
3095.000000	65.264248 
3094.000000	65.256333 
3093.000000	65.254712 
3092.000000	65.257954 
3091.000000	65.264177 
3090.000000	65.271711 
3089.000000	65.279579 
3088.000000	65.287256 
3087.000000	65.294790 
3086.000000	65.302515 
3085.000000	65.310740 
3084.000000	65.319418 
3083.000000	65.328097 
3082.000000	65.336060 
3081.000000	65.342402 
3080.000000	65.346288 
3079.000000	65.347051 
3078.000000	65.344381 
3077.000000	65.338087 
3076.000000	65.328431 
3075.000000	65.315914 
3074.000000	65.301203 
3073.000000	65.285277 
3072.000000	65.269327 
3071.000000	65.254735 
3070.000000	65.242958 
3069.000000	65.235471 
3068.000000	65.233445 
3067.000000	65.237545 
3066.000000	65.247702 
3065.000000	65.263247 
3064.000000	65.282917 
3063.000000	65.304803 
3062.000000	65.326738 
3061.000000	65.346503 
3060.000000	65.362191 
3059.000000	65.372276 
3058.000000	65.375995 
3057.000000	65.373134 
3056.000000	65.364265 
3055.000000	65.350985 
3054.000000	65.335083 
3053.000000	65.318894 
3052.000000	65.304231 
3051.000000	65.292859 
3050.000000	65.285611 
3049.000000	65.282464 
3048.000000	65.282845 
3047.000000	65.285706 
3046.000000	65.289998 
3045.000000	65.294861 
3044.000000	65.299987 
3043.000000	65.305709 
3042.000000	65.312814 
3041.000000	65.322256 
3040.000000	65.334963 
3039.000000	65.351414 
3038.000000	65.371417 
3037.000000	65.394043 
3036.000000	65.418004 
3035.000000	65.441536 
3034.000000	65.462779 
3033.000000	65.479874 
3032.000000	65.491414 
3031.000000	65.496134 
3030.000000	65.493440 
3029.000000	65.483140 
3028.000000	65.465664 
3027.000000	65.442013 
3026.000000	65.413999 
3025.000000	65.383958 
3024.000000	65.354442 
3023.000000	65.327835 
3022.000000	65.306258 
3021.000000	65.290927 
3020.000000	65.281772 
3019.000000	65.277743 
3018.000000	65.276861 
3017.000000	65.276885 
3016.000000	65.275740 
3015.000000	65.271878 
3014.000000	65.264701 
3013.000000	65.254306 
3012.000000	65.241360 
3011.000000	65.226697 
3010.000000	65.211009 
3009.000000	65.194606 
3008.000000	65.177750 
3007.000000	65.160727 
3006.000000	65.144300 
3005.000000	65.129899 
3004.000000	65.119719 
3003.000000	65.116238 
3002.000000	65.121912 
3001.000000	65.138363 
3000.000000	65.166306 
2999.000000	65.204501 
2998.000000	65.250539 
2997.000000	65.300869 
2996.000000	65.351462 
2995.000000	65.398573 
2994.000000	65.439033 
2993.000000	65.470671 
2992.000000	65.492057 
2991.000000	65.502810 
2990.000000	65.503144 
2989.000000	65.493822 
2988.000000	65.476036 
2987.000000	65.451478 
2986.000000	65.422415 
2985.000000	65.391683 
2984.000000	65.362286 
2983.000000	65.337252 
2982.000000	65.319061 
2981.000000	65.309286 
2980.000000	65.308260 
2979.000000	65.315175 
2978.000000	65.328097 
2977.000000	65.344429 
2976.000000	65.361356 
2975.000000	65.376615 
2974.000000	65.388488 
2973.000000	65.396261 
2972.000000	65.399885 
2971.000000	65.399813 
2970.000000	65.396952 
2969.000000	65.392017 
2968.000000	65.385556 
2967.000000	65.377736 
2966.000000	65.368700 
2965.000000	65.358352 
2964.000000	65.346598 
2963.000000	65.333271 
2962.000000	65.318512 
2961.000000	65.302467 
2960.000000	65.285301 
2959.000000	65.267348 
2958.000000	65.249156 
2957.000000	65.231585 
2956.000000	65.215611 
2955.000000	65.202593 
2954.000000	65.193724 
2953.000000	65.189933 
2952.000000	65.191602 
2951.000000	65.198159 
2950.000000	65.208053 
2949.000000	65.218997 
2948.000000	65.228199 
2947.000000	65.233039 
2946.000000	65.231561 
2945.000000	65.222859 
2944.000000	65.207695 
2943.000000	65.188217 
2942.000000	65.167665 
2941.000000	65.149688 
2940.000000	65.137410 
2939.000000	65.132927 
2938.000000	65.136432 
2937.000000	65.146756 
2936.000000	65.161061 
2935.000000	65.175795 
2934.000000	65.187501 
2933.000000	65.193700 
2932.000000	65.192985 
2931.000000	65.185499 
2930.000000	65.172743 
2929.000000	65.156888 
2928.000000	65.140342 
2927.000000	65.125060 
2926.000000	65.112471 
2925.000000	65.103054 
2924.000000	65.096759 
2923.000000	65.093040 
2922.000000	65.091300 
2921.000000	65.091204 
2920.000000	65.092563 
2919.000000	65.095496 
2918.000000	65.100097 
2917.000000	65.106439 
2916.000000	65.114331 
2915.000000	65.123605 
2914.000000	65.133762 
2913.000000	65.144252 
2912.000000	65.154671 
2911.000000	65.164732 
2910.000000	65.174245 
2909.000000	65.183234 
2908.000000	65.191841 
2907.000000	65.200257 
2906.000000	65.208673 
2905.000000	65.217137 
2904.000000	65.225553 
2903.000000	65.233659 
2902.000000	65.241098 
2901.000000	65.247344 
2900.000000	65.252017 
2899.000000	65.254807 
2898.000000	65.255808 
2897.000000	65.255331 
2896.000000	65.254020 
2895.000000	65.252900 
2894.000000	65.252733 
2893.000000	65.254187 
2892.000000	65.257143 
2891.000000	65.260982 
2890.000000	65.264463 
2889.000000	65.265941 
2888.000000	65.263748 
2887.000000	65.256738 
2886.000000	65.244221 
2885.000000	65.226435 
2884.000000	65.204215 
2883.000000	65.179133 
2882.000000	65.153026 
2881.000000	65.127849 
2880.000000	65.105199 
2879.000000	65.086388 
2878.000000	65.072107 
2877.000000	65.062570 
2876.000000	65.057563 
2875.000000	65.056657 
2874.000000	65.059328 
2873.000000	65.064859 
2872.000000	65.072512 
2871.000000	65.081429 
2870.000000	65.090799 
2869.000000	65.099763 
2868.000000	65.107512 
2867.000000	65.113234 
2866.000000	65.116572 
2865.000000	65.117406 
2864.000000	65.116238 
2863.000000	65.113902 
2862.000000	65.111517 
2861.000000	65.110325 
2860.000000	65.111446 
2859.000000	65.115618 
2858.000000	65.122818 
2857.000000	65.132617 
2856.000000	65.144157 
2855.000000	65.156674 
2854.000000	65.169644 
2853.000000	65.183138 
2852.000000	65.197682 
2851.000000	65.214014 
2850.000000	65.232777 
2849.000000	65.253949 
2848.000000	65.276861 
2847.000000	65.299820 
2846.000000	65.320587 
2845.000000	65.336680 
2844.000000	65.346264 
2843.000000	65.348458 
2842.000000	65.343618 
2841.000000	65.333461 
2840.000000	65.320682 
2839.000000	65.308451 
2838.000000	65.299606 
2837.000000	65.296173 
2836.000000	65.298891 
2835.000000	65.307497 
2834.000000	65.320634 
2833.000000	65.336346 
2832.000000	65.352368 
2831.000000	65.366578 
2830.000000	65.377259 
2829.000000	65.383148 
2828.000000	65.383815 
2827.000000	65.379452 
2826.000000	65.371108 
2825.000000	65.360379 
2824.000000	65.349411 
2823.000000	65.340542 
2822.000000	65.335988 
2821.000000	65.337395 
2820.000000	65.345525 
2819.000000	65.360140 
2818.000000	65.379834 
2817.000000	65.402269 
2816.000000	65.424704 
2815.000000	65.444397 
2814.000000	65.459132 
2813.000000	65.467524 
2812.000000	65.469145 
2811.000000	65.464758 
2810.000000	65.455698 
2809.000000	65.443682 
2808.000000	65.430641 
2807.000000	65.418267 
2806.000000	65.407824 
2805.000000	65.400052 
2804.000000	65.395212 
2803.000000	65.393090 
2802.000000	65.393233 
2801.000000	65.394997 
2800.000000	65.397763 
2799.000000	65.400910 
2798.000000	65.403914 
2797.000000	65.406465 
2796.000000	65.408205 
2795.000000	65.409135 
2794.000000	65.409374 
2793.000000	65.409111 
2792.000000	65.408563 
2791.000000	65.408110 
2790.000000	65.408039 
2789.000000	65.408492 
2788.000000	65.409111 
2787.000000	65.409517 
2786.000000	65.408682 
2785.000000	65.405321 
2784.000000	65.398049 
2783.000000	65.385532 
2782.000000	65.367031 
2781.000000	65.342569 
2780.000000	65.313291 
2779.000000	65.281319 
2778.000000	65.249633 
2777.000000	65.221476 
2776.000000	65.199971 
2775.000000	65.187382 
2774.000000	65.184783 
2773.000000	65.191888 
2772.000000	65.207028 
2771.000000	65.227413 
2770.000000	65.249967 
2769.000000	65.271782 
2768.000000	65.290737 
2767.000000	65.305614 
2766.000000	65.316390 
2765.000000	65.323901 
2764.000000	65.329527 
2763.000000	65.334606 
2762.000000	65.340018 
2761.000000	65.345931 
2760.000000	65.352010 
2759.000000	65.357327 
2758.000000	65.360784 
2757.000000	65.361833 
2756.000000	65.360474 
2755.000000	65.357637 
2754.000000	65.354967 
2753.000000	65.354347 
2752.000000	65.357851 
2751.000000	65.366530 
2750.000000	65.380311 
2749.000000	65.397715 
2748.000000	65.416169 
2747.000000	65.432310 
2746.000000	65.442919 
2745.000000	65.445494 
2744.000000	65.438985 
2743.000000	65.423893 
2742.000000	65.402102 
2741.000000	65.376448 
2740.000000	65.350270 
2739.000000	65.326762 
2738.000000	65.308403 
2737.000000	65.296745 
2736.000000	65.291976 
2735.000000	65.293478 
2734.000000	65.299940 
2733.000000	65.309500 
2732.000000	65.320491 
2731.000000	65.331435 
2730.000000	65.341901 
2729.000000	65.351867 
2728.000000	65.362071 
2727.000000	65.373730 
2726.000000	65.387868 
2725.000000	65.405130 
2724.000000	65.425205 
2723.000000	65.446591 
2722.000000	65.466785 
2721.000000	65.482807 
2720.000000	65.491867 
2719.000000	65.492320 
2718.000000	65.484166 
2717.000000	65.469145 
2716.000000	65.450477 
2715.000000	65.431880 
2714.000000	65.416693 
2713.000000	65.407013 
2712.000000	65.403151 
2711.000000	65.403532 
2710.000000	65.405368 
2709.000000	65.405249 
2708.000000	65.400195 
2707.000000	65.388560 
2706.000000	65.370416 
2705.000000	65.347671 
2704.000000	65.323400 
2703.000000	65.301275 
2702.000000	65.284490 
2701.000000	65.275144 
2700.000000	65.274024 
2699.000000	65.280246 
2698.000000	65.291786 
2697.000000	65.305757 
2696.000000	65.319252 
2695.000000	65.329813 
2694.000000	65.335726 
2693.000000	65.336894 
2692.000000	65.334177 
2691.000000	65.329718 
2690.000000	65.326166 
2689.000000	65.325832 
2688.000000	65.330243 
2687.000000	65.339636 
2686.000000	65.352892 
2685.000000	65.367770 
2684.000000	65.381431 
2683.000000	65.391278 
2682.000000	65.395832 
2681.000000	65.394783 
2680.000000	65.389394 
2679.000000	65.382027 
2678.000000	65.375423 
2677.000000	65.372157 
2676.000000	65.373778 
2675.000000	65.380382 
2674.000000	65.390563 
2673.000000	65.401864 
2672.000000	65.411305 
2671.000000	65.416240 
2670.000000	65.414929 
2669.000000	65.406870 
2668.000000	65.392899 
2667.000000	65.375018 
2666.000000	65.356135 
2665.000000	65.339255 
2664.000000	65.327143 
2663.000000	65.321779 
2662.000000	65.324115 
2661.000000	65.333914 
2660.000000	65.349912 
2659.000000	65.370035 
2658.000000	65.391850 
2657.000000	65.412640 
2656.000000	65.430045 
2655.000000	65.442085 
2654.000000	65.447425 
2653.000000	65.445256 
2652.000000	65.435385 
2651.000000	65.418195 
2650.000000	65.394330 
2649.000000	65.364694 
2648.000000	65.330696 
2647.000000	65.294003 
2646.000000	65.256786 
2645.000000	65.221357 
2644.000000	65.190219 
2643.000000	65.165710 
2642.000000	65.149545 
2641.000000	65.142560 
2640.000000	65.144562 
2639.000000	65.154314 
2638.000000	65.169835 
2637.000000	65.188813 
2636.000000	65.208935 
2635.000000	65.228295 
2634.000000	65.245366 
2633.000000	65.259408 
2632.000000	65.270209 
2631.000000	65.277791 
2630.000000	65.282392 
2629.000000	65.284514 
2628.000000	65.284729 
2627.000000	65.283989 
2626.000000	65.283560 
2625.000000	65.285062 
2624.000000	65.289831 
2623.000000	65.298962 
2622.000000	65.312528 
2621.000000	65.329623 
2620.000000	65.348267 
2619.000000	65.365743 
2618.000000	65.379214 
2617.000000	65.386366 
2616.000000	65.386104 
2615.000000	65.378689 
2614.000000	65.365982 
2613.000000	65.350890 
2612.000000	65.336942 
2611.000000	65.327239 
2610.000000	65.324187 
2609.000000	65.328788 
2608.000000	65.340638 
2607.000000	65.358161 
2606.000000	65.378975 
2605.000000	65.400409 
2604.000000	65.420055 
2603.000000	65.436220 
2602.000000	65.447902 
2601.000000	65.455079 
2600.000000	65.458512 
2599.000000	65.459728 
2598.000000	65.460371 
2597.000000	65.461850 
2596.000000	65.465211 
2595.000000	65.470266 
2594.000000	65.476274 
2593.000000	65.481233 
2592.000000	65.482926 
2591.000000	65.478968 
2590.000000	65.467667 
2589.000000	65.448260 
2588.000000	65.421342 
2587.000000	65.388894 
2586.000000	65.353822 
2585.000000	65.319585 
2584.000000	65.289545 
2583.000000	65.266323 
2582.000000	65.251493 
2581.000000	65.245509 
2580.000000	65.247726 
2579.000000	65.256714 
2578.000000	65.270614 
2577.000000	65.287375 
2576.000000	65.305018 
2575.000000	65.321683 
2574.000000	65.335917 
2573.000000	65.346646 
2572.000000	65.353393 
2571.000000	65.356087 
2570.000000	65.355086 
2569.000000	65.351176 
2568.000000	65.345501 
2567.000000	65.339255 
2566.000000	65.333628 
2565.000000	65.329742 
2564.000000	65.328264 
2563.000000	65.329694 
2562.000000	65.334033 
2561.000000	65.340900 
2560.000000	65.349340 
2559.000000	65.358233 
2558.000000	65.366387 
2557.000000	65.372633 
2556.000000	65.376234 
2555.000000	65.376853 
2554.000000	65.374922 
2553.000000	65.371417 
2552.000000	65.367722 
2551.000000	65.365409 
2550.000000	65.365815 
2549.000000	65.369582 
2548.000000	65.376615 
2547.000000	65.385794 
2546.000000	65.395355 
2545.000000	65.403032 
2544.000000	65.406632 
2543.000000	65.404653 
2542.000000	65.396690 
2541.000000	65.383553 
2540.000000	65.367245 
2539.000000	65.350532 
2538.000000	65.336346 
2537.000000	65.327191 
2536.000000	65.324521 
2535.000000	65.328550 
2534.000000	65.338373 
2533.000000	65.351867 
2532.000000	65.366554 
2531.000000	65.379738 
2530.000000	65.389037 
2529.000000	65.392732 
2528.000000	65.389704 
2527.000000	65.379786 
2526.000000	65.363621 
2525.000000	65.342545 
2524.000000	65.318417 
2523.000000	65.293550 
2522.000000	65.270376 
2521.000000	65.251231 
2520.000000	65.238046 
2519.000000	65.231966 
2518.000000	65.233278 
2517.000000	65.241217 
2516.000000	65.254259 
2515.000000	65.270209 
2514.000000	65.287065 
2513.000000	65.302872 
2512.000000	65.316605 
2511.000000	65.328001 
2510.000000	65.337681 
2509.000000	65.346693 
2508.000000	65.355992 
2507.000000	65.366196 
2506.000000	65.377140 
2505.000000	65.387964 
2504.000000	65.397357 
2503.000000	65.403842 
2502.000000	65.406107 
2501.000000	65.403795 
2500.000000	65.397214 
2499.000000	65.387463 
2498.000000	65.376067 
2497.000000	65.364456 
2496.000000	65.353727 
2495.000000	65.344381 
2494.000000	65.336227 
2493.000000	65.328812 
2492.000000	65.321493 
2491.000000	65.313720 
2490.000000	65.305447 
2489.000000	65.297102 
2488.000000	65.289235 
2487.000000	65.282630 
2486.000000	65.277552 
2485.000000	65.274071 
2484.000000	65.271639 
2483.000000	65.269446 
2482.000000	65.266585 
2481.000000	65.262699 
2480.000000	65.257763 
2479.000000	65.252685 
2478.000000	65.248751 
2477.000000	65.247440 
2476.000000	65.249991 
2475.000000	65.256977 
2474.000000	65.268063 
2473.000000	65.282011 
2472.000000	65.296816 
2471.000000	65.310406 
2470.000000	65.320920 
2469.000000	65.327215 
2468.000000	65.329027 
2467.000000	65.326976 
2466.000000	65.322256 
2465.000000	65.316271 
2464.000000	65.310263 
2463.000000	65.304970 
2462.000000	65.300583 
2461.000000	65.296864 
2460.000000	65.293598 
2459.000000	65.290665 
2458.000000	65.288615 
2457.000000	65.288352 
2456.000000	65.291261 
2455.000000	65.298509 
2454.000000	65.310859 
2453.000000	65.328121 
2452.000000	65.349078 
2451.000000	65.371489 
2450.000000	65.392899 
2449.000000	65.410923 
2448.000000	65.424275 
2447.000000	65.432763 
2446.000000	65.437769 
2445.000000	65.441775 
2444.000000	65.447592 
2443.000000	65.457630 
2442.000000	65.472936 
2441.000000	65.492773 
2440.000000	65.514826 
2439.000000	65.535378 
2438.000000	65.550470 
2437.000000	65.556764 
2436.000000	65.552520 
2435.000000	65.537810 
2434.000000	65.514707 
2433.000000	65.486598 
2432.000000	65.457439 
2431.000000	65.430736 
2430.000000	65.409159 
2429.000000	65.393733 
2428.000000	65.384292 
2427.000000	65.379333 
2426.000000	65.377020 
2425.000000	65.375185 
2424.000000	65.372085 
2423.000000	65.366458 
2422.000000	65.357494 
2421.000000	65.345215 
2420.000000	65.329790 
2419.000000	65.312194 
2418.000000	65.294003 
2417.000000	65.277266 
2416.000000	65.264153 
2415.000000	65.256977 
2414.000000	65.257430 
2413.000000	65.266251 
2412.000000	65.282726 
2411.000000	65.304827 
2410.000000	65.329456 
2409.000000	65.352916 
2408.000000	65.371775 
2407.000000	65.383338 
2406.000000	65.386295 
2405.000000	65.380787 
2404.000000	65.368437 
2403.000000	65.351366 
2402.000000	65.332198 
2401.000000	65.313315 
2400.000000	65.296626 
2399.000000	65.283393 
2398.000000	65.274238 
2397.000000	65.269565 
2396.000000	65.269207 
2395.000000	65.272784 
2394.000000	65.279197 
2393.000000	65.287113 
2392.000000	65.294647 
2391.000000	65.299868 
2390.000000	65.301060 
2389.000000	65.297007 
2388.000000	65.287208 
2387.000000	65.272212 
2386.000000	65.253472 
2385.000000	65.233230 
2384.000000	65.214204 
2383.000000	65.198993 
2382.000000	65.189671 
2381.000000	65.187597 
2380.000000	65.193080 
2379.000000	65.205597 
2378.000000	65.223717 
2377.000000	65.245461 
2376.000000	65.268826 
2375.000000	65.292024 
2374.000000	65.313410 
2373.000000	65.331935 
2372.000000	65.347146 
2371.000000	65.358996 
2370.000000	65.367722 
2369.000000	65.373778 
2368.000000	65.377569 
2367.000000	65.379333 
2366.000000	65.379476 
2365.000000	65.378332 
2364.000000	65.376591 
2363.000000	65.375089 
2362.000000	65.374970 
2361.000000	65.377283 
2360.000000	65.382671 
2359.000000	65.391421 
2358.000000	65.403127 
2357.000000	65.416741 
2356.000000	65.430593 
2355.000000	65.443110 
2354.000000	65.452599 
2353.000000	65.457701 
2352.000000	65.457224 
2351.000000	65.450811 
2350.000000	65.438461 
2349.000000	65.420770 
2348.000000	65.398526 
2347.000000	65.372991 
2346.000000	65.345406 
2345.000000	65.317273 
2344.000000	65.289831 
2343.000000	65.264177 
2342.000000	65.241193 
2341.000000	65.221619 
2340.000000	65.206003 
2339.000000	65.194702 
2338.000000	65.188145 
2337.000000	65.186977 
2336.000000	65.191650 
2335.000000	65.202498 
2334.000000	65.219306 
2333.000000	65.241408 
2332.000000	65.267205 
2331.000000	65.294742 
2330.000000	65.321779 
2329.000000	65.346312 
2328.000000	65.366888 
2327.000000	65.382695 
2326.000000	65.393567 
2325.000000	65.399789 
2324.000000	65.401911 
2323.000000	65.400624 
2322.000000	65.396380 
2321.000000	65.389633 
2320.000000	65.380883 
2319.000000	65.370559 
2318.000000	65.359354 
2317.000000	65.347933 
2316.000000	65.337133 
2315.000000	65.327501 
2314.000000	65.319442 
2313.000000	65.312862 
2312.000000	65.307354 
2311.000000	65.302348 
2310.000000	65.297365 
2309.000000	65.292072 
2308.000000	65.286564 
2307.000000	65.281176 
2306.000000	65.276575 
2305.000000	65.273213 
2304.000000	65.271592 
2303.000000	65.271735 
2302.000000	65.273690 
2301.000000	65.277242 
2300.000000	65.282344 
2299.000000	65.288949 
2298.000000	65.297317 
2297.000000	65.307736 
2296.000000	65.320253 
2295.000000	65.334892 
2294.000000	65.351104 
2293.000000	65.367937 
2292.000000	65.383887 
2291.000000	65.397191 
2290.000000	65.405964 
2289.000000	65.408611 
2288.000000	65.404224 
2287.000000	65.392565 
2286.000000	65.374469 
2285.000000	65.351533 
2284.000000	65.325975 
2283.000000	65.300321 
2282.000000	65.276932 
2281.000000	65.257835 
2280.000000	65.244555 
2279.000000	65.237879 
2278.000000	65.238046 
2277.000000	65.244579 
2276.000000	65.256524 
2275.000000	65.272450 
2274.000000	65.290641 
2273.000000	65.309190 
2272.000000	65.326309 
2271.000000	65.340280 
2270.000000	65.349817 
2269.000000	65.354228 
2268.000000	65.353608 
2267.000000	65.348410 
2266.000000	65.339851 
2265.000000	65.329074 
2264.000000	65.317320 
2263.000000	65.305614 
2262.000000	65.294432 
2261.000000	65.283894 
2260.000000	65.273976 
2259.000000	65.264558 
2258.000000	65.255594 
2257.000000	65.247154 
2256.000000	65.239691 
2255.000000	65.233588 
2254.000000	65.229392 
2253.000000	65.227508 
2252.000000	65.228438 
2251.000000	65.232586 
2250.000000	65.240406 
2249.000000	65.252113 
2248.000000	65.267777 
2247.000000	65.287232 
2246.000000	65.309762 
2245.000000	65.334081 
2244.000000	65.358376 
2243.000000	65.380382 
2242.000000	65.397787 
2241.000000	65.408611 
2240.000000	65.411782 
2239.000000	65.407323 
2238.000000	65.396523 
2237.000000	65.381622 
2236.000000	65.365481 
2235.000000	65.351223 
2234.000000	65.341162 
2233.000000	65.336680 
2232.000000	65.337777 
2231.000000	65.343308 
2230.000000	65.351247 
2229.000000	65.359234 
2228.000000	65.365028 
2227.000000	65.367221 
2226.000000	65.365338 
2225.000000	65.360021 
2224.000000	65.352582 
2223.000000	65.344715 
2222.000000	65.338015 
2221.000000	65.333485 
2220.000000	65.331482 
2219.000000	65.331506 
2218.000000	65.332770 
2217.000000	65.334177 
2216.000000	65.334916 
2215.000000	65.334534 
2214.000000	65.333127 
2213.000000	65.331506 
2212.000000	65.330553 
2211.000000	65.331625 
2210.000000	65.335702 
2209.000000	65.343618 
2208.000000	65.355658 
2207.000000	65.371298 
2206.000000	65.389347 
2205.000000	65.407896 
2204.000000	65.424704 
2203.000000	65.437269 
2202.000000	65.443444 
2201.000000	65.441679 
2200.000000	65.431499 
2199.000000	65.413475 
2198.000000	65.389275 
2197.000000	65.361237 
2196.000000	65.332269 
2195.000000	65.305447 
2194.000000	65.283584 
2193.000000	65.268659 
2192.000000	65.261578 
2191.000000	65.262174 
2190.000000	65.269327 
2189.000000	65.281033 
2188.000000	65.295243 
2187.000000	65.309977 
2186.000000	65.324020 
2185.000000	65.336775 
2184.000000	65.348291 
2183.000000	65.358948 
2182.000000	65.369081 
2181.000000	65.378761 
2180.000000	65.387606 
2179.000000	65.394830 
2178.000000	65.399551 
2177.000000	65.401220 
2176.000000	65.399861 
2175.000000	65.396118 
2174.000000	65.391254 
2173.000000	65.386557 
2172.000000	65.383076 
2171.000000	65.380978 
2170.000000	65.379452 
2169.000000	65.376853 
2168.000000	65.371322 
2167.000000	65.361142 
2166.000000	65.345644 
2165.000000	65.325331 
2164.000000	65.301680 
2163.000000	65.276908 
2162.000000	65.253305 
2161.000000	65.232825 
2160.000000	65.216779 
2159.000000	65.205574 
2158.000000	65.198969 
2157.000000	65.196204 
2156.000000	65.196394 
2155.000000	65.198779 
2154.000000	65.202784 
2153.000000	65.208172 
2152.000000	65.215015 
2151.000000	65.223383 
2150.000000	65.233087 
2149.000000	65.243792 
2148.000000	65.254974 
2147.000000	65.265965 
2146.000000	65.276074 
2145.000000	65.284729 
2144.000000	65.291452 
2143.000000	65.296173 
2142.000000	65.299034 
2141.000000	65.300440 
2140.000000	65.300846 
2139.000000	65.300726 
2138.000000	65.300559 
2137.000000	65.300393 
2136.000000	65.300035 
2135.000000	65.299081 
2134.000000	65.297126 
2133.000000	65.294051 
2132.000000	65.290212 
2131.000000	65.286326 
2130.000000	65.283560 
2129.000000	65.282917 
2128.000000	65.285253 
2127.000000	65.290689 
2126.000000	65.298700 
2125.000000	65.307974 
2124.000000	65.316820 
2123.000000	65.323615 
2122.000000	65.327286 
2121.000000	65.327596 
2120.000000	65.325379 
2119.000000	65.322232 
2118.000000	65.320229 
2117.000000	65.321397 
2116.000000	65.327239 
2115.000000	65.338182 
2114.000000	65.353631 
2113.000000	65.371918 
2112.000000	65.390992 
2111.000000	65.408349 
2110.000000	65.421724 
2109.000000	65.429115 
2108.000000	65.429377 
2107.000000	65.421867 
2106.000000	65.406608 
2105.000000	65.384197 
2104.000000	65.355896 
2103.000000	65.323519 
2102.000000	65.289306 
2101.000000	65.255737 
2100.000000	65.225481 
2099.000000	65.200877 
2098.000000	65.183711 
2097.000000	65.174794 
2096.000000	65.173983 
2095.000000	65.180015 
2094.000000	65.190839 
2093.000000	65.203952 
2092.000000	65.216994 
2091.000000	65.228176 
2090.000000	65.236687 
2089.000000	65.242695 
2088.000000	65.247225 
2087.000000	65.251898 
2086.000000	65.258359 
2085.000000	65.268015 
2084.000000	65.281581 
2083.000000	65.299129 
2082.000000	65.319943 
2081.000000	65.342926 
2080.000000	65.366578 
2079.000000	65.389323 
2078.000000	65.409588 
2077.000000	65.426182 
2076.000000	65.437960 
2075.000000	65.444326 
2074.000000	65.445137 
2073.000000	65.440845 
2072.000000	65.432596 
2071.000000	65.421867 
2070.000000	65.410709 
2069.000000	65.401291 
2068.000000	65.395450 
2067.000000	65.394496 
2066.000000	65.398788 
2065.000000	65.407800 
2064.000000	65.419936 
2063.000000	65.432977 
2062.000000	65.444540 
2061.000000	65.452504 
2060.000000	65.455412 
2059.000000	65.452957 
2058.000000	65.445613 
2057.000000	65.434718 
2056.000000	65.422129 
2055.000000	65.409803 
2054.000000	65.399217 
2053.000000	65.391254 
2052.000000	65.386152 
2051.000000	65.383553 
2050.000000	65.382719 
2049.000000	65.382647 
2048.000000	65.382504 
2047.000000	65.381717 
2046.000000	65.379905 
2045.000000	65.376996 
2044.000000	65.373086 
2043.000000	65.368413 
2042.000000	65.363216 
2041.000000	65.357899 
2040.000000	65.353059 
2039.000000	65.349316 
2038.000000	65.347433 
2037.000000	65.347981 
2036.000000	65.351247 
2035.000000	65.357160 
2034.000000	65.365028 
2033.000000	65.373659 
2032.000000	65.381550 
2031.000000	65.387296 
2030.000000	65.389513 
2029.000000	65.387415 
2028.000000	65.380930 
2027.000000	65.370607 
2026.000000	65.357732 
2025.000000	65.344047 
2024.000000	65.331363 
2023.000000	65.321588 
2022.000000	65.316081 
2021.000000	65.315556 
2020.000000	65.319967 
2019.000000	65.328598 
2018.000000	65.340065 
2017.000000	65.352559 
2016.000000	65.364313 
2015.000000	65.373706 
2014.000000	65.379643 
2013.000000	65.381717 
2012.000000	65.380263 
2011.000000	65.376114 
2010.000000	65.370583 
2009.000000	65.364956 
2008.000000	65.360355 
2007.000000	65.357589 
2006.000000	65.356922 
2005.000000	65.358281 
2004.000000	65.361404 
2003.000000	65.365791 
2002.000000	65.370917 
2001.000000	65.376400 
2000.000000	65.381765 
1999.000000	65.386843 
1998.000000	65.391421 
1997.000000	65.395522 
1996.000000	65.399384 
1995.000000	65.403509 
1994.000000	65.408444 
1993.000000	65.414762 
1992.000000	65.423083 
1991.000000	65.433263 
1990.000000	65.444731 
1989.000000	65.456056 
1988.000000	65.465331 
1987.000000	65.470409 
1986.000000	65.469503 
1985.000000	65.461444 
1984.000000	65.446162 
1983.000000	65.424823 
1982.000000	65.399765 
1981.000000	65.374064 
1980.000000	65.350675 
1979.000000	65.332126 
1978.000000	65.319728 
1977.000000	65.313482 
1976.000000	65.312218 
1975.000000	65.314078 
1974.000000	65.317177 
1973.000000	65.319943 
1972.000000	65.321612 
1971.000000	65.322351 
1970.000000	65.323209 
1969.000000	65.325355 
1968.000000	65.330004 
1967.000000	65.337753 
1966.000000	65.348505 
1965.000000	65.361309 
1964.000000	65.374660 
1963.000000	65.386700 
1962.000000	65.395689 
1961.000000	65.400457 
1960.000000	65.400457 
1959.000000	65.396070 
1958.000000	65.388369 
1957.000000	65.378880 
1956.000000	65.369391 
1955.000000	65.361452 
1954.000000	65.356230 
1953.000000	65.354228 
1952.000000	65.355324 
1951.000000	65.358829 
1950.000000	65.363574 
1949.000000	65.368270 
1948.000000	65.371513 
1947.000000	65.372133 
1946.000000	65.369582 
1945.000000	65.363860 
1944.000000	65.355563 
1943.000000	65.345835 
1942.000000	65.336155 
1941.000000	65.328073 
1940.000000	65.322899 
1939.000000	65.321469 
1938.000000	65.323948 
1937.000000	65.329861 
1936.000000	65.338134 
1935.000000	65.347433 
1934.000000	65.356445 
1933.000000	65.364027 
1932.000000	65.369415 
1931.000000	65.372228 
1930.000000	65.372443 
1929.000000	65.370249 
1928.000000	65.366005 
1927.000000	65.359950 
1926.000000	65.352392 
1925.000000	65.343713 
1924.000000	65.334367 
1923.000000	65.324926 
1922.000000	65.316295 
1921.000000	65.309286 
1920.000000	65.304803 
1919.000000	65.303349 
1918.000000	65.305233 
1917.000000	65.310215 
1916.000000	65.318083 
1915.000000	65.328121 
1914.000000	65.339732 
1913.000000	65.352249 
1912.000000	65.365219 
1911.000000	65.378284 
1910.000000	65.391087 
1909.000000	65.403127 
1908.000000	65.413784 
1907.000000	65.422368 
1906.000000	65.428090 
1905.000000	65.430188 
1904.000000	65.428209 
1903.000000	65.422034 
1902.000000	65.411877 
1901.000000	65.398311 
1900.000000	65.382266 
1899.000000	65.364861 
1898.000000	65.347385 
1897.000000	65.331125 
1896.000000	65.317344 
1895.000000	65.307021 
1894.000000	65.300512 
1893.000000	65.297818 
1892.000000	65.298199 
1891.000000	65.300679 
1890.000000	65.303921 
1889.000000	65.306639 
1888.000000	65.307950 
1887.000000	65.307402 
1886.000000	65.305018 
1885.000000	65.301108 
1884.000000	65.296268 
1883.000000	65.290951 
1882.000000	65.285205 
1881.000000	65.278863 
1880.000000	65.271615 
1879.000000	65.263271 
1878.000000	65.254116 
1877.000000	65.245079 
1876.000000	65.237593 
1875.000000	65.233182 
1874.000000	65.233135 
1873.000000	65.238070 
1872.000000	65.247631 
1871.000000	65.260696 
1870.000000	65.275669 
1869.000000	65.290594 
1868.000000	65.304064 
1867.000000	65.315055 
1866.000000	65.323424 
1865.000000	65.329360 
1864.000000	65.333676 
1863.000000	65.337061 
1862.000000	65.340209 
1861.000000	65.343499 
1860.000000	65.346980 
1859.000000	65.350389 
1858.000000	65.353369 
1857.000000	65.355753 
1856.000000	65.357422 
1855.000000	65.358471 
1854.000000	65.359163 
1853.000000	65.359926 
1852.000000	65.361428 
1851.000000	65.364360 
1850.000000	65.369462 
1849.000000	65.377140 
1848.000000	65.387296 
1847.000000	65.399050 
1846.000000	65.410757 
1845.000000	65.420222 
1844.000000	65.425086 
1843.000000	65.423464 
1842.000000	65.414428 
1841.000000	65.398097 
1840.000000	65.375781 
1839.000000	65.349721 
1838.000000	65.322518 
1837.000000	65.296888 
1836.000000	65.274953 
1835.000000	65.258336 
1834.000000	65.247750 
1833.000000	65.243387 
1832.000000	65.244913 
1831.000000	65.251731 
1830.000000	65.262937 
1829.000000	65.277481 
1828.000000	65.293979 
1827.000000	65.310859 
1826.000000	65.326285 
1825.000000	65.338540 
1824.000000	65.346431 
1823.000000	65.349459 
1822.000000	65.347981 
1821.000000	65.343093 
1820.000000	65.336346 
1819.000000	65.329337 
1818.000000	65.323352 
1817.000000	65.319180 
1816.000000	65.316772 
1815.000000	65.315747 
1814.000000	65.315318 
1813.000000	65.314793 
1812.000000	65.313696 
1811.000000	65.312051 
1810.000000	65.310335 
1809.000000	65.309238 
1808.000000	65.309357 
1807.000000	65.311145 
1806.000000	65.314579 
1805.000000	65.319085 
1804.000000	65.323758 
1803.000000	65.327358 
1802.000000	65.328812 
1801.000000	65.327334 
1800.000000	65.322589 
1799.000000	65.314698 
1798.000000	65.304350 
1797.000000	65.292620 
1796.000000	65.280699 
1795.000000	65.269684 
1794.000000	65.260338 
1793.000000	65.253043 
1792.000000	65.247678 
1791.000000	65.244054 
1790.000000	65.241885 
1789.000000	65.241217 
1788.000000	65.242481 
1787.000000	65.246605 
1786.000000	65.254592 
1785.000000	65.267443 
1784.000000	65.285658 
1783.000000	65.308904 
1782.000000	65.335845 
1781.000000	65.364193 
1780.000000	65.390992 
1779.000000	65.412998 
1778.000000	65.427470 
1777.000000	65.432405 
1776.000000	65.427112 
1775.000000	65.412282 
1774.000000	65.389990 
1773.000000	65.363192 
1772.000000	65.335202 
1771.000000	65.309190 
1770.000000	65.287613 
1769.000000	65.272021 
1768.000000	65.262866 
1767.000000	65.259695 
1766.000000	65.261316 
1765.000000	65.266299 
1764.000000	65.273213 
1763.000000	65.280747 
1762.000000	65.288233 
1761.000000	65.295171 
1760.000000	65.301227 
1759.000000	65.306162 
1758.000000	65.309643 
1757.000000	65.311145 
1756.000000	65.310025 
1755.000000	65.305614 
1754.000000	65.297222 
1753.000000	65.284585 
1752.000000	65.267658 
1751.000000	65.247011 
1750.000000	65.223526 
1749.000000	65.198230 
1748.000000	65.172386 
1747.000000	65.147161 
1746.000000	65.123748 
1745.000000	65.103125 
1744.000000	65.086078 
1743.000000	65.073084 
1742.000000	65.064501 
1741.000000	65.060353 
1740.000000	65.060138 
1739.000000	65.062975 
1738.000000	65.067434 
1737.000000	65.071940 
1736.000000	65.074944 
1735.000000	65.075206 
1734.000000	65.072250 
1733.000000	65.066361 
1732.000000	65.058922 
1731.000000	65.051937 
1730.000000	65.047526 
1729.000000	65.047383 
1728.000000	65.052270 
1727.000000	65.061616 
1726.000000	65.073609 
1725.000000	65.085625 
1724.000000	65.094804 
1723.000000	65.098905 
1722.000000	65.097045 
1721.000000	65.090131 
1720.000000	65.080499 
1719.000000	65.071749 
1718.000000	65.067481 
1717.000000	65.070486 
1716.000000	65.081834 
1715.000000	65.100669 
1714.000000	65.124392 
1713.000000	65.149378 
1712.000000	65.171647 
1711.000000	65.188217 
1710.000000	65.197443 
1709.000000	65.199232 
1708.000000	65.194630 
1707.000000	65.185475 
1706.000000	65.173649 
1705.000000	65.160560 
1704.000000	65.147113 
1703.000000	65.133666 
1702.000000	65.120482 
1701.000000	65.108442 
1700.000000	65.098881 
1699.000000	65.093708 
1698.000000	65.094900 
1697.000000	65.104055 
1696.000000	65.121388 
1695.000000	65.145564 
1694.000000	65.173602 
1693.000000	65.201354 
1692.000000	65.224528 
1691.000000	65.239334 
1690.000000	65.243721 
1689.000000	65.237689 
1688.000000	65.223455 
1687.000000	65.204930 
1686.000000	65.186786 
1685.000000	65.173244 
1684.000000	65.167450 
1683.000000	65.170669 
1682.000000	65.182280 
1681.000000	65.199780 
1680.000000	65.219736 
1679.000000	65.238165 
1678.000000	65.251684 
1677.000000	65.257883 
1676.000000	65.255618 
1675.000000	65.245127 
1674.000000	65.227603 
1673.000000	65.205335 
1672.000000	65.181016 
1671.000000	65.157318 
1670.000000	65.136575 
1669.000000	65.120553 
1668.000000	65.110301 
1667.000000	65.106177 
1666.000000	65.107917 
1665.000000	65.114951 
1664.000000	65.126419 
1663.000000	65.141773 
1662.000000	65.160989 
1661.000000	65.184259 
1660.000000	65.211725 
1659.000000	65.243363 
1658.000000	65.278387 
1657.000000	65.315127 
1656.000000	65.350699 
1655.000000	65.381598 
1654.000000	65.404033 
1653.000000	65.414881 
1652.000000	65.412163 
1651.000000	65.395641 
1650.000000	65.366983 
1649.000000	65.329575 
1648.000000	65.288114 
1647.000000	65.247726 
1646.000000	65.213298 
1645.000000	65.188574 
1644.000000	65.175557 
1643.000000	65.174603 
1642.000000	65.184497 
1641.000000	65.202689 
1640.000000	65.225887 
1639.000000	65.250635 
1638.000000	65.273952 
1637.000000	65.293622 
1636.000000	65.308427 
1635.000000	65.318036 
1634.000000	65.322923 
1633.000000	65.323829 
1632.000000	65.321540 
1631.000000	65.316724 
1630.000000	65.309548 
1629.000000	65.300059 
1628.000000	65.288496 
1627.000000	65.275382 
1626.000000	65.261793 
1625.000000	65.249228 
1624.000000	65.239548 
1623.000000	65.234208 
1622.000000	65.233993 
1621.000000	65.238666 
1620.000000	65.246701 
1619.000000	65.255665 
1618.000000	65.262818 
1617.000000	65.265679 
1616.000000	65.262794 
1615.000000	65.254282 
1614.000000	65.241837 
1613.000000	65.228247 
1612.000000	65.216469 
1611.000000	65.209031 
1610.000000	65.207290 
1609.000000	65.211105 
1608.000000	65.219211 
1607.000000	65.229463 
1606.000000	65.239477 
1605.000000	65.247368 
1604.000000	65.252089 
1603.000000	65.253424 
1602.000000	65.251994 
1601.000000	65.248680 
1600.000000	65.244626 
1599.000000	65.240716 
1598.000000	65.237569 
1597.000000	65.235638 
1596.000000	65.235257 
1595.000000	65.236783 
1594.000000	65.240621 
1593.000000	65.247225 
1592.000000	65.256714 
1591.000000	65.268898 
1590.000000	65.283346 
1589.000000	65.298914 
1588.000000	65.314340 
1587.000000	65.328311 
1586.000000	65.339779 
1585.000000	65.348243 
1584.000000	65.353560 
1583.000000	65.356087 
1582.000000	65.356087 
1581.000000	65.353775 
1580.000000	65.348958 
1579.000000	65.341258 
1578.000000	65.330648 
1577.000000	65.317463 
1576.000000	65.302705 
1575.000000	65.287756 
1574.000000	65.274453 
1573.000000	65.264415 
1572.000000	65.258359 
1571.000000	65.256357 
1570.000000	65.257716 
1569.000000	65.261435 
1568.000000	65.266656 
1567.000000	65.272784 
1566.000000	65.279865 
1565.000000	65.288257 
1564.000000	65.298485 
1563.000000	65.310859 
1562.000000	65.325212 
1561.000000	65.340757 
1560.000000	65.356183 
1559.000000	65.370035 
1558.000000	65.381050 
1557.000000	65.388464 
1556.000000	65.392231 
1555.000000	65.392637 
1554.000000	65.390157 
1553.000000	65.385031 
1552.000000	65.377211 
1551.000000	65.366053 
1550.000000	65.350723 
1549.000000	65.330719 
1548.000000	65.306138 
1547.000000	65.278077 
1546.000000	65.248942 
1545.000000	65.221929 
1544.000000	65.200543 
1543.000000	65.187692 
1542.000000	65.185308 
1541.000000	65.193557 
1540.000000	65.211033 
1539.000000	65.234804 
1538.000000	65.261244 
1537.000000	65.286612 
1536.000000	65.307736 
1535.000000	65.322542 
1534.000000	65.330314 
1533.000000	65.331292 
1532.000000	65.326976 
1531.000000	65.319323 
1530.000000	65.310668 
1529.000000	65.303254 
1528.000000	65.298533 
1527.000000	65.297293 
1526.000000	65.299391 
1525.000000	65.304088 
1524.000000	65.310215 
1523.000000	65.316534 
1522.000000	65.322041 
1521.000000	65.326237 
1520.000000	65.329194 
1519.000000	65.331530 
1518.000000	65.333914 
1517.000000	65.337109 
1516.000000	65.341544 
1515.000000	65.347099 
1514.000000	65.353226 
1513.000000	65.359067 
1512.000000	65.363764 
1511.000000	65.366578 
1510.000000	65.367102 
1509.000000	65.365242 
1508.000000	65.361285 
1507.000000	65.355730 
1506.000000	65.349125 
1505.000000	65.342354 
1504.000000	65.336608 
1503.000000	65.333414 
1502.000000	65.334296 
1501.000000	65.340447 
1500.000000	65.352320 
1499.000000	65.369343 
1498.000000	65.389752 
1497.000000	65.410661 
1496.000000	65.428376 
1495.000000	65.439462 
1494.000000	65.441393 
1493.000000	65.433096 
1492.000000	65.415334 
1491.000000	65.390515 
1490.000000	65.362119 
1489.000000	65.333795 
1488.000000	65.308356 
1487.000000	65.287184 
1486.000000	65.270209 
1485.000000	65.256404 
1484.000000	65.244102 
1483.000000	65.231895 
1482.000000	65.219163 
1481.000000	65.206170 
1480.000000	65.194249 
1479.000000	65.184783 
1478.000000	65.179324 
1477.000000	65.178775 
1476.000000	65.183329 
1475.000000	65.192174 
1474.000000	65.203905 
1473.000000	65.216803 
1472.000000	65.229272 
1471.000000	65.240359 
1470.000000	65.249991 
1469.000000	65.258932 
1468.000000	65.268707 
1467.000000	65.280985 
1466.000000	65.297317 
1465.000000	65.318250 
1464.000000	65.343379 
1463.000000	65.370869 
1462.000000	65.398097 
1461.000000	65.421700 
1460.000000	65.438747 
1459.000000	65.446686 
1458.000000	65.444302 
1457.000000	65.431571 
1456.000000	65.410256 
1455.000000	65.383148 
1454.000000	65.353846 
1453.000000	65.325951 
1452.000000	65.302658 
1451.000000	65.285992 
1450.000000	65.276718 
1449.000000	65.274238 
1448.000000	65.277075 
1447.000000	65.283370 
1446.000000	65.291547 
1445.000000	65.300416 
1444.000000	65.309429 
1443.000000	65.318489 
1442.000000	65.327501 
1441.000000	65.335917 
1440.000000	65.342617 
1439.000000	65.346074 
1438.000000	65.344715 
1437.000000	65.337419 
1436.000000	65.323948 
1435.000000	65.305495 
1434.000000	65.284347 
1433.000000	65.263605 
1432.000000	65.246605 
1431.000000	65.236043 
1430.000000	65.233349 
1429.000000	65.238189 
1428.000000	65.248847 
1427.000000	65.262579 
1426.000000	65.276360 
1425.000000	65.287423 
1424.000000	65.293931 
1423.000000	65.295243 
1422.000000	65.291786 
1421.000000	65.284752 
1420.000000	65.275979 
1419.000000	65.267157 
1418.000000	65.259814 
1417.000000	65.254950 
1416.000000	65.252971 
1415.000000	65.253710 
1414.000000	65.256619 
1413.000000	65.261077 
1412.000000	65.266466 
1411.000000	65.272474 
1410.000000	65.279221 
1409.000000	65.287113 
1408.000000	65.296792 
1407.000000	65.308833 
1406.000000	65.323448 
1405.000000	65.340185 
1404.000000	65.357661 
1403.000000	65.373826 
1402.000000	65.386295 
1401.000000	65.392732 
1400.000000	65.391588 
1399.000000	65.382289 
1398.000000	65.365934 
1397.000000	65.344381 
1396.000000	65.320158 
1395.000000	65.295433 
1394.000000	65.271997 
1393.000000	65.250730 
1392.000000	65.231919 
1391.000000	65.215587 
1390.000000	65.201735 
1389.000000	65.190982 
1388.000000	65.184617 
1387.000000	65.184164 
1386.000000	65.191054 
1385.000000	65.205955 
1384.000000	65.228247 
1383.000000	65.255784 
1382.000000	65.285205 
1381.000000	65.312719 
1380.000000	65.334820 
1379.000000	65.349054 
1378.000000	65.354537 
1377.000000	65.352296 
1376.000000	65.344810 
1375.000000	65.335273 
1374.000000	65.326952 
1373.000000	65.322566 
1372.000000	65.323638 
1371.000000	65.330600 
1370.000000	65.342688 
1369.000000	65.358424 
1368.000000	65.375757 
1367.000000	65.392708 
1366.000000	65.407276 
1365.000000	65.417647 
1364.000000	65.422272 
1363.000000	65.420150 
1362.000000	65.410804 
1361.000000	65.394473 
1360.000000	65.372300 
1359.000000	65.346193 
1358.000000	65.318584 
1357.000000	65.291857 
1356.000000	65.267968 
1355.000000	65.248131 
1354.000000	65.232682 
1353.000000	65.221190 
1352.000000	65.212440 
1351.000000	65.205121 
1350.000000	65.198397 
1349.000000	65.192031 
1348.000000	65.186309 
1347.000000	65.182185 
1346.000000	65.180706 
1345.000000	65.182995 
1344.000000	65.189552 
1343.000000	65.200304 
1342.000000	65.214443 
1341.000000	65.230941 
1340.000000	65.248560 
1339.000000	65.266323 
1338.000000	65.283513 
1337.000000	65.299701 
1336.000000	65.314769 
1335.000000	65.328645 
1334.000000	65.341162 
1333.000000	65.351915 
1332.000000	65.360260 
1331.000000	65.365505 
1330.000000	65.366840 
1329.000000	65.363955 
1328.000000	65.356850 
1327.000000	65.345907 
1326.000000	65.332031 
1325.000000	65.316462 
1324.000000	65.300464 
1323.000000	65.285396 
1322.000000	65.272307 
1321.000000	65.261983 
1320.000000	65.255022 
1319.000000	65.251731 
1318.000000	65.252208 
1317.000000	65.256118 
1316.000000	65.263295 
1315.000000	65.273284 
1314.000000	65.285539 
1313.000000	65.299463 
1312.000000	65.314149 
1311.000000	65.328598 
1310.000000	65.341544 
1309.000000	65.351653 
1308.000000	65.357708 
1307.000000	65.358996 
1306.000000	65.355181 
1305.000000	65.346670 
1304.000000	65.334582 
1303.000000	65.320491 
1302.000000	65.306305 
1301.000000	65.293836 
1300.000000	65.284609 
1299.000000	65.279603 
1298.000000	65.279126 
1297.000000	65.282750 
1296.000000	65.289545 
1295.000000	65.298175 
1294.000000	65.307092 
1293.000000	65.314817 
1292.000000	65.320205 
1291.000000	65.322494 
1290.000000	65.321445 
1289.000000	65.317296 
1288.000000	65.310454 
1287.000000	65.301585 
1286.000000	65.291547 
1285.000000	65.281176 
1284.000000	65.271186 
1283.000000	65.262103 
1282.000000	65.254282 
1281.000000	65.247797 
1280.000000	65.242528 
1279.000000	65.238165 
1278.000000	65.234112 
1277.000000	65.229916 
1276.000000	65.225243 
1275.000000	65.219855 
1274.000000	65.213871 
1273.000000	65.207505 
1272.000000	65.201020 
1271.000000	65.194749 
1270.000000	65.188789 
1269.000000	65.182948 
1268.000000	65.176987 
1267.000000	65.170526 
1266.000000	65.163564 
1265.000000	65.156412 
1264.000000	65.150046 
1263.000000	65.145874 
1262.000000	65.145659 
1261.000000	65.150856 
1260.000000	65.162491 
1259.000000	65.180492 
1258.000000	65.203666 
1257.000000	65.229701 
1256.000000	65.255498 
1255.000000	65.277695 
1254.000000	65.293169 
1253.000000	65.299749 
1252.000000	65.296554 
1251.000000	65.284252 
1250.000000	65.265083 
1249.000000	65.242433 
1248.000000	65.220379 
1247.000000	65.202713 
1246.000000	65.192437 
1245.000000	65.191125 
1244.000000	65.198898 
1243.000000	65.213871 
1242.000000	65.233039 
1241.000000	65.252637 
1240.000000	65.268898 
1239.000000	65.279006 
1238.000000	65.281319 
1237.000000	65.275859 
1236.000000	65.264010 
1235.000000	65.248346 
1234.000000	65.231847 
1233.000000	65.217423 
1232.000000	65.207219 
1231.000000	65.202403 
1230.000000	65.202999 
1229.000000	65.207910 
1228.000000	65.215325 
1227.000000	65.223050 
1226.000000	65.228843 
1225.000000	65.230607 
1224.000000	65.226936 
1223.000000	65.217041 
1222.000000	65.201067 
1221.000000	65.179872 
1220.000000	65.155315 
1219.000000	65.129804 
1218.000000	65.106105 
1217.000000	65.087008 
1216.000000	65.074682 
1215.000000	65.070438 
1214.000000	65.074443 
1213.000000	65.085530 
1212.000000	65.101623 
1211.000000	65.120267 
1210.000000	65.139150 
1209.000000	65.156221 
1208.000000	65.170502 
1207.000000	65.181946 
1206.000000	65.191221 
1205.000000	65.199160 
1204.000000	65.206503 
1203.000000	65.213441 
1202.000000	65.219640 
1201.000000	65.224432 
1200.000000	65.227222 
1199.000000	65.227770 
1198.000000	65.226626 
1197.000000	65.225005 
1196.000000	65.224719 
1195.000000	65.227484 
1194.000000	65.234613 
1193.000000	65.246105 
1192.000000	65.260839 
1191.000000	65.276694 
1190.000000	65.290856 
1189.000000	65.300512 
1188.000000	65.303444 
1187.000000	65.298509 
1186.000000	65.285921 
1185.000000	65.266990 
1184.000000	65.243673 
1183.000000	65.218257 
1182.000000	65.192699 
1181.000000	65.168666 
1180.000000	65.147423 
1179.000000	65.129876 
1178.000000	65.116763 
1177.000000	65.108609 
1176.000000	65.105867 
1175.000000	65.108656 
1174.000000	65.116667 
1173.000000	65.128993 
1172.000000	65.144228 
1171.000000	65.160512 
1170.000000	65.175867 
1169.000000	65.188431 
1168.000000	65.197014 
1167.000000	65.200805 
1166.000000	65.199995 
1165.000000	65.195369 
1164.000000	65.188336 
1163.000000	65.180706 
1162.000000	65.174221 
1161.000000	65.170502 
1160.000000	65.170717 
1159.000000	65.175628 
1158.000000	65.185260 
1157.000000	65.199041 
1156.000000	65.215754 
1155.000000	65.233802 
1154.000000	65.251469 
1153.000000	65.267157 
1152.000000	65.279626 
1151.000000	65.288448 
1150.000000	65.293860 
1149.000000	65.296673 
1148.000000	65.298223 
1147.000000	65.299654 
1146.000000	65.301799 
1145.000000	65.304541 
1144.000000	65.307092 
1143.000000	65.307903 
1142.000000	65.305471 
1141.000000	65.298581 
1140.000000	65.286755 
1139.000000	65.270709 
1138.000000	65.252184 
1137.000000	65.233731 
1136.000000	65.217971 
1135.000000	65.207386 
1134.000000	65.203547 
1133.000000	65.207290 
1132.000000	65.218257 
1131.000000	65.235114 
1130.000000	65.256071 
1129.000000	65.278935 
1128.000000	65.301609 
1127.000000	65.321969 
1126.000000	65.338015 
1125.000000	65.348052 
1124.000000	65.350627 
1123.000000	65.344953 
1122.000000	65.331053 
1121.000000	65.309977 
1120.000000	65.283727 
1119.000000	65.254902 
1118.000000	65.226459 
1117.000000	65.201115 
1116.000000	65.180873 
1115.000000	65.166950 
1114.000000	65.159535 
1113.000000	65.158104 
1112.000000	65.161275 
1111.000000	65.167284 
1110.000000	65.174174 
1109.000000	65.179920 
1108.000000	65.182900 
1107.000000	65.182042 
1106.000000	65.177202 
1105.000000	65.168905 
1104.000000	65.158414 
1103.000000	65.147304 
1102.000000	65.137386 
1101.000000	65.130400 
1100.000000	65.127801 
1099.000000	65.130376 
1098.000000	65.138339 
1097.000000	65.151190 
1096.000000	65.167808 
1095.000000	65.186333 
1094.000000	65.204524 
1093.000000	65.219998 
1092.000000	65.230560 
1091.000000	65.234613 
1090.000000	65.231394 
1089.000000	65.221142 
1088.000000	65.204977 
1087.000000	65.184569 
1086.000000	65.162014 
1085.000000	65.139007 
1084.000000	65.116667 
1083.000000	65.095257 
1082.000000	65.074324 
1081.000000	65.053296 
1080.000000	65.031862 
1079.000000	65.010762 
1078.000000	64.991593 
1077.000000	64.977264 
1076.000000	64.970922 
1075.000000	64.975738 
1074.000000	64.993762 
1073.000000	65.025377 
1072.000000	65.068769 
1071.000000	65.120220 
1070.000000	65.174722 
1069.000000	65.226650 
1068.000000	65.270924 
1067.000000	65.303707 
1066.000000	65.323019 
1065.000000	65.329003 
1064.000000	65.323448 
1063.000000	65.309453 
1062.000000	65.290284 
1061.000000	65.269374 
1060.000000	65.249061 
1059.000000	65.230941 
1058.000000	65.215182 
1057.000000	65.201091 
1056.000000	65.187287 
1055.000000	65.172529 
1054.000000	65.156221 
1053.000000	65.138411 
1052.000000	65.120887 
1051.000000	65.106201 
1050.000000	65.097951 
1049.000000	65.099358 
1048.000000	65.113019 
1047.000000	65.139818 
1046.000000	65.178680 
1045.000000	65.226578 
1044.000000	65.278697 
1043.000000	65.329551 
1042.000000	65.373420 
1041.000000	65.405607 
1040.000000	65.422868 
1039.000000	65.423727 
1038.000000	65.408706 
1037.000000	65.379834 
1036.000000	65.340209 
1035.000000	65.293407 
1034.000000	65.243029 
1033.000000	65.192508 
1032.000000	65.144991 
1031.000000	65.103387 
1030.000000	65.070247 
1029.000000	65.047764 
1028.000000	65.037560 
1027.000000	65.040707 
1026.000000	65.056729 
1025.000000	65.084123 
1024.000000	65.119767 
1023.000000	65.160083 
1022.000000	65.201044 
1021.000000	65.239477 
1020.000000	65.272927 
1019.000000	65.300250 
1018.000000	65.321183 
1017.000000	65.336227 
1016.000000	65.346097 
1015.000000	65.351295 
1014.000000	65.352201 
1013.000000	65.348672 
1012.000000	65.340566 
1011.000000	65.328073 
1010.000000	65.312147 
1009.000000	65.294480 
1008.000000	65.277457 
1007.000000	65.263938 
1006.000000	65.256738 
1005.000000	65.258240 
1004.000000	65.269613 
1003.000000	65.290617 
1002.000000	65.319418 
1001.000000	65.352869 
1000.000000	65.386867 
999.000000	 65.416646 
998.000000	 65.437841 
997.000000	 65.447235 
996.000000	 65.443444 
995.000000	 65.427184 
994.000000	 65.401315 
993.000000	 65.370345 
992.000000	 65.339136 
991.000000	 65.312242 
990.000000	 65.292525 
989.000000	 65.280628 
988.000000	 65.275120 
987.000000	 65.273094 
986.000000	 65.271019 
985.000000	 65.265870 
984.000000	 65.255880 
983.000000	 65.241146 
982.000000	 65.223431 
981.000000	 65.205383 
980.000000	 65.189814 
979.000000	 65.178823 
978.000000	 65.173029 
977.000000	 65.171933 
976.000000	 65.173864 
975.000000	 65.177083 
974.000000	 65.180253 
973.000000	 65.182852 
972.000000	 65.185570 
971.000000	 65.189814 
970.000000	 65.196847 
969.000000	 65.207529 
968.000000	 65.221786 
967.000000	 65.238571 
966.000000	 65.255713 
965.000000	 65.270662 
964.000000	 65.281081 
963.000000	 65.285420 
962.000000	 65.283393 
961.000000	 65.275764 
960.000000	 65.264344 
959.000000	 65.251517 
958.000000	 65.239810 
957.000000	 65.231180 
956.000000	 65.226697 
955.000000	 65.226769 
954.000000	 65.230965 
953.000000	 65.238380 
952.000000	 65.247774 
951.000000	 65.257930 
950.000000	 65.267658 
949.000000	 65.275931 
948.000000	 65.281939 
947.000000	 65.284895 
946.000000	 65.284252 
945.000000	 65.279674 
944.000000	 65.271234 
943.000000	 65.259361 
942.000000	 65.244865 
941.000000	 65.229010 
940.000000	 65.213298 
939.000000	 65.199041 
938.000000	 65.187430 
937.000000	 65.179324 
936.000000	 65.175127 
935.000000	 65.174651 
934.000000	 65.177583 
933.000000	 65.183615 
932.000000	 65.192484 
931.000000	 65.204048 
930.000000	 65.218281 
929.000000	 65.235161 
928.000000	 65.254449 
927.000000	 65.275502 
926.000000	 65.297198 
925.000000	 65.317893 
924.000000	 65.335869 
923.000000	 65.349364 
922.000000	 65.356993 
921.000000	 65.357756 
920.000000	 65.351676 
919.000000	 65.339636 
918.000000	 65.323019 
917.000000	 65.303683 
916.000000	 65.283775 
915.000000	 65.264916 
914.000000	 65.248274 
913.000000	 65.234065 
912.000000	 65.222072 
911.000000	 65.211653 
910.000000	 65.202260 
909.000000	 65.193557 
908.000000	 65.185737 
907.000000	 65.179491 
906.000000	 65.175604 
905.000000	 65.174818 
904.000000	 65.177369 
903.000000	 65.182852 
902.000000	 65.190386 
901.000000	 65.198540 
900.000000	 65.206027 
899.000000	 65.212249 
898.000000	 65.217685 
897.000000	 65.223717 
896.000000	 65.232515 
895.000000	 65.246534 
894.000000	 65.267658 
893.000000	 65.296697 
892.000000	 65.332889 
891.000000	 65.374183 
890.000000	 65.417337 
889.000000	 65.458726 
888.000000	 65.494751 
887.000000	 65.522551 
886.000000	 65.540432 
885.000000	 65.548086 
884.000000	 65.546703 
883.000000	 65.538430 
882.000000	 65.526080 
881.000000	 65.512776 
880.000000	 65.501189 
879.000000	 65.492939 
878.000000	 65.488600 
877.000000	 65.487694 
876.000000	 65.488529 
875.000000	 65.488910 
874.000000	 65.486407 
873.000000	 65.479135 
872.000000	 65.466141 
871.000000	 65.447592 
870.000000	 65.424633 
869.000000	 65.399527 
868.000000	 65.374803 
867.000000	 65.353155 
866.000000	 65.336608 
865.000000	 65.326476 
864.000000	 65.322947 
863.000000	 65.325331 
862.000000	 65.332388 
861.000000	 65.342402 
860.000000	 65.353512 
859.000000	 65.364265 
858.000000	 65.373373 
857.000000	 65.380358 
856.000000	 65.385389 
855.000000	 65.389418 
854.000000	 65.393543 
853.000000	 65.399336 
852.000000	 65.408205 
851.000000	 65.421104 
850.000000	 65.438175 
849.000000	 65.458536 
848.000000	 65.480065 
847.000000	 65.499901 
846.000000	 65.514850 
845.000000	 65.521955 
844.000000	 65.519523 
843.000000	 65.507245 
842.000000	 65.486884 
841.000000	 65.461754 
840.000000	 65.436553 
839.000000	 65.416288 
838.000000	 65.405678 
837.000000	 65.408205 
836.000000	 65.425252 
835.000000	 65.456438 
834.000000	 65.498661 
833.000000	 65.546989 
832.000000	 65.595245 
831.000000	 65.636992 
830.000000	 65.666675 
829.000000	 65.680503 
828.000000	 65.677285 
827.000000	 65.658378 
826.000000	 65.627527 
825.000000	 65.590167 
824.000000	 65.552139 
823.000000	 65.518760 
822.000000	 65.493798 
821.000000	 65.478992 
820.000000	 65.473914 
819.000000	 65.476417 
818.000000	 65.483307 
817.000000	 65.491485 
816.000000	 65.498232 
815.000000	 65.501999 
814.000000	 65.502309 
813.000000	 65.499711 
812.000000	 65.495181 
811.000000	 65.490007 
810.000000	 65.485262 
809.000000	 65.481805 
808.000000	 65.480256 
807.000000	 65.480661 
806.000000	 65.482902 
805.000000	 65.486502 
804.000000	 65.490746 
803.000000	 65.494871 
802.000000	 65.498137 
801.000000	 65.499925 
800.000000	 65.499615 
799.000000	 65.496969 
798.000000	 65.492200 
797.000000	 65.485739 
796.000000	 65.478324 
795.000000	 65.470838 
794.000000	 65.464329 
793.000000	 65.460014 
792.000000	 65.458917 
791.000000	 65.461874 
790.000000	 65.469193 
789.000000	 65.480947 
788.000000	 65.496587 
787.000000	 65.514898 
786.000000	 65.534090 
785.000000	 65.551900 
784.000000	 65.566039 
783.000000	 65.574336 
782.000000	 65.575385 
781.000000	 65.568685 
780.000000	 65.554833 
779.000000	 65.535449 
778.000000	 65.512824 
777.000000	 65.489697 
776.000000	 65.468478 
775.000000	 65.451002 
774.000000	 65.437960 
773.000000	 65.429139 
772.000000	 65.423464 
771.000000	 65.419650 
770.000000	 65.416312 
769.000000	 65.412735 
768.000000	 65.409064 
767.000000	 65.406274 
766.000000	 65.405893 
765.000000	 65.409660 
764.000000	 65.418958 
763.000000	 65.434360 
762.000000	 65.455269 
761.000000	 65.479683 
760.000000	 65.504622 
759.000000	 65.526413 
758.000000	 65.541672 
757.000000	 65.547871 
756.000000	 65.544271 
755.000000	 65.531992 
754.000000	 65.514039 
753.000000	 65.494537 
752.000000	 65.477919 
751.000000	 65.467810 
750.000000	 65.466427 
749.000000	 65.473842 
748.000000	 65.488386 
747.000000	 65.506887 
746.000000	 65.525722 
745.000000	 65.541529 
744.000000	 65.552043 
743.000000	 65.556359 
742.000000	 65.554904 
741.000000	 65.548944 
740.000000	 65.540051 
739.000000	 65.529632 
738.000000	 65.518403 
737.000000	 65.506887 
736.000000	 65.495204 
735.000000	 65.483593 
734.000000	 65.472435 
733.000000	 65.462374 
732.000000	 65.454244 
731.000000	 65.448641 
730.000000	 65.445971 
729.000000	 65.446019 
728.000000	 65.448307 
727.000000	 65.451931 
726.000000	 65.455842 
725.000000	 65.458989 
724.000000	 65.460300 
723.000000	 65.459036 
722.000000	 65.454554 
721.000000	 65.446186 
720.000000	 65.433621 
719.000000	 65.416979 
718.000000	 65.397095 
717.000000	 65.375399 
716.000000	 65.354156 
715.000000	 65.335988 
714.000000	 65.323472 
713.000000	 65.318441 
712.000000	 65.321373 
711.000000	 65.331387 
710.000000	 65.346360 
709.000000	 65.363359 
708.000000	 65.379405 
707.000000	 65.392017 
706.000000	 65.399789 
705.000000	 65.402531 
704.000000	 65.401101 
703.000000	 65.397143 
702.000000	 65.392565 
701.000000	 65.389108 
700.000000	 65.387630 
699.000000	 65.388584 
698.000000	 65.391802 
697.000000	 65.397214 
696.000000	 65.404582 
695.000000	 65.414094 
694.000000	 65.426325 
693.000000	 65.441918 
692.000000	 65.461349 
691.000000	 65.484523 
690.000000	 65.510344 
689.000000	 65.536832 
688.000000	 65.561437 
687.000000	 65.581297 
686.000000	 65.593671 
685.000000	 65.596914 
684.000000	 65.590810 
683.000000	 65.577054 
682.000000	 65.558552 
681.000000	 65.539288 
680.000000	 65.522718 
679.000000	 65.511631 
678.000000	 65.506720 
677.000000	 65.506696 
676.000000	 65.508127 
675.000000	 65.506649 
674.000000	 65.497708 
673.000000	 65.477919 
672.000000	 65.445876 
671.000000	 65.402626 
670.000000	 65.351605 
669.000000	 65.297889 
668.000000	 65.247368 
667.000000	 65.205240 
666.000000	 65.175819 
665.000000	 65.161371 
664.000000	 65.162968 
663.000000	 65.180420 
662.000000	 65.212464 
661.000000	 65.256738 
660.000000	 65.309572 
659.000000	 65.365910 
658.000000	 65.419340 
657.000000	 65.462827 
656.000000	 65.489602 
655.000000	 65.494656 
654.000000	 65.475869 
653.000000	 65.434718 
652.000000	 65.375852 
651.000000	 65.306353 
650.000000	 65.234684 
649.000000	 65.168929 
648.000000	 65.115284 
647.000000	 65.077376 
646.000000	 65.056443 
645.000000	 65.051603 
644.000000	 65.060997 
643.000000	 65.082073 
642.000000	 65.112257 
641.000000	 65.149021 
640.000000	 65.189433 
639.000000	 65.230345 
638.000000	 65.267872 
637.000000	 65.298318 
636.000000	 65.318536 
635.000000	 65.327358 
634.000000	 65.325856 
633.000000	 65.317225 
632.000000	 65.306115 
631.000000	 65.297484 
630.000000	 65.295433 
629.000000	 65.302538 
628.000000	 65.319538 
627.000000	 65.345025 
626.000000	 65.376281 
625.000000	 65.410709 
624.000000	 65.446162 
623.000000	 65.481829 
622.000000	 65.517401 
621.000000	 65.552854 
620.000000	 65.587282 
619.000000	 65.618681 
618.000000	 65.643572 
617.000000	 65.657401 
616.000000	 65.655970 
615.000000	 65.636730 
614.000000	 65.600204 
613.000000	 65.550446 
612.000000	 65.495085 
611.000000	 65.443968 
610.000000	 65.407490 
609.000000	 65.394353 
608.000000	 65.409088 
607.000000	 65.450811 
606.000000	 65.513277 
605.000000	 65.585565 
604.000000	 65.654087 
603.000000	 65.705394 
602.000000	 65.728926 
601.000000	 65.719699 
600.000000	 65.678644 
599.000000	 65.612816 
598.000000	 65.534329 
597.000000	 65.457081 
596.000000	 65.394520 
595.000000	 65.355610 
594.000000	 65.343570 
593.000000	 65.355038 
592.000000	 65.381598 
591.000000	 65.412354 
590.000000	 65.437006 
589.000000	 65.448999 
588.000000	 65.447115 
587.000000	 65.435361 
586.000000	 65.420889 
585.000000	 65.411853 
584.000000	 65.414452 
583.000000	 65.430831 
582.000000	 65.457987 
581.000000	 65.489196 
580.000000	 65.515851 
579.000000	 65.529370 
578.000000	 65.523457 
577.000000	 65.495848 
576.000000	 65.448379 
575.000000	 65.385866 
574.000000	 65.315008 
573.000000	 65.241861 
572.000000	 65.171718 
571.000000	 65.108990 
570.000000	 65.057682 
569.000000	 65.021038 
568.000000	 65.002560 
567.000000	 65.005302 
566.000000	 65.032124 
565.000000	 65.083765 
564.000000	 65.159440 
563.000000	 65.255117 
562.000000	 65.365004 
561.000000	 65.481638 
560.000000	 65.597534 
559.000000	 65.705609 
558.000000	 65.800976 
557.000000	 65.880942 
556.000000	 65.945816 
555.000000	 65.997791 
554.000000	 66.040372 
553.000000	 66.077041 
552.000000	 66.109919 
551.000000	 66.138887 
550.000000	 66.161775 
549.000000	 66.174364 
548.000000	 66.171360 
547.000000	 66.147351 
546.000000	 66.099095 
545.000000	 66.026091 
544.000000	 65.931224 
543.000000	 65.821146 
542.000000	 65.705323 
541.000000	 65.595483 
540.000000	 65.502524 
539.000000	 65.436220 
538.000000	 65.402984 
537.000000	 65.405583 
536.000000	 65.442633 
535.000000	 65.509343 
534.000000	 65.597939 
533.000000	 65.699291 
532.000000	 65.804195 
531.000000	 65.903592 
530.000000	 65.988969 
529.000000	 66.053533 
528.000000	 66.092610 
527.000000	 66.103577 
526.000000	 66.086101 
525.000000	 66.043233 
524.000000	 65.981268 
523.000000	 65.909624 
522.000000	 65.839362 
521.000000	 65.782213 
520.000000	 65.747976 
519.000000	 65.743374 
518.000000	 65.770101 
517.000000	 65.824794 
516.000000	 65.899586 
515.000000	 65.983319 
514.000000	 66.064596 
513.000000	 66.134142 
512.000000	 66.186499 
511.000000	 66.220688 
510.000000	 66.239547 
509.000000	 66.248202 
508.000000	 66.251754 
507.000000	 66.253876 
506.000000	 66.254854 
505.000000	 66.252279 
504.000000	 66.241240 
503.000000	 66.217064 
502.000000	 66.176223 
501.000000	 66.118550 
500.000000	 66.047477 
499.000000	 65.969634 
498.000000	 65.894627 
497.000000	 65.832996 
496.000000	 65.793824 
495.000000	 65.782475 
494.000000	 65.800142 
493.000000	 65.842580 
492.000000	 65.901184 
491.000000	 65.963649 
490.000000	 66.016674 
489.000000	 66.047763 
488.000000	 66.047716 
487.000000	 66.012191 
486.000000	 65.941214 
485.000000	 65.840363 
484.000000	 65.719461 
483.000000	 65.591287 
482.000000	 65.468478 
481.000000	 65.363097 
480.000000	 65.285277 
479.000000	 65.241527 
478.000000	 65.234136 
477.000000	 65.260410 
476.000000	 65.313100 
475.000000	 65.382719 
474.000000	 65.459346 
473.000000	 65.532350 
472.000000	 65.591239 
471.000000	 65.627098 
470.000000	 65.633654 
469.000000	 65.607452 
468.000000	 65.548706 
467.000000	 65.461826 
466.000000	 65.355110 
465.000000	 65.239834 
464.000000	 65.128970 
463.000000	 65.034246 
462.000000	 64.966964 
461.000000	 64.932894 
460.000000	 64.937663 
459.000000	 64.986133 
458.000000	 65.084719 
457.000000	 65.239095 
456.000000	 65.452766 
455.000000	 65.726041 
454.000000	 66.048216 
453.000000	 66.399502 
452.000000	 66.743564 
451.000000	 67.031860 
450.000000	 67.212319 
449.000000	 67.243695 
448.000000	 67.098855 
447.000000	 66.771554 
446.000000	 66.289925 
445.000000	 65.714216 
444.000000	 65.119004 
443.000000	 64.578723 
442.000000	 64.156937 
441.000000	 63.892364 
440.000000	 63.794326 
439.000000	 63.840913 
438.000000	 63.985824 
437.000000	 64.168787 
436.000000	 64.330744 
435.000000	 64.425063 
434.000000	 64.419412 
433.000000	 64.305353 
432.000000	 64.094877 
431.000000	 63.818168 
430.000000	 63.505172 
429.000000	 63.192224 
428.000000	 62.911486 
427.000000	 62.698340 
426.000000	 62.573242 
425.000000	 62.573575 
424.000000	 62.745285 
423.000000	 63.151884 
422.000000	 63.854002 
421.000000	 64.906740 
420.000000	 66.334724 
419.000000	 68.119382 
418.000000	 70.184540 
417.000000	 72.393822 
416.000000	 74.560761 
415.000000	 76.476788 
414.000000	 77.942299 
413.000000	 78.805136 
412.000000	 78.984522 
411.000000	 78.498935 
410.000000	 77.448773 
409.000000	 76.013207 
408.000000	 74.391961 
407.000000	 72.780632 
406.000000	 71.313071 
405.000000	 70.083570 
404.000000	 69.093465 
403.000000	 68.283629 
402.000000	 67.539405 
401.000000	 66.732168 
400.000000	 65.761351 
399.000000	 64.578151 
398.000000	 63.220596 
397.000000	 61.768841 
396.000000	 60.405731 
395.000000	 59.400892 
394.000000	 58.950138 
393.000000	 59.099125 
392.000000	 59.794592 
391.000000	 60.845565 
390.000000	 62.169933 
389.000000	 63.810896 
388.000000	 65.377354 
387.000000	 66.334843 
386.000000	 66.182804 
385.000000	 64.582777 
384.000000	 62.763524 
383.000000	 62.184715 
382.000000	 63.396453 
381.000000	 66.113138 
380.000000	 67.107367 
379.000000	 63.464307 
378.000000	 54.867982 
377.000000	 42.892313 
376.000000	 34.191536 
375.000000	 33.930993 
374.000000	 41.832137 
373.000000	 54.056739 
372.000000	 59.168076 
371.000000	 50.739812 
370.000000	 31.791090 

