PE IR       SPECTRUM    SPECTRUM    ASCII       PEDS        1.60        
  -1
BZACB1~1.ASC
17/04/10
10:38:40.00
17/04/10
10:38:40.00
tln
$BZ12041010-4_e0028$<ebV0>[-23.0,28.0,5.5,0.0,22,1,0]
370.000000
64









2002,4.07    
MIRTGS : RIGHTBACK : INTERNAL 2
MIR : ON : INTERNAL 2
OPTKBR

0.200000
8
8.000000
FILLER
SINGLE
SPECTRUM
UNLOCKED 256

DOUBLE

COMBINED
1
0
0


1.000000
BACKG


1
0
TRUE
51149
0
LEFT NOT FITTED RIGHT NOT FITTED 0
NONE
NONE
15600
12.000000
4.427000
51148
TRUE
1 0 8 72 0 0 0 0 

15798.010000






#HDR
-1
-1
#GR
CM-1
EGY
0.00002384185791015625
0.0
5000.000000
-1.000000
4631
8
2.462601
0.013208
#DATA
5000.000000	0.778555 
4999.000000	0.778961 
4998.000000	0.779438 
4997.000000	0.779938 
4996.000000	0.780487 
4995.000000	0.781035 
4994.000000	0.781607 
4993.000000	0.782203 
4992.000000	0.782823 
4991.000000	0.783538 
4990.000000	0.784254 
4989.000000	0.785040 
4988.000000	0.785779 
4987.000000	0.786519 
4986.000000	0.787186 
4985.000000	0.787711 
4984.000000	0.788116 
4983.000000	0.788354 
4982.000000	0.788426 
4981.000000	0.788354 
4980.000000	0.788164 
4979.000000	0.787949 
4978.000000	0.787734 
4977.000000	0.787591 
4976.000000	0.787591 
4975.000000	0.787734 
4974.000000	0.788021 
4973.000000	0.788450 
4972.000000	0.789022 
4971.000000	0.789618 
4970.000000	0.790309 
4969.000000	0.791096 
4968.000000	0.791931 
4967.000000	0.792837 
4966.000000	0.793838 
4965.000000	0.794935 
4964.000000	0.796103 
4963.000000	0.797295 
4962.000000	0.798439 
4961.000000	0.799489 
4960.000000	0.800418 
4959.000000	0.801110 
4958.000000	0.801610 
4957.000000	0.801897 
4956.000000	0.801968 
4955.000000	0.801873 
4954.000000	0.801610 
4953.000000	0.801205 
4952.000000	0.800657 
4951.000000	0.800085 
4950.000000	0.799465 
4949.000000	0.798916 
4948.000000	0.798463 
4947.000000	0.798201 
4946.000000	0.798106 
4945.000000	0.798296 
4944.000000	0.798654 
4943.000000	0.799155 
4942.000000	0.799727 
4941.000000	0.800323 
4940.000000	0.800848 
4939.000000	0.801324 
4938.000000	0.801706 
4937.000000	0.802040 
4936.000000	0.802397 
4935.000000	0.802779 
4934.000000	0.803184 
4933.000000	0.803637 
4932.000000	0.804090 
4931.000000	0.804448 
4930.000000	0.804710 
4929.000000	0.804853 
4928.000000	0.804924 
4927.000000	0.804901 
4926.000000	0.804829 
4925.000000	0.804781 
4924.000000	0.804781 
4923.000000	0.804924 
4922.000000	0.805139 
4921.000000	0.805449 
4920.000000	0.805830 
4919.000000	0.806283 
4918.000000	0.806808 
4917.000000	0.807380 
4916.000000	0.807976 
4915.000000	0.808668 
4914.000000	0.809454 
4913.000000	0.810289 
4912.000000	0.811219 
4911.000000	0.812220 
4910.000000	0.813317 
4909.000000	0.814509 
4908.000000	0.815725 
4907.000000	0.816988 
4906.000000	0.818252 
4905.000000	0.819396 
4904.000000	0.820374 
4903.000000	0.821113 
4902.000000	0.821542 
4901.000000	0.821638 
4900.000000	0.821423 
4899.000000	0.821042 
4898.000000	0.820589 
4897.000000	0.820255 
4896.000000	0.820112 
4895.000000	0.820350 
4894.000000	0.820922 
4893.000000	0.821781 
4892.000000	0.822854 
4891.000000	0.823903 
4890.000000	0.824832 
4889.000000	0.825572 
4888.000000	0.826096 
4887.000000	0.826430 
4886.000000	0.826740 
4885.000000	0.827217 
4884.000000	0.827956 
4883.000000	0.829076 
4882.000000	0.830507 
4881.000000	0.832176 
4880.000000	0.833892 
4879.000000	0.835466 
4878.000000	0.836777 
4877.000000	0.837755 
4876.000000	0.838351 
4875.000000	0.838637 
4874.000000	0.838780 
4873.000000	0.838851 
4872.000000	0.838923 
4871.000000	0.838994 
4870.000000	0.839018 
4869.000000	0.838899 
4868.000000	0.838565 
4867.000000	0.838017 
4866.000000	0.837302 
4865.000000	0.836491 
4864.000000	0.835704 
4863.000000	0.835061 
4862.000000	0.834584 
4861.000000	0.834298 
4860.000000	0.834155 
4859.000000	0.833988 
4858.000000	0.833773 
4857.000000	0.833487 
4856.000000	0.833201 
4855.000000	0.833082 
4854.000000	0.833439 
4853.000000	0.834441 
4852.000000	0.836300 
4851.000000	0.838971 
4850.000000	0.842356 
4849.000000	0.846099 
4848.000000	0.849843 
4847.000000	0.853157 
4846.000000	0.855636 
4845.000000	0.857019 
4844.000000	0.857186 
4843.000000	0.856161 
4842.000000	0.854182 
4841.000000	0.851488 
4840.000000	0.848460 
4839.000000	0.845408 
4838.000000	0.842714 
4837.000000	0.840640 
4836.000000	0.839376 
4835.000000	0.839066 
4834.000000	0.839662 
4833.000000	0.841093 
4832.000000	0.843167 
4831.000000	0.845575 
4830.000000	0.848102 
4829.000000	0.850462 
4828.000000	0.852513 
4827.000000	0.854134 
4826.000000	0.855326 
4825.000000	0.856137 
4824.000000	0.856733 
4823.000000	0.857162 
4822.000000	0.857567 
4821.000000	0.858020 
4820.000000	0.858473 
4819.000000	0.858926 
4818.000000	0.859332 
4817.000000	0.859689 
4816.000000	0.859975 
4815.000000	0.860285 
4814.000000	0.860619 
4813.000000	0.861144 
4812.000000	0.861978 
4811.000000	0.863194 
4810.000000	0.864768 
4809.000000	0.866675 
4808.000000	0.868868 
4807.000000	0.871205 
4806.000000	0.873565 
4805.000000	0.875759 
4804.000000	0.877642 
4803.000000	0.879096 
4802.000000	0.880050 
4801.000000	0.880527 
4800.000000	0.880527 
4799.000000	0.880098 
4798.000000	0.879430 
4797.000000	0.878643 
4796.000000	0.877904 
4795.000000	0.877380 
4794.000000	0.877189 
4793.000000	0.877428 
4792.000000	0.878143 
4791.000000	0.879263 
4790.000000	0.880789 
4789.000000	0.882625 
4788.000000	0.884652 
4787.000000	0.886797 
4786.000000	0.888919 
4785.000000	0.890946 
4784.000000	0.892758 
4783.000000	0.894236 
4782.000000	0.895476 
4781.000000	0.896382 
4780.000000	0.897026 
4779.000000	0.897407 
4778.000000	0.897622 
4777.000000	0.897669 
4776.000000	0.897622 
4775.000000	0.897526 
4774.000000	0.897336 
4773.000000	0.897073 
4772.000000	0.896739 
4771.000000	0.896453 
4770.000000	0.896286 
4769.000000	0.896310 
4768.000000	0.896596 
4767.000000	0.897240 
4766.000000	0.898265 
4765.000000	0.899600 
4764.000000	0.901150 
4763.000000	0.902819 
4762.000000	0.904464 
4761.000000	0.905919 
4760.000000	0.907182 
4759.000000	0.908160 
4758.000000	0.908851 
4757.000000	0.909256 
4756.000000	0.909399 
4755.000000	0.909328 
4754.000000	0.909090 
4753.000000	0.908732 
4752.000000	0.908303 
4751.000000	0.907850 
4750.000000	0.907444 
4749.000000	0.907087 
4748.000000	0.906825 
4747.000000	0.906682 
4746.000000	0.906634 
4745.000000	0.906682 
4744.000000	0.906777 
4743.000000	0.906896 
4742.000000	0.907087 
4741.000000	0.907206 
4740.000000	0.907325 
4739.000000	0.907397 
4738.000000	0.907444 
4737.000000	0.907516 
4736.000000	0.907611 
4735.000000	0.907850 
4734.000000	0.908231 
4733.000000	0.908732 
4732.000000	0.909399 
4731.000000	0.910139 
4730.000000	0.910854 
4729.000000	0.911426 
4728.000000	0.911855 
4727.000000	0.912094 
4726.000000	0.912141 
4725.000000	0.911998 
4724.000000	0.911808 
4723.000000	0.911593 
4722.000000	0.911474 
4721.000000	0.911450 
4720.000000	0.911593 
4719.000000	0.911808 
4718.000000	0.912117 
4717.000000	0.912475 
4716.000000	0.912857 
4715.000000	0.913262 
4714.000000	0.913691 
4713.000000	0.914168 
4712.000000	0.914692 
4711.000000	0.915217 
4710.000000	0.915789 
4709.000000	0.916361 
4708.000000	0.916862 
4707.000000	0.917315 
4706.000000	0.917649 
4705.000000	0.917911 
4704.000000	0.918126 
4703.000000	0.918292 
4702.000000	0.918459 
4701.000000	0.918579 
4700.000000	0.918674 
4699.000000	0.918698 
4698.000000	0.918626 
4697.000000	0.918459 
4696.000000	0.918197 
4695.000000	0.917911 
4694.000000	0.917601 
4693.000000	0.917387 
4692.000000	0.917291 
4691.000000	0.917315 
4690.000000	0.917553 
4689.000000	0.917840 
4688.000000	0.918126 
4687.000000	0.918412 
4686.000000	0.918602 
4685.000000	0.918674 
4684.000000	0.918602 
4683.000000	0.918507 
4682.000000	0.918388 
4681.000000	0.918269 
4680.000000	0.918197 
4679.000000	0.918149 
4678.000000	0.918126 
4677.000000	0.918054 
4676.000000	0.917959 
4675.000000	0.917768 
4674.000000	0.917506 
4673.000000	0.917267 
4672.000000	0.917100 
4671.000000	0.917053 
4670.000000	0.917267 
4669.000000	0.917696 
4668.000000	0.918388 
4667.000000	0.919246 
4666.000000	0.920224 
4665.000000	0.921130 
4664.000000	0.921940 
4663.000000	0.922536 
4662.000000	0.922870 
4661.000000	0.922942 
4660.000000	0.922775 
4659.000000	0.922489 
4658.000000	0.922179 
4657.000000	0.921869 
4656.000000	0.921630 
4655.000000	0.921535 
4654.000000	0.921559 
4653.000000	0.921678 
4652.000000	0.921821 
4651.000000	0.921940 
4650.000000	0.922036 
4649.000000	0.922036 
4648.000000	0.921893 
4647.000000	0.921726 
4646.000000	0.921559 
4645.000000	0.921440 
4644.000000	0.921440 
4643.000000	0.921607 
4642.000000	0.921964 
4641.000000	0.922513 
4640.000000	0.923228 
4639.000000	0.924086 
4638.000000	0.925064 
4637.000000	0.926065 
4636.000000	0.927114 
4635.000000	0.928092 
4634.000000	0.928974 
4633.000000	0.929760 
4632.000000	0.930380 
4631.000000	0.930857 
4630.000000	0.931167 
4629.000000	0.931310 
4628.000000	0.931286 
4627.000000	0.931167 
4626.000000	0.930953 
4625.000000	0.930666 
4624.000000	0.930380 
4623.000000	0.930118 
4622.000000	0.929951 
4621.000000	0.929927 
4620.000000	0.930070 
4619.000000	0.930404 
4618.000000	0.930929 
4617.000000	0.931620 
4616.000000	0.932455 
4615.000000	0.933384 
4614.000000	0.934386 
4613.000000	0.935363 
4612.000000	0.936388 
4611.000000	0.937366 
4610.000000	0.938344 
4609.000000	0.939297 
4608.000000	0.940227 
4607.000000	0.941109 
4606.000000	0.941944 
4605.000000	0.942659 
4604.000000	0.943374 
4603.000000	0.944042 
4602.000000	0.944566 
4601.000000	0.945067 
4600.000000	0.945425 
4599.000000	0.945687 
4598.000000	0.945854 
4597.000000	0.945925 
4596.000000	0.945949 
4595.000000	0.945973 
4594.000000	0.946092 
4593.000000	0.946259 
4592.000000	0.946593 
4591.000000	0.947070 
4590.000000	0.947642 
4589.000000	0.948262 
4588.000000	0.948834 
4587.000000	0.949311 
4586.000000	0.949668 
4585.000000	0.949883 
4584.000000	0.950074 
4583.000000	0.950288 
4582.000000	0.950598 
4581.000000	0.951099 
4580.000000	0.951862 
4579.000000	0.952887 
4578.000000	0.954127 
4577.000000	0.955462 
4576.000000	0.956869 
4575.000000	0.958251 
4574.000000	0.959610 
4573.000000	0.960874 
4572.000000	0.962066 
4571.000000	0.963187 
4570.000000	0.964236 
4569.000000	0.965189 
4568.000000	0.966024 
4567.000000	0.966691 
4566.000000	0.967168 
4565.000000	0.967454 
4564.000000	0.967597 
4563.000000	0.967645 
4562.000000	0.967741 
4561.000000	0.967931 
4560.000000	0.968265 
4559.000000	0.968837 
4558.000000	0.969552 
4557.000000	0.970411 
4556.000000	0.971317 
4555.000000	0.972199 
4554.000000	0.972962 
4553.000000	0.973606 
4552.000000	0.974059 
4551.000000	0.974440 
4550.000000	0.974774 
4549.000000	0.975108 
4548.000000	0.975537 
4547.000000	0.976061 
4546.000000	0.976705 
4545.000000	0.977492 
4544.000000	0.978398 
4543.000000	0.979399 
4542.000000	0.980424 
4541.000000	0.981473 
4540.000000	0.982594 
4539.000000	0.983691 
4538.000000	0.984859 
4537.000000	0.986075 
4536.000000	0.987267 
4535.000000	0.988459 
4534.000000	0.989627 
4533.000000	0.990653 
4532.000000	0.991535 
4531.000000	0.992250 
4530.000000	0.992727 
4529.000000	0.993013 
4528.000000	0.993084 
4527.000000	0.993013 
4526.000000	0.992727 
4525.000000	0.992298 
4524.000000	0.991725 
4523.000000	0.991082 
4522.000000	0.990462 
4521.000000	0.989842 
4520.000000	0.989389 
4519.000000	0.989103 
4518.000000	0.989007 
4517.000000	0.989103 
4516.000000	0.989389 
4515.000000	0.989842 
4514.000000	0.990414 
4513.000000	0.991058 
4512.000000	0.991749 
4511.000000	0.992417 
4510.000000	0.993013 
4509.000000	0.993514 
4508.000000	0.993919 
4507.000000	0.994253 
4506.000000	0.994563 
4505.000000	0.994944 
4504.000000	0.995469 
4503.000000	0.996184 
4502.000000	0.997090 
4501.000000	0.998091 
4500.000000	0.999093 
4499.000000	0.999999 
4498.000000	1.000642 
4497.000000	1.000976 
4496.000000	1.001024 
4495.000000	1.001024 
4494.000000	1.001119 
4493.000000	1.001286 
4492.000000	1.001524 
4491.000000	1.001739 
4490.000000	1.001811 
4489.000000	1.001691 
4488.000000	1.001381 
4487.000000	1.000952 
4486.000000	1.000595 
4485.000000	1.000523 
4484.000000	1.000833 
4483.000000	1.001596 
4482.000000	1.002788 
4481.000000	1.004314 
4480.000000	1.005983 
4479.000000	1.007556 
4478.000000	1.008725 
4477.000000	1.009368 
4476.000000	1.009130 
4475.000000	1.008081 
4474.000000	1.006579 
4473.000000	1.005411 
4472.000000	1.005768 
4471.000000	1.009440 
4470.000000	1.018452 
4469.000000	1.034665 
4468.000000	1.059126 
4467.000000	1.091718 
4466.000000	1.130533 
4465.000000	1.172113 
4464.000000	1.211714 
4463.000000	1.244235 
4462.000000	1.265072 
4461.000000	1.271224 
4460.000000	1.261806 
4459.000000	1.238298 
4458.000000	1.204180 
4457.000000	1.164317 
4456.000000	1.123738 
4455.000000	1.086974 
4454.000000	1.057076 
4453.000000	1.035499 
4452.000000	1.021957 
4451.000000	1.014995 
4450.000000	1.012659 
4449.000000	1.012921 
4448.000000	1.014137 
4447.000000	1.015353 
4446.000000	1.016259 
4445.000000	1.016783 
4444.000000	1.017141 
4443.000000	1.017546 
4442.000000	1.018095 
4441.000000	1.018762 
4440.000000	1.019525 
4439.000000	1.020216 
4438.000000	1.020717 
4437.000000	1.021003 
4436.000000	1.021099 
4435.000000	1.021099 
4434.000000	1.021122 
4433.000000	1.021170 
4432.000000	1.021313 
4431.000000	1.021552 
4430.000000	1.021862 
4429.000000	1.022171 
4428.000000	1.022505 
4427.000000	1.022744 
4426.000000	1.022958 
4425.000000	1.023244 
4424.000000	1.023483 
4423.000000	1.023674 
4422.000000	1.023817 
4421.000000	1.024031 
4420.000000	1.024174 
4419.000000	1.024246 
4418.000000	1.024222 
4417.000000	1.024007 
4416.000000	1.023626 
4415.000000	1.023125 
4414.000000	1.022577 
4413.000000	1.022028 
4412.000000	1.021599 
4411.000000	1.021337 
4410.000000	1.021289 
4409.000000	1.021432 
4408.000000	1.021814 
4407.000000	1.022362 
4406.000000	1.022982 
4405.000000	1.023626 
4404.000000	1.024246 
4403.000000	1.024794 
4402.000000	1.025223 
4401.000000	1.025509 
4400.000000	1.025629 
4399.000000	1.025629 
4398.000000	1.025533 
4397.000000	1.025342 
4396.000000	1.025199 
4395.000000	1.025128 
4394.000000	1.025199 
4393.000000	1.025509 
4392.000000	1.026010 
4391.000000	1.026701 
4390.000000	1.027488 
4389.000000	1.028347 
4388.000000	1.029157 
4387.000000	1.029920 
4386.000000	1.030564 
4385.000000	1.031064 
4384.000000	1.031494 
4383.000000	1.031875 
4382.000000	1.032257 
4381.000000	1.032710 
4380.000000	1.033258 
4379.000000	1.033854 
4378.000000	1.034545 
4377.000000	1.035261 
4376.000000	1.035976 
4375.000000	1.036667 
4374.000000	1.037311 
4373.000000	1.037931 
4372.000000	1.038479 
4371.000000	1.039028 
4370.000000	1.039600 
4369.000000	1.040244 
4368.000000	1.041007 
4367.000000	1.041960 
4366.000000	1.043105 
4365.000000	1.044440 
4364.000000	1.045966 
4363.000000	1.047658 
4362.000000	1.049423 
4361.000000	1.051187 
4360.000000	1.052904 
4359.000000	1.054477 
4358.000000	1.055884 
4357.000000	1.057052 
4356.000000	1.057958 
4355.000000	1.058650 
4354.000000	1.059126 
4353.000000	1.059412 
4352.000000	1.059699 
4351.000000	1.059985 
4350.000000	1.060366 
4349.000000	1.060986 
4348.000000	1.061844 
4347.000000	1.062965 
4346.000000	1.064252 
4345.000000	1.065707 
4344.000000	1.067185 
4343.000000	1.068687 
4342.000000	1.070094 
4341.000000	1.071381 
4340.000000	1.072549 
4339.000000	1.073646 
4338.000000	1.074671 
4337.000000	1.075696 
4336.000000	1.076626 
4335.000000	1.077556 
4334.000000	1.078486 
4333.000000	1.079368 
4332.000000	1.080250 
4331.000000	1.081156 
4330.000000	1.082205 
4329.000000	1.083350 
4328.000000	1.084661 
4327.000000	1.086163 
4326.000000	1.087856 
4325.000000	1.089620 
4324.000000	1.091432 
4323.000000	1.093196 
4322.000000	1.094889 
4321.000000	1.096487 
4320.000000	1.097941 
4319.000000	1.099324 
4318.000000	1.100611 
4317.000000	1.101851 
4316.000000	1.103067 
4315.000000	1.104283 
4314.000000	1.105475 
4313.000000	1.106715 
4312.000000	1.107978 
4311.000000	1.109313 
4310.000000	1.110744 
4309.000000	1.112294 
4308.000000	1.113939 
4307.000000	1.115679 
4306.000000	1.117467 
4305.000000	1.119279 
4304.000000	1.121044 
4303.000000	1.122617 
4302.000000	1.124000 
4301.000000	1.125121 
4300.000000	1.126003 
4299.000000	1.126694 
4298.000000	1.127266 
4297.000000	1.127719 
4296.000000	1.128125 
4295.000000	1.128554 
4294.000000	1.129031 
4293.000000	1.129627 
4292.000000	1.130294 
4291.000000	1.131105 
4290.000000	1.132011 
4289.000000	1.133036 
4288.000000	1.134181 
4287.000000	1.135468 
4286.000000	1.136827 
4285.000000	1.138257 
4284.000000	1.139736 
4283.000000	1.141166 
4282.000000	1.142597 
4281.000000	1.143932 
4280.000000	1.145219 
4279.000000	1.146388 
4278.000000	1.147437 
4277.000000	1.148366 
4276.000000	1.149153 
4275.000000	1.149845 
4274.000000	1.150417 
4273.000000	1.150989 
4272.000000	1.151561 
4271.000000	1.152181 
4270.000000	1.152920 
4269.000000	1.153755 
4268.000000	1.154685 
4267.000000	1.155686 
4266.000000	1.156759 
4265.000000	1.157879 
4264.000000	1.158905 
4263.000000	1.159882 
4262.000000	1.160836 
4261.000000	1.161742 
4260.000000	1.162600 
4259.000000	1.163482 
4258.000000	1.164340 
4257.000000	1.165246 
4256.000000	1.166248 
4255.000000	1.167273 
4254.000000	1.168370 
4253.000000	1.169514 
4252.000000	1.170682 
4251.000000	1.171875 
4250.000000	1.173090 
4249.000000	1.174283 
4248.000000	1.175475 
4247.000000	1.176691 
4246.000000	1.177906 
4245.000000	1.179122 
4244.000000	1.180315 
4243.000000	1.181530 
4242.000000	1.182723 
4241.000000	1.183867 
4240.000000	1.184916 
4239.000000	1.185894 
4238.000000	1.186680 
4237.000000	1.187396 
4236.000000	1.187992 
4235.000000	1.188564 
4234.000000	1.189112 
4233.000000	1.189684 
4232.000000	1.190328 
4231.000000	1.190996 
4230.000000	1.191735 
4229.000000	1.192474 
4228.000000	1.193141 
4227.000000	1.193642 
4226.000000	1.194071 
4225.000000	1.194405 
4224.000000	1.194691 
4223.000000	1.194953 
4222.000000	1.195240 
4221.000000	1.195526 
4220.000000	1.195859 
4219.000000	1.196193 
4218.000000	1.196503 
4217.000000	1.196765 
4216.000000	1.196980 
4215.000000	1.197218 
4214.000000	1.197481 
4213.000000	1.197862 
4212.000000	1.198434 
4211.000000	1.199197 
4210.000000	1.200151 
4209.000000	1.201224 
4208.000000	1.202344 
4207.000000	1.203417 
4206.000000	1.204419 
4205.000000	1.205253 
4204.000000	1.205945 
4203.000000	1.206517 
4202.000000	1.207041 
4201.000000	1.207542 
4200.000000	1.208114 
4199.000000	1.208758 
4198.000000	1.209402 
4197.000000	1.210069 
4196.000000	1.210689 
4195.000000	1.211166 
4194.000000	1.211524 
4193.000000	1.211667 
4192.000000	1.211690 
4191.000000	1.211619 
4190.000000	1.211524 
4189.000000	1.211476 
4188.000000	1.211524 
4187.000000	1.211714 
4186.000000	1.212072 
4185.000000	1.212573 
4184.000000	1.213216 
4183.000000	1.213908 
4182.000000	1.214671 
4181.000000	1.215457 
4180.000000	1.216173 
4179.000000	1.216888 
4178.000000	1.217532 
4177.000000	1.218080 
4176.000000	1.218581 
4175.000000	1.219034 
4174.000000	1.219439 
4173.000000	1.219868 
4172.000000	1.220345 
4171.000000	1.220941 
4170.000000	1.221680 
4169.000000	1.222562 
4168.000000	1.223587 
4167.000000	1.224732 
4166.000000	1.225948 
4165.000000	1.227116 
4164.000000	1.228189 
4163.000000	1.229095 
4162.000000	1.229834 
4161.000000	1.230359 
4160.000000	1.230692 
4159.000000	1.230883 
4158.000000	1.231026 
4157.000000	1.231122 
4156.000000	1.231265 
4155.000000	1.231503 
4154.000000	1.231908 
4153.000000	1.232409 
4152.000000	1.233077 
4151.000000	1.233887 
4150.000000	1.234793 
4149.000000	1.235771 
4148.000000	1.236820 
4147.000000	1.237893 
4146.000000	1.238965 
4145.000000	1.240015 
4144.000000	1.241040 
4143.000000	1.242041 
4142.000000	1.242995 
4141.000000	1.243853 
4140.000000	1.244640 
4139.000000	1.245260 
4138.000000	1.245737 
4137.000000	1.246118 
4136.000000	1.246380 
4135.000000	1.246619 
4134.000000	1.246881 
4133.000000	1.247215 
4132.000000	1.247668 
4131.000000	1.248240 
4130.000000	1.248979 
4129.000000	1.249861 
4128.000000	1.250815 
4127.000000	1.251840 
4126.000000	1.252841 
4125.000000	1.253795 
4124.000000	1.254653 
4123.000000	1.255416 
4122.000000	1.256084 
4121.000000	1.256632 
4120.000000	1.257133 
4119.000000	1.257610 
4118.000000	1.258111 
4117.000000	1.258730 
4116.000000	1.259446 
4115.000000	1.260280 
4114.000000	1.261234 
4113.000000	1.262354 
4112.000000	1.263499 
4111.000000	1.264691 
4110.000000	1.265883 
4109.000000	1.267027 
4108.000000	1.268100 
4107.000000	1.269078 
4106.000000	1.270008 
4105.000000	1.270890 
4104.000000	1.271820 
4103.000000	1.272797 
4102.000000	1.273918 
4101.000000	1.275205 
4100.000000	1.276588 
4099.000000	1.278114 
4098.000000	1.279711 
4097.000000	1.281309 
4096.000000	1.282858 
4095.000000	1.284313 
4094.000000	1.285624 
4093.000000	1.286768 
4092.000000	1.287770 
4091.000000	1.288652 
4090.000000	1.289534 
4089.000000	1.290392 
4088.000000	1.291370 
4087.000000	1.292514 
4086.000000	1.293897 
4085.000000	1.295495 
4084.000000	1.297330 
4083.000000	1.299357 
4082.000000	1.301503 
4081.000000	1.303720 
4080.000000	1.305818 
4079.000000	1.307773 
4078.000000	1.309418 
4077.000000	1.310682 
4076.000000	1.311564 
4075.000000	1.312065 
4074.000000	1.312327 
4073.000000	1.312375 
4072.000000	1.312422 
4071.000000	1.312637 
4070.000000	1.313114 
4069.000000	1.313924 
4068.000000	1.315116 
4067.000000	1.316666 
4066.000000	1.318526 
4065.000000	1.320600 
4064.000000	1.322746 
4063.000000	1.324892 
4062.000000	1.326918 
4061.000000	1.328802 
4060.000000	1.330494 
4059.000000	1.332020 
4058.000000	1.333332 
4057.000000	1.334547 
4056.000000	1.335716 
4055.000000	1.336884 
4054.000000	1.338076 
4053.000000	1.339364 
4052.000000	1.340723 
4051.000000	1.342177 
4050.000000	1.343679 
4049.000000	1.345181 
4048.000000	1.346635 
4047.000000	1.347994 
4046.000000	1.349210 
4045.000000	1.350307 
4044.000000	1.351261 
4043.000000	1.352119 
4042.000000	1.352930 
4041.000000	1.353740 
4040.000000	1.354622 
4039.000000	1.355600 
4038.000000	1.356720 
4037.000000	1.357960 
4036.000000	1.359272 
4035.000000	1.360654 
4034.000000	1.362061 
4033.000000	1.363444 
4032.000000	1.364803 
4031.000000	1.366114 
4030.000000	1.367425 
4029.000000	1.368689 
4028.000000	1.370000 
4027.000000	1.371359 
4026.000000	1.372766 
4025.000000	1.374244 
4024.000000	1.375770 
4023.000000	1.377224 
4022.000000	1.378679 
4021.000000	1.379990 
4020.000000	1.381230 
4019.000000	1.382327 
4018.000000	1.383304 
4017.000000	1.384186 
4016.000000	1.385021 
4015.000000	1.385831 
4014.000000	1.386690 
4013.000000	1.387596 
4012.000000	1.388549 
4011.000000	1.389575 
4010.000000	1.390624 
4009.000000	1.391673 
4008.000000	1.392745 
4007.000000	1.393818 
4006.000000	1.394844 
4005.000000	1.395797 
4004.000000	1.396703 
4003.000000	1.397514 
4002.000000	1.398253 
4001.000000	1.398968 
4000.000000	1.399588 
3999.000000	1.400208 
3998.000000	1.400852 
3997.000000	1.401519 
3996.000000	1.402235 
3995.000000	1.403021 
3994.000000	1.403784 
3993.000000	1.404547 
3992.000000	1.405286 
3991.000000	1.405978 
3990.000000	1.406574 
3989.000000	1.407098 
3988.000000	1.407551 
3987.000000	1.407980 
3986.000000	1.408433 
3985.000000	1.408934 
3984.000000	1.409459 
3983.000000	1.410031 
3982.000000	1.410579 
3981.000000	1.411151 
3980.000000	1.411724 
3979.000000	1.412248 
3978.000000	1.412725 
3977.000000	1.413202 
3976.000000	1.413655 
3975.000000	1.414108 
3974.000000	1.414585 
3973.000000	1.415038 
3972.000000	1.415514 
3971.000000	1.416015 
3970.000000	1.416516 
3969.000000	1.417064 
3968.000000	1.417684 
3967.000000	1.418352 
3966.000000	1.419115 
3965.000000	1.419925 
3964.000000	1.420736 
3963.000000	1.421523 
3962.000000	1.422214 
3961.000000	1.422810 
3960.000000	1.423239 
3959.000000	1.423549 
3958.000000	1.423764 
3957.000000	1.423954 
3956.000000	1.424169 
3955.000000	1.424431 
3954.000000	1.424789 
3953.000000	1.425242 
3952.000000	1.425719 
3951.000000	1.426148 
3950.000000	1.426577 
3949.000000	1.426935 
3948.000000	1.427197 
3947.000000	1.427435 
3946.000000	1.427650 
3945.000000	1.427888 
3944.000000	1.428127 
3943.000000	1.428413 
3942.000000	1.428794 
3941.000000	1.429176 
3940.000000	1.429557 
3939.000000	1.429915 
3938.000000	1.430273 
3937.000000	1.430583 
3936.000000	1.430797 
3935.000000	1.430940 
3934.000000	1.430988 
3933.000000	1.430964 
3932.000000	1.430845 
3931.000000	1.430654 
3930.000000	1.430416 
3929.000000	1.430153 
3928.000000	1.429891 
3927.000000	1.429724 
3926.000000	1.429605 
3925.000000	1.429629 
3924.000000	1.429724 
3923.000000	1.429963 
3922.000000	1.430273 
3921.000000	1.430702 
3920.000000	1.431226 
3919.000000	1.431822 
3918.000000	1.432514 
3917.000000	1.433253 
3916.000000	1.434016 
3915.000000	1.434826 
3914.000000	1.435542 
3913.000000	1.436138 
3912.000000	1.436543 
3911.000000	1.436638 
3910.000000	1.436471 
3909.000000	1.436018 
3908.000000	1.435351 
3907.000000	1.434588 
3906.000000	1.433873 
3905.000000	1.433324 
3904.000000	1.433157 
3903.000000	1.433420 
3902.000000	1.434135 
3901.000000	1.435279 
3900.000000	1.436686 
3899.000000	1.438236 
3898.000000	1.439690 
3897.000000	1.440930 
3896.000000	1.441836 
3895.000000	1.442337 
3894.000000	1.442432 
3893.000000	1.442217 
3892.000000	1.441836 
3891.000000	1.441407 
3890.000000	1.441025 
3889.000000	1.440763 
3888.000000	1.440668 
3887.000000	1.440834 
3886.000000	1.441264 
3885.000000	1.441955 
3884.000000	1.442909 
3883.000000	1.444053 
3882.000000	1.445364 
3881.000000	1.446747 
3880.000000	1.448082 
3879.000000	1.449298 
3878.000000	1.450300 
3877.000000	1.451039 
3876.000000	1.451468 
3875.000000	1.451683 
3874.000000	1.451706 
3873.000000	1.451683 
3872.000000	1.451635 
3871.000000	1.451730 
3870.000000	1.452016 
3869.000000	1.452589 
3868.000000	1.453423 
3867.000000	1.454520 
3866.000000	1.455855 
3865.000000	1.457262 
3864.000000	1.458621 
3863.000000	1.459765 
3862.000000	1.460433 
3861.000000	1.460504 
3860.000000	1.459980 
3859.000000	1.458811 
3858.000000	1.457238 
3857.000000	1.455569 
3856.000000	1.454162 
3855.000000	1.453399 
3854.000000	1.453542 
3853.000000	1.454806 
3852.000000	1.457118 
3851.000000	1.460266 
3850.000000	1.463961 
3849.000000	1.467752 
3848.000000	1.471281 
3847.000000	1.474165 
3846.000000	1.476263 
3845.000000	1.477479 
3844.000000	1.477956 
3843.000000	1.477861 
3842.000000	1.477408 
3841.000000	1.476931 
3840.000000	1.476693 
3839.000000	1.476883 
3838.000000	1.477599 
3837.000000	1.478934 
3836.000000	1.480817 
3835.000000	1.483178 
3834.000000	1.485776 
3833.000000	1.488542 
3832.000000	1.491236 
3831.000000	1.493716 
3830.000000	1.495838 
3829.000000	1.497554 
3828.000000	1.498842 
3827.000000	1.499748 
3826.000000	1.500248 
3825.000000	1.500439 
3824.000000	1.500463 
3823.000000	1.500368 
3822.000000	1.500248 
3821.000000	1.500320 
3820.000000	1.500630 
3819.000000	1.501297 
3818.000000	1.502394 
3817.000000	1.503944 
3816.000000	1.505875 
3815.000000	1.508045 
3814.000000	1.510334 
3813.000000	1.512622 
3812.000000	1.514673 
3811.000000	1.516461 
3810.000000	1.517868 
3809.000000	1.518940 
3808.000000	1.519703 
3807.000000	1.520276 
3806.000000	1.520800 
3805.000000	1.521372 
3804.000000	1.522088 
3803.000000	1.522994 
3802.000000	1.524138 
3801.000000	1.525568 
3800.000000	1.527214 
3799.000000	1.529049 
3798.000000	1.530981 
3797.000000	1.532983 
3796.000000	1.534962 
3795.000000	1.536822 
3794.000000	1.538586 
3793.000000	1.540207 
3792.000000	1.541709 
3791.000000	1.543068 
3790.000000	1.544332 
3789.000000	1.545453 
3788.000000	1.546502 
3787.000000	1.547479 
3786.000000	1.548361 
3785.000000	1.549172 
3784.000000	1.549935 
3783.000000	1.550698 
3782.000000	1.551461 
3781.000000	1.552248 
3780.000000	1.553106 
3779.000000	1.554059 
3778.000000	1.555085 
3777.000000	1.556134 
3776.000000	1.557159 
3775.000000	1.558160 
3774.000000	1.559114 
3773.000000	1.560020 
3772.000000	1.560974 
3771.000000	1.561880 
3770.000000	1.562786 
3769.000000	1.563644 
3768.000000	1.564455 
3767.000000	1.565146 
3766.000000	1.565694 
3765.000000	1.566028 
3764.000000	1.566195 
3763.000000	1.566195 
3762.000000	1.566004 
3761.000000	1.565647 
3760.000000	1.565098 
3759.000000	1.564455 
3758.000000	1.563692 
3757.000000	1.562738 
3756.000000	1.561665 
3755.000000	1.560449 
3754.000000	1.559138 
3753.000000	1.557803 
3752.000000	1.556539 
3751.000000	1.555395 
3750.000000	1.554536 
3749.000000	1.553988 
3748.000000	1.553845 
3747.000000	1.554226 
3746.000000	1.555109 
3745.000000	1.556420 
3744.000000	1.558136 
3743.000000	1.560091 
3742.000000	1.562142 
3741.000000	1.564121 
3740.000000	1.565933 
3739.000000	1.567506 
3738.000000	1.568794 
3737.000000	1.569867 
3736.000000	1.570773 
3735.000000	1.571655 
3734.000000	1.572632 
3733.000000	1.573729 
3732.000000	1.575016 
3731.000000	1.576375 
3730.000000	1.577854 
3729.000000	1.579332 
3728.000000	1.580762 
3727.000000	1.582121 
3726.000000	1.583361 
3725.000000	1.584458 
3724.000000	1.585388 
3723.000000	1.586079 
3722.000000	1.586556 
3721.000000	1.586723 
3720.000000	1.586675 
3719.000000	1.586365 
3718.000000	1.585793 
3717.000000	1.585149 
3716.000000	1.584458 
3715.000000	1.583886 
3714.000000	1.583528 
3713.000000	1.583504 
3712.000000	1.583790 
3711.000000	1.584458 
3710.000000	1.585412 
3709.000000	1.586556 
3708.000000	1.587796 
3707.000000	1.589012 
3706.000000	1.590037 
3705.000000	1.590847 
3704.000000	1.591372 
3703.000000	1.591730 
3702.000000	1.591849 
3701.000000	1.591801 
3700.000000	1.591610 
3699.000000	1.591277 
3698.000000	1.590776 
3697.000000	1.590037 
3696.000000	1.589059 
3695.000000	1.587843 
3694.000000	1.586413 
3693.000000	1.584935 
3692.000000	1.583528 
3691.000000	1.582384 
3690.000000	1.581668 
3689.000000	1.581478 
3688.000000	1.581764 
3687.000000	1.582431 
3686.000000	1.583242 
3685.000000	1.584029 
3684.000000	1.584434 
3683.000000	1.584291 
3682.000000	1.583552 
3681.000000	1.582241 
3680.000000	1.580452 
3679.000000	1.578354 
3678.000000	1.576256 
3677.000000	1.574349 
3676.000000	1.572895 
3675.000000	1.571965 
3674.000000	1.571702 
3673.000000	1.572084 
3672.000000	1.573014 
3671.000000	1.574444 
3670.000000	1.576256 
3669.000000	1.578330 
3668.000000	1.580429 
3667.000000	1.582479 
3666.000000	1.584291 
3665.000000	1.585793 
3664.000000	1.586890 
3663.000000	1.587557 
3662.000000	1.587796 
3661.000000	1.587724 
3660.000000	1.587367 
3659.000000	1.586771 
3658.000000	1.586008 
3657.000000	1.585054 
3656.000000	1.583957 
3655.000000	1.582717 
3654.000000	1.581358 
3653.000000	1.579999 
3652.000000	1.578807 
3651.000000	1.577949 
3650.000000	1.577615 
3649.000000	1.577877 
3648.000000	1.578736 
3647.000000	1.580214 
3646.000000	1.582121 
3645.000000	1.584267 
3644.000000	1.586461 
3643.000000	1.588463 
3642.000000	1.590180 
3641.000000	1.591444 
3640.000000	1.592278 
3639.000000	1.592636 
3638.000000	1.592564 
3637.000000	1.592040 
3636.000000	1.591157 
3635.000000	1.589941 
3634.000000	1.588511 
3633.000000	1.587009 
3632.000000	1.585602 
3631.000000	1.584458 
3630.000000	1.583695 
3629.000000	1.583409 
3628.000000	1.583600 
3627.000000	1.584196 
3626.000000	1.585054 
3625.000000	1.585984 
3624.000000	1.586937 
3623.000000	1.587748 
3622.000000	1.588439 
3621.000000	1.588964 
3620.000000	1.589417 
3619.000000	1.589775 
3618.000000	1.590156 
3617.000000	1.590514 
3616.000000	1.590871 
3615.000000	1.591205 
3614.000000	1.591467 
3613.000000	1.591730 
3612.000000	1.591992 
3611.000000	1.592350 
3610.000000	1.592898 
3609.000000	1.593637 
3608.000000	1.594638 
3607.000000	1.595854 
3606.000000	1.597261 
3605.000000	1.598715 
3604.000000	1.600146 
3603.000000	1.601433 
3602.000000	1.602578 
3601.000000	1.603460 
3600.000000	1.604127 
3599.000000	1.604604 
3598.000000	1.604866 
3597.000000	1.605057 
3596.000000	1.605129 
3595.000000	1.605129 
3594.000000	1.605057 
3593.000000	1.604962 
3592.000000	1.604819 
3591.000000	1.604723 
3590.000000	1.604700 
3589.000000	1.604914 
3588.000000	1.605296 
3587.000000	1.605939 
3586.000000	1.606869 
3585.000000	1.607990 
3584.000000	1.609253 
3583.000000	1.610636 
3582.000000	1.611995 
3581.000000	1.613354 
3580.000000	1.614594 
3579.000000	1.615715 
3578.000000	1.616716 
3577.000000	1.617574 
3576.000000	1.618266 
3575.000000	1.618766 
3574.000000	1.619148 
3573.000000	1.619315 
3572.000000	1.619291 
3571.000000	1.619219 
3570.000000	1.619100 
3569.000000	1.619029 
3568.000000	1.619076 
3567.000000	1.619338 
3566.000000	1.619863 
3565.000000	1.620626 
3564.000000	1.621675 
3563.000000	1.622891 
3562.000000	1.624202 
3561.000000	1.625537 
3560.000000	1.626801 
3559.000000	1.627969 
3558.000000	1.628923 
3557.000000	1.629710 
3556.000000	1.630282 
3555.000000	1.630640 
3554.000000	1.630854 
3553.000000	1.630878 
3552.000000	1.630854 
3551.000000	1.630783 
3550.000000	1.630711 
3549.000000	1.630735 
3548.000000	1.630854 
3547.000000	1.631116 
3546.000000	1.631546 
3545.000000	1.632094 
3544.000000	1.632666 
3543.000000	1.633286 
3542.000000	1.633834 
3541.000000	1.634287 
3540.000000	1.634550 
3539.000000	1.634669 
3538.000000	1.634550 
3537.000000	1.634311 
3536.000000	1.633954 
3535.000000	1.633548 
3534.000000	1.633119 
3533.000000	1.632761 
3532.000000	1.632523 
3531.000000	1.632380 
3530.000000	1.632404 
3529.000000	1.632571 
3528.000000	1.632881 
3527.000000	1.633381 
3526.000000	1.634049 
3525.000000	1.634788 
3524.000000	1.635599 
3523.000000	1.636433 
3522.000000	1.637220 
3521.000000	1.637935 
3520.000000	1.638507 
3519.000000	1.638936 
3518.000000	1.639246 
3517.000000	1.639485 
3516.000000	1.639628 
3515.000000	1.639699 
3514.000000	1.639747 
3513.000000	1.639699 
3512.000000	1.639556 
3511.000000	1.639318 
3510.000000	1.638936 
3509.000000	1.638460 
3508.000000	1.637911 
3507.000000	1.637315 
3506.000000	1.636695 
3505.000000	1.636147 
3504.000000	1.635622 
3503.000000	1.635146 
3502.000000	1.634740 
3501.000000	1.634383 
3500.000000	1.634049 
3499.000000	1.633739 
3498.000000	1.633453 
3497.000000	1.633167 
3496.000000	1.632881 
3495.000000	1.632595 
3494.000000	1.632308 
3493.000000	1.631975 
3492.000000	1.631617 
3491.000000	1.631212 
3490.000000	1.630735 
3489.000000	1.630187 
3488.000000	1.629567 
3487.000000	1.628875 
3486.000000	1.628136 
3485.000000	1.627373 
3484.000000	1.626658 
3483.000000	1.626038 
3482.000000	1.625466 
3481.000000	1.625013 
3480.000000	1.624679 
3479.000000	1.624417 
3478.000000	1.624202 
3477.000000	1.624011 
3476.000000	1.623749 
3475.000000	1.623392 
3474.000000	1.622962 
3473.000000	1.622414 
3472.000000	1.621794 
3471.000000	1.621103 
3470.000000	1.620411 
3469.000000	1.619720 
3468.000000	1.619029 
3467.000000	1.618313 
3466.000000	1.617598 
3465.000000	1.616859 
3464.000000	1.616096 
3463.000000	1.615285 
3462.000000	1.614475 
3461.000000	1.613664 
3460.000000	1.612901 
3459.000000	1.612186 
3458.000000	1.611471 
3457.000000	1.610827 
3456.000000	1.610183 
3455.000000	1.609539 
3454.000000	1.608848 
3453.000000	1.608109 
3452.000000	1.607298 
3451.000000	1.606488 
3450.000000	1.605629 
3449.000000	1.604795 
3448.000000	1.603960 
3447.000000	1.603174 
3446.000000	1.602387 
3445.000000	1.601648 
3444.000000	1.600909 
3443.000000	1.600193 
3442.000000	1.599454 
3441.000000	1.598739 
3440.000000	1.598000 
3439.000000	1.597332 
3438.000000	1.596713 
3437.000000	1.596212 
3436.000000	1.595759 
3435.000000	1.595354 
3434.000000	1.594996 
3433.000000	1.594614 
3432.000000	1.594281 
3431.000000	1.593875 
3430.000000	1.593518 
3429.000000	1.593184 
3428.000000	1.592922 
3427.000000	1.592731 
3426.000000	1.592659 
3425.000000	1.592707 
3424.000000	1.592826 
3423.000000	1.593065 
3422.000000	1.593303 
3421.000000	1.593589 
3420.000000	1.593852 
3419.000000	1.594066 
3418.000000	1.594281 
3417.000000	1.594471 
3416.000000	1.594686 
3415.000000	1.594948 
3414.000000	1.595234 
3413.000000	1.595616 
3412.000000	1.596069 
3411.000000	1.596617 
3410.000000	1.597189 
3409.000000	1.597785 
3408.000000	1.598405 
3407.000000	1.599049 
3406.000000	1.599693 
3405.000000	1.600360 
3404.000000	1.601052 
3403.000000	1.601791 
3402.000000	1.602602 
3401.000000	1.603507 
3400.000000	1.604461 
3399.000000	1.605463 
3398.000000	1.606488 
3397.000000	1.607489 
3396.000000	1.608419 
3395.000000	1.609277 
3394.000000	1.610016 
3393.000000	1.610660 
3392.000000	1.611256 
3391.000000	1.611781 
3390.000000	1.612329 
3389.000000	1.612854 
3388.000000	1.613426 
3387.000000	1.614022 
3386.000000	1.614618 
3385.000000	1.615214 
3384.000000	1.615810 
3383.000000	1.616406 
3382.000000	1.617002 
3381.000000	1.617598 
3380.000000	1.618266 
3379.000000	1.618957 
3378.000000	1.619768 
3377.000000	1.620674 
3376.000000	1.621699 
3375.000000	1.622724 
3374.000000	1.623845 
3373.000000	1.625037 
3372.000000	1.626300 
3371.000000	1.627635 
3370.000000	1.629066 
3369.000000	1.630616 
3368.000000	1.632213 
3367.000000	1.633882 
3366.000000	1.635575 
3365.000000	1.637268 
3364.000000	1.638841 
3363.000000	1.640319 
3362.000000	1.641678 
3361.000000	1.642918 
3360.000000	1.644039 
3359.000000	1.645088 
3358.000000	1.646137 
3357.000000	1.647162 
3356.000000	1.648330 
3355.000000	1.649498 
3354.000000	1.650857 
3353.000000	1.652288 
3352.000000	1.653909 
3351.000000	1.655626 
3350.000000	1.657509 
3349.000000	1.659512 
3348.000000	1.661562 
3347.000000	1.663637 
3346.000000	1.665663 
3345.000000	1.667618 
3344.000000	1.669406 
3343.000000	1.671051 
3342.000000	1.672554 
3341.000000	1.673913 
3340.000000	1.675200 
3339.000000	1.676464 
3338.000000	1.677751 
3337.000000	1.679086 
3336.000000	1.680469 
3335.000000	1.681923 
3334.000000	1.683425 
3333.000000	1.684975 
3332.000000	1.686549 
3331.000000	1.688098 
3330.000000	1.689648 
3329.000000	1.691198 
3328.000000	1.692724 
3327.000000	1.694273 
3326.000000	1.695799 
3325.000000	1.697349 
3324.000000	1.698899 
3323.000000	1.700425 
3322.000000	1.701903 
3321.000000	1.703286 
3320.000000	1.704621 
3319.000000	1.705884 
3318.000000	1.707077 
3317.000000	1.708269 
3316.000000	1.709485 
3315.000000	1.710772 
3314.000000	1.712155 
3313.000000	1.713657 
3312.000000	1.715230 
3311.000000	1.716899 
3310.000000	1.718592 
3309.000000	1.720237 
3308.000000	1.721835 
3307.000000	1.723289 
3306.000000	1.724696 
3305.000000	1.726007 
3304.000000	1.727247 
3303.000000	1.728463 
3302.000000	1.729726 
3301.000000	1.731014 
3300.000000	1.732420 
3299.000000	1.733899 
3298.000000	1.735448 
3297.000000	1.737070 
3296.000000	1.738691 
3295.000000	1.740241 
3294.000000	1.741766 
3293.000000	1.743221 
3292.000000	1.744580 
3291.000000	1.745820 
3290.000000	1.747035 
3289.000000	1.748180 
3288.000000	1.749348 
3287.000000	1.750445 
3286.000000	1.751565 
3285.000000	1.752686 
3284.000000	1.753783 
3283.000000	1.754808 
3282.000000	1.755857 
3281.000000	1.756906 
3280.000000	1.757979 
3279.000000	1.759099 
3278.000000	1.760315 
3277.000000	1.761627 
3276.000000	1.762986 
3275.000000	1.764321 
3274.000000	1.765656 
3273.000000	1.766943 
3272.000000	1.768183 
3271.000000	1.769328 
3270.000000	1.770424 
3269.000000	1.771426 
3268.000000	1.772475 
3267.000000	1.773405 
3266.000000	1.774311 
3265.000000	1.775121 
3264.000000	1.775836 
3263.000000	1.776456 
3262.000000	1.776981 
3261.000000	1.777362 
3260.000000	1.777720 
3259.000000	1.778125 
3258.000000	1.778602 
3257.000000	1.779198 
3256.000000	1.779890 
3255.000000	1.780748 
3254.000000	1.781678 
3253.000000	1.782655 
3252.000000	1.783680 
3251.000000	1.784706 
3250.000000	1.785659 
3249.000000	1.786541 
3248.000000	1.787352 
3247.000000	1.788067 
3246.000000	1.788735 
3245.000000	1.789283 
3244.000000	1.789736 
3243.000000	1.790118 
3242.000000	1.790428 
3241.000000	1.790690 
3240.000000	1.790976 
3239.000000	1.791262 
3238.000000	1.791572 
3237.000000	1.791882 
3236.000000	1.792216 
3235.000000	1.792526 
3234.000000	1.792812 
3233.000000	1.793050 
3232.000000	1.793217 
3231.000000	1.793384 
3230.000000	1.793551 
3229.000000	1.793670 
3228.000000	1.793837 
3227.000000	1.794075 
3226.000000	1.794314 
3225.000000	1.794576 
3224.000000	1.794838 
3223.000000	1.795101 
3222.000000	1.795315 
3221.000000	1.795530 
3220.000000	1.795721 
3219.000000	1.795935 
3218.000000	1.796221 
3217.000000	1.796555 
3216.000000	1.796960 
3215.000000	1.797437 
3214.000000	1.797962 
3213.000000	1.798486 
3212.000000	1.798987 
3211.000000	1.799416 
3210.000000	1.799726 
3209.000000	1.799893 
3208.000000	1.799988 
3207.000000	1.800012 
3206.000000	1.800036 
3205.000000	1.800084 
3204.000000	1.800203 
3203.000000	1.800370 
3202.000000	1.800632 
3201.000000	1.800918 
3200.000000	1.801276 
3199.000000	1.801586 
3198.000000	1.801872 
3197.000000	1.802110 
3196.000000	1.802325 
3195.000000	1.802515 
3194.000000	1.802706 
3193.000000	1.802897 
3192.000000	1.803135 
3191.000000	1.803421 
3190.000000	1.803755 
3189.000000	1.804113 
3188.000000	1.804518 
3187.000000	1.804876 
3186.000000	1.805233 
3185.000000	1.805496 
3184.000000	1.805615 
3183.000000	1.805639 
3182.000000	1.805567 
3181.000000	1.805424 
3180.000000	1.805257 
3179.000000	1.805162 
3178.000000	1.805162 
3177.000000	1.805305 
3176.000000	1.805591 
3175.000000	1.806020 
3174.000000	1.806616 
3173.000000	1.807260 
3172.000000	1.807928 
3171.000000	1.808547 
3170.000000	1.809096 
3169.000000	1.809620 
3168.000000	1.810097 
3167.000000	1.810574 
3166.000000	1.811122 
3165.000000	1.811718 
3164.000000	1.812386 
3163.000000	1.813101 
3162.000000	1.813864 
3161.000000	1.814627 
3160.000000	1.815366 
3159.000000	1.816058 
3158.000000	1.816701 
3157.000000	1.817226 
3156.000000	1.817679 
3155.000000	1.818060 
3154.000000	1.818394 
3153.000000	1.818680 
3152.000000	1.818990 
3151.000000	1.819348 
3150.000000	1.819801 
3149.000000	1.820397 
3148.000000	1.821208 
3147.000000	1.822233 
3146.000000	1.823472 
3145.000000	1.824855 
3144.000000	1.826405 
3143.000000	1.828050 
3142.000000	1.829648 
3141.000000	1.831221 
3140.000000	1.832628 
3139.000000	1.833891 
3138.000000	1.834988 
3137.000000	1.835942 
3136.000000	1.836824 
3135.000000	1.837587 
3134.000000	1.838350 
3133.000000	1.839160 
3132.000000	1.839923 
3131.000000	1.840710 
3130.000000	1.841545 
3129.000000	1.842427 
3128.000000	1.843285 
3127.000000	1.844191 
3126.000000	1.845192 
3125.000000	1.846265 
3124.000000	1.847457 
3123.000000	1.848816 
3122.000000	1.850295 
3121.000000	1.851940 
3120.000000	1.853656 
3119.000000	1.855444 
3118.000000	1.857233 
3117.000000	1.858973 
3116.000000	1.860642 
3115.000000	1.862239 
3114.000000	1.863789 
3113.000000	1.865267 
3112.000000	1.866769 
3111.000000	1.868295 
3110.000000	1.869845 
3109.000000	1.871466 
3108.000000	1.873111 
3107.000000	1.874852 
3106.000000	1.876640 
3105.000000	1.878476 
3104.000000	1.880407 
3103.000000	1.882457 
3102.000000	1.884555 
3101.000000	1.886677 
3100.000000	1.888799 
3099.000000	1.890921 
3098.000000	1.892852 
3097.000000	1.894617 
3096.000000	1.896190 
3095.000000	1.897573 
3094.000000	1.898837 
3093.000000	1.900053 
3092.000000	1.901292 
3091.000000	1.902651 
3090.000000	1.904153 
3089.000000	1.905846 
3088.000000	1.907634 
3087.000000	1.909542 
3086.000000	1.911568 
3085.000000	1.913619 
3084.000000	1.915717 
3083.000000	1.917791 
3082.000000	1.919841 
3081.000000	1.921868 
3080.000000	1.923823 
3079.000000	1.925706 
3078.000000	1.927471 
3077.000000	1.929068 
3076.000000	1.930499 
3075.000000	1.931762 
3074.000000	1.932930 
3073.000000	1.933979 
3072.000000	1.934981 
3071.000000	1.935982 
3070.000000	1.937031 
3069.000000	1.938199 
3068.000000	1.939439 
3067.000000	1.940846 
3066.000000	1.942396 
3065.000000	1.944088 
3064.000000	1.945924 
3063.000000	1.947903 
3062.000000	1.949977 
3061.000000	1.952099 
3060.000000	1.954245 
3059.000000	1.956319 
3058.000000	1.958346 
3057.000000	1.960206 
3056.000000	1.961898 
3055.000000	1.963448 
3054.000000	1.964902 
3053.000000	1.966309 
3052.000000	1.967668 
3051.000000	1.969099 
3050.000000	1.970648 
3049.000000	1.972198 
3048.000000	1.973867 
3047.000000	1.975584 
3046.000000	1.977276 
3045.000000	1.978850 
3044.000000	1.980328 
3043.000000	1.981616 
3042.000000	1.982808 
3041.000000	1.983880 
3040.000000	1.984882 
3039.000000	1.985788 
3038.000000	1.986646 
3037.000000	1.987457 
3036.000000	1.988172 
3035.000000	1.988720 
3034.000000	1.989054 
3033.000000	1.989078 
3032.000000	1.988768 
3031.000000	1.988005 
3030.000000	1.986885 
3029.000000	1.985383 
3028.000000	1.983571 
3027.000000	1.981544 
3026.000000	1.979327 
3025.000000	1.977086 
3024.000000	1.974868 
3023.000000	1.972794 
3022.000000	1.971006 
3021.000000	1.969647 
3020.000000	1.968836 
3019.000000	1.968717 
3018.000000	1.969456 
3017.000000	1.971054 
3016.000000	1.973581 
3015.000000	1.977014 
3014.000000	1.981210 
3013.000000	1.986050 
3012.000000	1.991248 
3011.000000	1.996684 
3010.000000	2.002120 
3009.000000	2.007341 
3008.000000	2.012252 
3007.000000	2.016687 
3006.000000	2.020692 
3005.000000	2.024197 
3004.000000	2.027273 
3003.000000	2.029848 
3002.000000	2.032089 
3001.000000	2.033996 
3000.000000	2.035546 
2999.000000	2.036881 
2998.000000	2.037978 
2997.000000	2.038836 
2996.000000	2.039504 
2995.000000	2.040028 
2994.000000	2.040410 
2993.000000	2.040600 
2992.000000	2.040624 
2991.000000	2.040505 
2990.000000	2.040195 
2989.000000	2.039742 
2988.000000	2.039122 
2987.000000	2.038359 
2986.000000	2.037477 
2985.000000	2.036476 
2984.000000	2.035355 
2983.000000	2.034091 
2982.000000	2.032589 
2981.000000	2.030849 
2980.000000	2.028799 
2979.000000	2.026295 
2978.000000	2.023386 
2977.000000	2.019953 
2976.000000	2.016019 
2975.000000	2.011537 
2974.000000	2.006602 
2973.000000	2.001214 
2972.000000	1.995491 
2971.000000	1.989507 
2970.000000	1.983380 
2969.000000	1.977229 
2968.000000	1.971220 
2967.000000	1.965427 
2966.000000	1.959991 
2965.000000	1.955056 
2964.000000	1.950597 
2963.000000	1.946759 
2962.000000	1.943540 
2961.000000	1.940870 
2960.000000	1.938676 
2959.000000	1.936936 
2958.000000	1.935553 
2957.000000	1.934432 
2956.000000	1.933431 
2955.000000	1.932454 
2954.000000	1.931428 
2953.000000	1.930236 
2952.000000	1.928758 
2951.000000	1.926875 
2950.000000	1.924490 
2949.000000	1.921463 
2948.000000	1.917767 
2947.000000	1.913237 
2946.000000	1.907801 
2945.000000	1.901412 
2944.000000	1.894235 
2943.000000	1.886177 
2942.000000	1.877379 
2941.000000	1.868128 
2940.000000	1.858592 
2939.000000	1.849007 
2938.000000	1.839542 
2937.000000	1.830434 
2936.000000	1.821780 
2935.000000	1.813626 
2934.000000	1.805996 
2933.000000	1.798892 
2932.000000	1.792311 
2931.000000	1.786303 
2930.000000	1.781010 
2929.000000	1.776576 
2928.000000	1.773309 
2927.000000	1.771473 
2926.000000	1.771306 
2925.000000	1.773095 
2924.000000	1.776933 
2923.000000	1.782870 
2922.000000	1.790809 
2921.000000	1.800513 
2920.000000	1.811671 
2919.000000	1.823902 
2918.000000	1.836729 
2917.000000	1.849794 
2916.000000	1.862621 
2915.000000	1.874947 
2914.000000	1.886510 
2913.000000	1.897120 
2912.000000	1.906800 
2911.000000	1.915383 
2910.000000	1.923060 
2909.000000	1.929879 
2908.000000	1.935911 
2907.000000	1.941299 
2906.000000	1.946210 
2905.000000	1.950764 
2904.000000	1.955032 
2903.000000	1.959109 
2902.000000	1.963019 
2901.000000	1.966834 
2900.000000	1.970601 
2899.000000	1.974201 
2898.000000	1.977658 
2897.000000	1.980924 
2896.000000	1.984119 
2895.000000	1.987147 
2894.000000	1.989984 
2893.000000	1.992750 
2892.000000	1.995420 
2891.000000	1.998019 
2890.000000	2.000522 
2889.000000	2.002978 
2888.000000	2.005290 
2887.000000	2.007532 
2886.000000	2.009510 
2885.000000	2.011299 
2884.000000	2.012848 
2883.000000	2.014088 
2882.000000	2.014994 
2881.000000	2.015542 
2880.000000	2.015662 
2879.000000	2.015352 
2878.000000	2.014517 
2877.000000	2.013111 
2876.000000	2.011060 
2875.000000	2.008271 
2874.000000	2.004671 
2873.000000	2.000164 
2872.000000	1.994681 
2871.000000	1.988196 
2870.000000	1.980781 
2869.000000	1.972484 
2868.000000	1.963496 
2867.000000	1.954102 
2866.000000	1.944708 
2865.000000	1.935768 
2864.000000	1.927781 
2863.000000	1.921224 
2862.000000	1.916503 
2861.000000	1.913976 
2860.000000	1.913738 
2859.000000	1.915884 
2858.000000	1.920247 
2857.000000	1.926612 
2856.000000	1.934599 
2855.000000	1.943850 
2854.000000	1.953959 
2853.000000	1.964688 
2852.000000	1.975679 
2851.000000	1.986765 
2850.000000	1.997733 
2849.000000	2.008461 
2848.000000	2.018809 
2847.000000	2.028751 
2846.000000	2.038121 
2845.000000	2.046799 
2844.000000	2.054810 
2843.000000	2.062129 
2842.000000	2.068758 
2841.000000	2.074837 
2840.000000	2.080368 
2839.000000	2.085566 
2838.000000	2.090406 
2837.000000	2.094960 
2836.000000	2.099370 
2835.000000	2.103543 
2834.000000	2.107501 
2833.000000	2.111220 
2832.000000	2.114748 
2831.000000	2.118039 
2830.000000	2.121162 
2829.000000	2.124142 
2828.000000	2.126955 
2827.000000	2.129697 
2826.000000	2.132415 
2825.000000	2.135133 
2824.000000	2.137851 
2823.000000	2.140641 
2822.000000	2.143454 
2821.000000	2.146244 
2820.000000	2.149033 
2819.000000	2.151823 
2818.000000	2.154588 
2817.000000	2.157306 
2816.000000	2.159929 
2815.000000	2.162528 
2814.000000	2.165079 
2813.000000	2.167582 
2812.000000	2.170062 
2811.000000	2.172446 
2810.000000	2.174735 
2809.000000	2.176809 
2808.000000	2.178740 
2807.000000	2.180457 
2806.000000	2.182006 
2805.000000	2.183437 
2804.000000	2.184772 
2803.000000	2.186131 
2802.000000	2.187561 
2801.000000	2.189111 
2800.000000	2.190804 
2799.000000	2.192616 
2798.000000	2.194499 
2797.000000	2.196431 
2796.000000	2.198362 
2795.000000	2.200245 
2794.000000	2.202081 
2793.000000	2.203869 
2792.000000	2.205610 
2791.000000	2.207303 
2790.000000	2.208995 
2789.000000	2.210640 
2788.000000	2.212309 
2787.000000	2.213954 
2786.000000	2.215623 
2785.000000	2.217316 
2784.000000	2.219057 
2783.000000	2.220892 
2782.000000	2.222800 
2781.000000	2.224802 
2780.000000	2.226853 
2779.000000	2.228879 
2778.000000	2.230882 
2777.000000	2.232742 
2776.000000	2.234482 
2775.000000	2.236032 
2774.000000	2.237486 
2773.000000	2.238869 
2772.000000	2.240228 
2771.000000	2.241587 
2770.000000	2.243018 
2769.000000	2.244496 
2768.000000	2.246046 
2767.000000	2.247571 
2766.000000	2.248978 
2765.000000	2.250266 
2764.000000	2.251386 
2763.000000	2.252340 
2762.000000	2.253198 
2761.000000	2.253961 
2760.000000	2.254748 
2759.000000	2.255487 
2758.000000	2.256226 
2757.000000	2.256941 
2756.000000	2.257633 
2755.000000	2.258229 
2754.000000	2.258729 
2753.000000	2.259111 
2752.000000	2.259349 
2751.000000	2.259564 
2750.000000	2.259826 
2749.000000	2.260112 
2748.000000	2.260494 
2747.000000	2.260947 
2746.000000	2.261567 
2745.000000	2.262258 
2744.000000	2.263021 
2743.000000	2.263784 
2742.000000	2.264475 
2741.000000	2.265095 
2740.000000	2.265572 
2739.000000	2.265858 
2738.000000	2.266001 
2737.000000	2.265977 
2736.000000	2.265906 
2735.000000	2.265763 
2734.000000	2.265667 
2733.000000	2.265596 
2732.000000	2.265691 
2731.000000	2.265834 
2730.000000	2.266073 
2729.000000	2.266311 
2728.000000	2.266502 
2727.000000	2.266669 
2726.000000	2.266740 
2725.000000	2.266693 
2724.000000	2.266550 
2723.000000	2.266311 
2722.000000	2.266001 
2721.000000	2.265715 
2720.000000	2.265334 
2719.000000	2.264952 
2718.000000	2.264475 
2717.000000	2.263951 
2716.000000	2.263355 
2715.000000	2.262711 
2714.000000	2.262067 
2713.000000	2.261447 
2712.000000	2.260875 
2711.000000	2.260351 
2710.000000	2.259945 
2709.000000	2.259540 
2708.000000	2.259135 
2707.000000	2.258706 
2706.000000	2.258181 
2705.000000	2.257561 
2704.000000	2.256846 
2703.000000	2.256059 
2702.000000	2.255225 
2701.000000	2.254438 
2700.000000	2.253651 
2699.000000	2.252936 
2698.000000	2.252316 
2697.000000	2.251768 
2696.000000	2.251267 
2695.000000	2.250814 
2694.000000	2.250337 
2693.000000	2.249908 
2692.000000	2.249503 
2691.000000	2.249145 
2690.000000	2.248859 
2689.000000	2.248644 
2688.000000	2.248430 
2687.000000	2.248215 
2686.000000	2.247929 
2685.000000	2.247524 
2684.000000	2.246975 
2683.000000	2.246260 
2682.000000	2.245378 
2681.000000	2.244400 
2680.000000	2.243375 
2679.000000	2.242326 
2678.000000	2.241349 
2677.000000	2.240490 
2676.000000	2.239751 
2675.000000	2.239179 
2674.000000	2.238678 
2673.000000	2.238249 
2672.000000	2.237892 
2671.000000	2.237510 
2670.000000	2.237105 
2669.000000	2.236700 
2668.000000	2.236199 
2667.000000	2.235722 
2666.000000	2.235221 
2665.000000	2.234721 
2664.000000	2.234268 
2663.000000	2.233815 
2662.000000	2.233386 
2661.000000	2.233004 
2660.000000	2.232551 
2659.000000	2.232050 
2658.000000	2.231478 
2657.000000	2.230882 
2656.000000	2.230238 
2655.000000	2.229523 
2654.000000	2.228832 
2653.000000	2.228164 
2652.000000	2.227520 
2651.000000	2.226901 
2650.000000	2.226376 
2649.000000	2.225947 
2648.000000	2.225661 
2647.000000	2.225518 
2646.000000	2.225422 
2645.000000	2.225470 
2644.000000	2.225542 
2643.000000	2.225685 
2642.000000	2.225828 
2641.000000	2.225899 
2640.000000	2.225899 
2639.000000	2.225804 
2638.000000	2.225637 
2637.000000	2.225446 
2636.000000	2.225303 
2635.000000	2.225184 
2634.000000	2.225160 
2633.000000	2.225232 
2632.000000	2.225446 
2631.000000	2.225685 
2630.000000	2.225947 
2629.000000	2.226209 
2628.000000	2.226448 
2627.000000	2.226591 
2626.000000	2.226662 
2625.000000	2.226662 
2624.000000	2.226638 
2623.000000	2.226662 
2622.000000	2.226734 
2621.000000	2.226877 
2620.000000	2.227139 
2619.000000	2.227497 
2618.000000	2.227926 
2617.000000	2.228426 
2616.000000	2.228975 
2615.000000	2.229523 
2614.000000	2.230000 
2613.000000	2.230429 
2612.000000	2.230739 
2611.000000	2.230954 
2610.000000	2.231097 
2609.000000	2.231192 
2608.000000	2.231264 
2607.000000	2.231335 
2606.000000	2.231478 
2605.000000	2.231693 
2604.000000	2.232003 
2603.000000	2.232432 
2602.000000	2.232933 
2601.000000	2.233529 
2600.000000	2.234148 
2599.000000	2.234792 
2598.000000	2.235388 
2597.000000	2.235937 
2596.000000	2.236413 
2595.000000	2.236819 
2594.000000	2.237176 
2593.000000	2.237534 
2592.000000	2.237892 
2591.000000	2.238345 
2590.000000	2.238965 
2589.000000	2.239823 
2588.000000	2.240872 
2587.000000	2.242183 
2586.000000	2.243733 
2585.000000	2.245473 
2584.000000	2.247333 
2583.000000	2.249264 
2582.000000	2.251172 
2581.000000	2.253007 
2580.000000	2.254772 
2579.000000	2.256417 
2578.000000	2.257966 
2577.000000	2.259492 
2576.000000	2.260971 
2575.000000	2.262496 
2574.000000	2.264046 
2573.000000	2.265667 
2572.000000	2.267289 
2571.000000	2.268934 
2570.000000	2.270555 
2569.000000	2.272129 
2568.000000	2.273654 
2567.000000	2.275061 
2566.000000	2.276396 
2565.000000	2.277708 
2564.000000	2.278995 
2563.000000	2.280330 
2562.000000	2.281713 
2561.000000	2.283167 
2560.000000	2.284693 
2559.000000	2.286195 
2558.000000	2.287697 
2557.000000	2.289104 
2556.000000	2.290368 
2555.000000	2.291488 
2554.000000	2.292418 
2553.000000	2.293157 
2552.000000	2.293777 
2551.000000	2.294325 
2550.000000	2.294802 
2549.000000	2.295303 
2548.000000	2.295923 
2547.000000	2.296638 
2546.000000	2.297496 
2545.000000	2.298545 
2544.000000	2.299761 
2543.000000	2.301144 
2542.000000	2.302718 
2541.000000	2.304387 
2540.000000	2.306175 
2539.000000	2.307915 
2538.000000	2.309656 
2537.000000	2.311229 
2536.000000	2.312636 
2535.000000	2.313828 
2534.000000	2.314805 
2533.000000	2.315592 
2532.000000	2.316284 
2531.000000	2.316927 
2530.000000	2.317547 
2529.000000	2.318239 
2528.000000	2.319025 
2527.000000	2.319860 
2526.000000	2.320766 
2525.000000	2.321672 
2524.000000	2.322554 
2523.000000	2.323365 
2522.000000	2.324080 
2521.000000	2.324676 
2520.000000	2.325177 
2519.000000	2.325558 
2518.000000	2.325844 
2517.000000	2.326107 
2516.000000	2.326369 
2515.000000	2.326679 
2514.000000	2.327036 
2513.000000	2.327489 
2512.000000	2.328062 
2511.000000	2.328729 
2510.000000	2.329444 
2509.000000	2.330183 
2508.000000	2.330899 
2507.000000	2.331495 
2506.000000	2.331995 
2505.000000	2.332353 
2504.000000	2.332568 
2503.000000	2.332687 
2502.000000	2.332711 
2501.000000	2.332735 
2500.000000	2.332782 
2499.000000	2.332925 
2498.000000	2.333140 
2497.000000	2.333426 
2496.000000	2.333736 
2495.000000	2.334094 
2494.000000	2.334403 
2493.000000	2.334666 
2492.000000	2.334809 
2491.000000	2.334785 
2490.000000	2.334690 
2489.000000	2.334475 
2488.000000	2.334141 
2487.000000	2.333736 
2486.000000	2.333331 
2485.000000	2.332854 
2484.000000	2.332377 
2483.000000	2.331924 
2482.000000	2.331471 
2481.000000	2.330970 
2480.000000	2.330517 
2479.000000	2.330064 
2478.000000	2.329587 
2477.000000	2.329158 
2476.000000	2.328705 
2475.000000	2.328300 
2474.000000	2.327871 
2473.000000	2.327489 
2472.000000	2.327084 
2471.000000	2.326560 
2470.000000	2.325940 
2469.000000	2.325153 
2468.000000	2.324128 
2467.000000	2.322959 
2466.000000	2.321672 
2465.000000	2.320337 
2464.000000	2.319049 
2463.000000	2.317833 
2462.000000	2.316761 
2461.000000	2.315926 
2460.000000	2.315163 
2459.000000	2.314543 
2458.000000	2.313923 
2457.000000	2.313256 
2456.000000	2.312445 
2455.000000	2.311515 
2454.000000	2.310419 
2453.000000	2.309203 
2452.000000	2.307891 
2451.000000	2.306485 
2450.000000	2.305126 
2449.000000	2.303791 
2448.000000	2.302598 
2447.000000	2.301549 
2446.000000	2.300620 
2445.000000	2.299857 
2444.000000	2.299165 
2443.000000	2.298474 
2442.000000	2.297782 
2441.000000	2.297019 
2440.000000	2.296113 
2439.000000	2.295041 
2438.000000	2.293848 
2437.000000	2.292561 
2436.000000	2.291178 
2435.000000	2.289772 
2434.000000	2.288413 
2433.000000	2.287125 
2432.000000	2.285885 
2431.000000	2.284765 
2430.000000	2.283763 
2429.000000	2.282881 
2428.000000	2.282166 
2427.000000	2.281498 
2426.000000	2.280950 
2425.000000	2.280426 
2424.000000	2.279877 
2423.000000	2.279329 
2422.000000	2.278685 
2421.000000	2.277946 
2420.000000	2.277135 
2419.000000	2.276182 
2418.000000	2.275133 
2417.000000	2.273964 
2416.000000	2.272748 
2415.000000	2.271485 
2414.000000	2.270197 
2413.000000	2.268934 
2412.000000	2.267694 
2411.000000	2.266573 
2410.000000	2.265572 
2409.000000	2.264690 
2408.000000	2.263951 
2407.000000	2.263402 
2406.000000	2.262997 
2405.000000	2.262663 
2404.000000	2.262449 
2403.000000	2.262330 
2402.000000	2.262234 
2401.000000	2.262163 
2400.000000	2.262043 
2399.000000	2.261853 
2398.000000	2.261590 
2397.000000	2.261233 
2396.000000	2.260756 
2395.000000	2.260255 
2394.000000	2.259659 
2393.000000	2.259087 
2392.000000	2.258563 
2391.000000	2.258086 
2390.000000	2.257704 
2389.000000	2.257370 
2388.000000	2.257061 
2387.000000	2.256798 
2386.000000	2.256488 
2385.000000	2.256107 
2384.000000	2.255678 
2383.000000	2.255153 
2382.000000	2.254533 
2381.000000	2.253842 
2380.000000	2.253055 
2379.000000	2.252197 
2378.000000	2.251243 
2377.000000	2.250242 
2376.000000	2.249145 
2375.000000	2.248001 
2374.000000	2.246856 
2373.000000	2.245688 
2372.000000	2.244567 
2371.000000	2.243471 
2370.000000	2.242469 
2369.000000	2.241563 
2368.000000	2.240800 
2367.000000	2.240180 
2366.000000	2.239775 
2365.000000	2.239608 
2364.000000	2.239680 
2363.000000	2.240085 
2362.000000	2.240848 
2361.000000	2.241921 
2360.000000	2.243375 
2359.000000	2.245092 
2358.000000	2.247071 
2357.000000	2.249264 
2356.000000	2.251601 
2355.000000	2.254104 
2354.000000	2.256631 
2353.000000	2.259135 
2352.000000	2.261519 
2351.000000	2.263760 
2350.000000	2.265691 
2349.000000	2.267289 
2348.000000	2.268505 
2347.000000	2.269339 
2346.000000	2.269864 
2345.000000	2.270174 
2344.000000	2.270388 
2343.000000	2.270627 
2342.000000	2.271056 
2341.000000	2.271676 
2340.000000	2.272534 
2339.000000	2.273631 
2338.000000	2.274942 
2337.000000	2.276396 
2336.000000	2.277946 
2335.000000	2.279591 
2334.000000	2.281308 
2333.000000	2.283048 
2332.000000	2.284884 
2331.000000	2.286791 
2330.000000	2.288794 
2329.000000	2.290844 
2328.000000	2.292919 
2327.000000	2.295041 
2326.000000	2.297091 
2325.000000	2.299118 
2324.000000	2.301144 
2323.000000	2.303171 
2322.000000	2.305173 
2321.000000	2.307200 
2320.000000	2.309250 
2319.000000	2.311301 
2318.000000	2.313399 
2317.000000	2.315425 
2316.000000	2.317404 
2315.000000	2.319335 
2314.000000	2.321195 
2313.000000	2.323007 
2312.000000	2.324771 
2311.000000	2.326488 
2310.000000	2.328181 
2309.000000	2.329802 
2308.000000	2.331423 
2307.000000	2.332973 
2306.000000	2.334547 
2305.000000	2.336096 
2304.000000	2.337646 
2303.000000	2.339243 
2302.000000	2.340888 
2301.000000	2.342557 
2300.000000	2.344226 
2299.000000	2.345919 
2298.000000	2.347540 
2297.000000	2.349233 
2296.000000	2.350878 
2295.000000	2.352571 
2294.000000	2.354240 
2293.000000	2.356004 
2292.000000	2.357745 
2291.000000	2.359485 
2290.000000	2.361154 
2289.000000	2.362656 
2288.000000	2.364039 
2287.000000	2.365183 
2286.000000	2.366113 
2285.000000	2.366852 
2284.000000	2.367520 
2283.000000	2.368092 
2282.000000	2.368640 
2281.000000	2.369236 
2280.000000	2.369880 
2279.000000	2.370572 
2278.000000	2.371358 
2277.000000	2.372193 
2276.000000	2.373027 
2275.000000	2.373862 
2274.000000	2.374720 
2273.000000	2.375531 
2272.000000	2.376317 
2271.000000	2.377152 
2270.000000	2.377986 
2269.000000	2.378821 
2268.000000	2.379655 
2267.000000	2.380561 
2266.000000	2.381420 
2265.000000	2.382254 
2264.000000	2.383041 
2263.000000	2.383756 
2262.000000	2.384352 
2261.000000	2.384829 
2260.000000	2.385210 
2259.000000	2.385497 
2258.000000	2.385735 
2257.000000	2.385902 
2256.000000	2.386021 
2255.000000	2.386093 
2254.000000	2.386116 
2253.000000	2.386093 
2252.000000	2.385997 
2251.000000	2.385902 
2250.000000	2.385735 
2249.000000	2.385592 
2248.000000	2.385473 
2247.000000	2.385401 
2246.000000	2.385449 
2245.000000	2.385544 
2244.000000	2.385759 
2243.000000	2.386045 
2242.000000	2.386307 
2241.000000	2.386569 
2240.000000	2.386713 
2239.000000	2.386713 
2238.000000	2.386522 
2237.000000	2.386188 
2236.000000	2.385687 
2235.000000	2.385139 
2234.000000	2.384567 
2233.000000	2.384018 
2232.000000	2.383565 
2231.000000	2.383255 
2230.000000	2.383017 
2229.000000	2.382898 
2228.000000	2.382850 
2227.000000	2.382850 
2226.000000	2.382826 
2225.000000	2.382755 
2224.000000	2.382588 
2223.000000	2.382254 
2222.000000	2.381801 
2221.000000	2.381205 
2220.000000	2.380418 
2219.000000	2.379536 
2218.000000	2.378606 
2217.000000	2.377676 
2216.000000	2.376699 
2215.000000	2.375793 
2214.000000	2.374935 
2213.000000	2.374124 
2212.000000	2.373337 
2211.000000	2.372598 
2210.000000	2.371835 
2209.000000	2.371096 
2208.000000	2.370381 
2207.000000	2.369642 
2206.000000	2.368879 
2205.000000	2.368116 
2204.000000	2.367353 
2203.000000	2.366638 
2202.000000	2.365970 
2201.000000	2.365326 
2200.000000	2.364706 
2199.000000	2.364110 
2198.000000	2.363514 
2197.000000	2.362895 
2196.000000	2.362275 
2195.000000	2.361631 
2194.000000	2.360963 
2193.000000	2.360320 
2192.000000	2.359676 
2191.000000	2.359008 
2190.000000	2.358341 
2189.000000	2.357649 
2188.000000	2.356863 
2187.000000	2.356004 
2186.000000	2.355027 
2185.000000	2.353930 
2184.000000	2.352738 
2183.000000	2.351570 
2182.000000	2.350425 
2181.000000	2.349400 
2180.000000	2.348494 
2179.000000	2.347731 
2178.000000	2.347135 
2177.000000	2.346634 
2176.000000	2.346181 
2175.000000	2.345752 
2174.000000	2.345252 
2173.000000	2.344703 
2172.000000	2.344131 
2171.000000	2.343559 
2170.000000	2.342987 
2169.000000	2.342534 
2168.000000	2.342104 
2167.000000	2.341818 
2166.000000	2.341532 
2165.000000	2.341294 
2164.000000	2.341055 
2163.000000	2.340793 
2162.000000	2.340483 
2161.000000	2.340197 
2160.000000	2.339816 
2159.000000	2.339482 
2158.000000	2.339148 
2157.000000	2.338838 
2156.000000	2.338552 
2155.000000	2.338314 
2154.000000	2.338123 
2153.000000	2.337956 
2152.000000	2.337861 
2151.000000	2.337741 
2150.000000	2.337646 
2149.000000	2.337551 
2148.000000	2.337431 
2147.000000	2.337336 
2146.000000	2.337265 
2145.000000	2.337217 
2144.000000	2.337241 
2143.000000	2.337265 
2142.000000	2.337336 
2141.000000	2.337455 
2140.000000	2.337622 
2139.000000	2.337837 
2138.000000	2.337980 
2137.000000	2.338099 
2136.000000	2.338123 
2135.000000	2.338075 
2134.000000	2.337980 
2133.000000	2.337861 
2132.000000	2.337789 
2131.000000	2.337765 
2130.000000	2.337908 
2129.000000	2.338218 
2128.000000	2.338624 
2127.000000	2.339100 
2126.000000	2.339601 
2125.000000	2.340054 
2124.000000	2.340459 
2123.000000	2.340769 
2122.000000	2.341008 
2121.000000	2.341198 
2120.000000	2.341437 
2119.000000	2.341723 
2118.000000	2.342081 
2117.000000	2.342581 
2116.000000	2.343130 
2115.000000	2.343702 
2114.000000	2.344274 
2113.000000	2.344799 
2112.000000	2.345228 
2111.000000	2.345561 
2110.000000	2.345800 
2109.000000	2.345943 
2108.000000	2.345991 
2107.000000	2.345967 
2106.000000	2.345919 
2105.000000	2.345800 
2104.000000	2.345633 
2103.000000	2.345466 
2102.000000	2.345228 
2101.000000	2.344989 
2100.000000	2.344703 
2099.000000	2.344417 
2098.000000	2.344131 
2097.000000	2.343869 
2096.000000	2.343630 
2095.000000	2.343487 
2094.000000	2.343440 
2093.000000	2.343487 
2092.000000	2.343678 
2091.000000	2.343988 
2090.000000	2.344393 
2089.000000	2.344822 
2088.000000	2.345275 
2087.000000	2.345705 
2086.000000	2.346134 
2085.000000	2.346587 
2084.000000	2.347087 
2083.000000	2.347683 
2082.000000	2.348423 
2081.000000	2.349328 
2080.000000	2.350425 
2079.000000	2.351713 
2078.000000	2.353143 
2077.000000	2.354693 
2076.000000	2.356314 
2075.000000	2.357912 
2074.000000	2.359557 
2073.000000	2.361226 
2072.000000	2.362895 
2071.000000	2.364635 
2070.000000	2.366399 
2069.000000	2.368211 
2068.000000	2.370071 
2067.000000	2.371978 
2066.000000	2.373957 
2065.000000	2.376008 
2064.000000	2.378129 
2063.000000	2.380323 
2062.000000	2.382612 
2061.000000	2.384972 
2060.000000	2.387428 
2059.000000	2.389907 
2058.000000	2.392411 
2057.000000	2.394866 
2056.000000	2.397274 
2055.000000	2.399563 
2054.000000	2.401781 
2053.000000	2.403831 
2052.000000	2.405834 
2051.000000	2.407765 
2050.000000	2.409648 
2049.000000	2.411580 
2048.000000	2.413511 
2047.000000	2.415513 
2046.000000	2.417540 
2045.000000	2.419590 
2044.000000	2.421665 
2043.000000	2.423667 
2042.000000	2.425575 
2041.000000	2.427387 
2040.000000	2.429103 
2039.000000	2.430677 
2038.000000	2.432131 
2037.000000	2.433466 
2036.000000	2.434730 
2035.000000	2.435970 
2034.000000	2.437162 
2033.000000	2.438330 
2032.000000	2.439498 
2031.000000	2.440738 
2030.000000	2.441954 
2029.000000	2.443218 
2028.000000	2.444410 
2027.000000	2.445602 
2026.000000	2.446675 
2025.000000	2.447581 
2024.000000	2.448368 
2023.000000	2.448940 
2022.000000	2.449393 
2021.000000	2.449750 
2020.000000	2.450084 
2019.000000	2.450489 
2018.000000	2.450966 
2017.000000	2.451539 
2016.000000	2.452278 
2015.000000	2.453136 
2014.000000	2.454113 
2013.000000	2.455163 
2012.000000	2.456235 
2011.000000	2.457308 
2010.000000	2.458310 
2009.000000	2.459239 
2008.000000	2.460050 
2007.000000	2.460694 
2006.000000	2.461218 
2005.000000	2.461624 
2004.000000	2.461957 
2003.000000	2.462196 
2002.000000	2.462363 
2001.000000	2.462506 
2000.000000	2.462601 
1999.000000	2.462601 
1998.000000	2.462553 
1997.000000	2.462387 
1996.000000	2.462053 
1995.000000	2.461600 
1994.000000	2.461075 
1993.000000	2.460503 
1992.000000	2.459907 
1991.000000	2.459406 
1990.000000	2.459001 
1989.000000	2.458691 
1988.000000	2.458500 
1987.000000	2.458333 
1986.000000	2.458143 
1985.000000	2.457880 
1984.000000	2.457523 
1983.000000	2.456998 
1982.000000	2.456355 
1981.000000	2.455592 
1980.000000	2.454710 
1979.000000	2.453756 
1978.000000	2.452754 
1977.000000	2.451682 
1976.000000	2.450537 
1975.000000	2.449369 
1974.000000	2.448129 
1973.000000	2.446889 
1972.000000	2.445650 
1971.000000	2.444481 
1970.000000	2.443408 
1969.000000	2.442431 
1968.000000	2.441549 
1967.000000	2.440738 
1966.000000	2.439951 
1965.000000	2.439284 
1964.000000	2.438616 
1963.000000	2.438020 
1962.000000	2.437424 
1961.000000	2.436876 
1960.000000	2.436304 
1959.000000	2.435755 
1958.000000	2.435183 
1957.000000	2.434539 
1956.000000	2.433848 
1955.000000	2.433085 
1954.000000	2.432250 
1953.000000	2.431368 
1952.000000	2.430438 
1951.000000	2.429509 
1950.000000	2.428579 
1949.000000	2.427673 
1948.000000	2.426815 
1947.000000	2.426004 
1946.000000	2.425241 
1945.000000	2.424526 
1944.000000	2.423906 
1943.000000	2.423310 
1942.000000	2.422714 
1941.000000	2.422118 
1940.000000	2.421474 
1939.000000	2.420735 
1938.000000	2.419853 
1937.000000	2.418875 
1936.000000	2.417850 
1935.000000	2.416729 
1934.000000	2.415537 
1933.000000	2.414393 
1932.000000	2.413296 
1931.000000	2.412223 
1930.000000	2.411150 
1929.000000	2.410078 
1928.000000	2.408957 
1927.000000	2.407717 
1926.000000	2.406382 
1925.000000	2.404856 
1924.000000	2.403306 
1923.000000	2.401685 
1922.000000	2.400112 
1921.000000	2.398633 
1920.000000	2.397322 
1919.000000	2.396225 
1918.000000	2.395343 
1917.000000	2.394676 
1916.000000	2.394175 
1915.000000	2.393698 
1914.000000	2.393221 
1913.000000	2.392625 
1912.000000	2.391886 
1911.000000	2.390956 
1910.000000	2.389836 
1909.000000	2.388620 
1908.000000	2.387285 
1907.000000	2.385950 
1906.000000	2.384614 
1905.000000	2.383351 
1904.000000	2.382206 
1903.000000	2.381157 
1902.000000	2.380228 
1901.000000	2.379417 
1900.000000	2.378678 
1899.000000	2.378058 
1898.000000	2.377486 
1897.000000	2.377033 
1896.000000	2.376651 
1895.000000	2.376317 
1894.000000	2.376079 
1893.000000	2.375912 
1892.000000	2.375793 
1891.000000	2.375769 
1890.000000	2.375841 
1889.000000	2.375984 
1888.000000	2.376198 
1887.000000	2.376484 
1886.000000	2.376794 
1885.000000	2.377104 
1884.000000	2.377390 
1883.000000	2.377653 
1882.000000	2.377867 
1881.000000	2.378058 
1880.000000	2.378249 
1879.000000	2.378463 
1878.000000	2.378678 
1877.000000	2.378940 
1876.000000	2.379202 
1875.000000	2.379441 
1874.000000	2.379727 
1873.000000	2.379989 
1872.000000	2.380299 
1871.000000	2.380728 
1870.000000	2.381300 
1869.000000	2.382063 
1868.000000	2.383041 
1867.000000	2.384257 
1866.000000	2.385616 
1865.000000	2.387094 
1864.000000	2.388644 
1863.000000	2.390098 
1862.000000	2.391481 
1861.000000	2.392721 
1860.000000	2.393770 
1859.000000	2.394652 
1858.000000	2.395391 
1857.000000	2.396011 
1856.000000	2.396488 
1855.000000	2.396869 
1854.000000	2.397155 
1853.000000	2.397322 
1852.000000	2.397370 
1851.000000	2.397274 
1850.000000	2.397060 
1849.000000	2.396821 
1848.000000	2.396583 
1847.000000	2.396488 
1846.000000	2.396631 
1845.000000	2.397108 
1844.000000	2.398014 
1843.000000	2.399301 
1842.000000	2.400898 
1841.000000	2.402734 
1840.000000	2.404618 
1839.000000	2.406406 
1838.000000	2.407932 
1837.000000	2.409124 
1836.000000	2.409839 
1835.000000	2.410197 
1834.000000	2.410316 
1833.000000	2.410268 
1832.000000	2.410197 
1831.000000	2.410221 
1830.000000	2.410507 
1829.000000	2.411055 
1828.000000	2.411913 
1827.000000	2.413010 
1826.000000	2.414369 
1825.000000	2.415871 
1824.000000	2.417445 
1823.000000	2.419018 
1822.000000	2.420544 
1821.000000	2.421927 
1820.000000	2.423191 
1819.000000	2.424311 
1818.000000	2.425289 
1817.000000	2.426123 
1816.000000	2.426910 
1815.000000	2.427601 
1814.000000	2.428293 
1813.000000	2.429008 
1812.000000	2.429771 
1811.000000	2.430486 
1810.000000	2.431178 
1809.000000	2.431726 
1808.000000	2.432155 
1807.000000	2.432441 
1806.000000	2.432584 
1805.000000	2.432608 
1804.000000	2.432584 
1803.000000	2.432513 
1802.000000	2.432513 
1801.000000	2.432465 
1800.000000	2.432417 
1799.000000	2.432274 
1798.000000	2.432012 
1797.000000	2.431654 
1796.000000	2.431201 
1795.000000	2.430748 
1794.000000	2.430319 
1793.000000	2.430033 
1792.000000	2.429986 
1791.000000	2.430152 
1790.000000	2.430486 
1789.000000	2.430963 
1788.000000	2.431488 
1787.000000	2.431941 
1786.000000	2.432298 
1785.000000	2.432513 
1784.000000	2.432560 
1783.000000	2.432370 
1782.000000	2.431917 
1781.000000	2.431178 
1780.000000	2.430033 
1779.000000	2.428507 
1778.000000	2.426624 
1777.000000	2.424454 
1776.000000	2.422142 
1775.000000	2.419900 
1774.000000	2.417945 
1773.000000	2.416515 
1772.000000	2.415680 
1771.000000	2.415418 
1770.000000	2.415657 
1769.000000	2.416181 
1768.000000	2.416801 
1767.000000	2.417254 
1766.000000	2.417445 
1765.000000	2.417230 
1764.000000	2.416658 
1763.000000	2.415728 
1762.000000	2.414536 
1761.000000	2.413153 
1760.000000	2.411532 
1759.000000	2.409696 
1758.000000	2.407550 
1757.000000	2.405118 
1756.000000	2.402377 
1755.000000	2.399349 
1754.000000	2.396154 
1753.000000	2.392911 
1752.000000	2.389717 
1751.000000	2.386689 
1750.000000	2.383828 
1749.000000	2.381205 
1748.000000	2.378630 
1747.000000	2.376055 
1746.000000	2.373337 
1745.000000	2.370309 
1744.000000	2.366924 
1743.000000	2.363085 
1742.000000	2.358770 
1741.000000	2.354025 
1740.000000	2.348971 
1739.000000	2.343869 
1738.000000	2.338886 
1737.000000	2.334356 
1736.000000	2.330493 
1735.000000	2.327537 
1734.000000	2.325677 
1733.000000	2.324843 
1732.000000	2.324914 
1731.000000	2.325701 
1730.000000	2.326941 
1729.000000	2.328205 
1728.000000	2.329182 
1727.000000	2.329587 
1726.000000	2.329158 
1725.000000	2.327847 
1724.000000	2.325582 
1723.000000	2.322554 
1722.000000	2.318954 
1721.000000	2.315068 
1720.000000	2.311253 
1719.000000	2.307844 
1718.000000	2.305078 
1717.000000	2.303171 
1716.000000	2.302145 
1715.000000	2.301883 
1714.000000	2.302145 
1713.000000	2.302551 
1712.000000	2.302718 
1711.000000	2.302360 
1710.000000	2.301192 
1709.000000	2.299094 
1708.000000	2.296042 
1707.000000	2.292060 
1706.000000	2.287316 
1705.000000	2.282071 
1704.000000	2.276539 
1703.000000	2.271080 
1702.000000	2.265954 
1701.000000	2.261400 
1700.000000	2.257823 
1699.000000	2.255415 
1698.000000	2.254223 
1697.000000	2.254247 
1696.000000	2.255249 
1695.000000	2.256846 
1694.000000	2.258515 
1693.000000	2.259778 
1692.000000	2.260160 
1691.000000	2.259445 
1690.000000	2.257513 
1689.000000	2.254581 
1688.000000	2.251052 
1687.000000	2.247405 
1686.000000	2.244186 
1685.000000	2.241730 
1684.000000	2.240324 
1683.000000	2.239894 
1682.000000	2.240180 
1681.000000	2.240848 
1680.000000	2.241492 
1679.000000	2.241754 
1678.000000	2.241396 
1677.000000	2.240300 
1676.000000	2.238607 
1675.000000	2.236533 
1674.000000	2.234196 
1673.000000	2.231884 
1672.000000	2.229666 
1671.000000	2.227616 
1670.000000	2.225708 
1669.000000	2.223920 
1668.000000	2.222204 
1667.000000	2.220535 
1666.000000	2.218866 
1665.000000	2.217149 
1664.000000	2.215290 
1663.000000	2.213096 
1662.000000	2.210450 
1661.000000	2.207064 
1660.000000	2.202820 
1659.000000	2.197694 
1658.000000	2.191781 
1657.000000	2.185392 
1656.000000	2.178955 
1655.000000	2.172970 
1654.000000	2.167868 
1653.000000	2.163982 
1652.000000	2.161431 
1651.000000	2.160191 
1650.000000	2.160072 
1649.000000	2.160763 
1648.000000	2.161884 
1647.000000	2.163100 
1646.000000	2.164125 
1645.000000	2.164673 
1644.000000	2.164554 
1643.000000	2.163624 
1642.000000	2.161860 
1641.000000	2.159333 
1640.000000	2.156186 
1639.000000	2.152681 
1638.000000	2.149033 
1637.000000	2.145576 
1636.000000	2.142548 
1635.000000	2.140021 
1634.000000	2.138018 
1633.000000	2.136397 
1632.000000	2.134871 
1631.000000	2.133250 
1630.000000	2.131223 
1629.000000	2.128696 
1628.000000	2.125597 
1627.000000	2.121853 
1626.000000	2.117466 
1625.000000	2.112531 
1624.000000	2.107000 
1623.000000	2.100801 
1622.000000	2.093982 
1621.000000	2.086448 
1620.000000	2.078270 
1619.000000	2.069401 
1618.000000	2.059936 
1617.000000	2.049994 
1616.000000	2.039742 
1615.000000	2.029323 
1614.000000	2.018976 
1613.000000	2.008962 
1612.000000	1.999521 
1611.000000	1.991057 
1610.000000	1.983880 
1609.000000	1.978278 
1608.000000	1.974534 
1607.000000	1.972699 
1606.000000	1.972723 
1605.000000	1.974487 
1604.000000	1.977610 
1603.000000	1.981782 
1602.000000	1.986527 
1601.000000	1.991534 
1600.000000	1.996493 
1599.000000	2.001190 
1598.000000	2.005457 
1597.000000	2.009272 
1596.000000	2.012491 
1595.000000	2.015161 
1594.000000	2.017188 
1593.000000	2.018594 
1592.000000	2.019405 
1591.000000	2.019643 
1590.000000	2.019357 
1589.000000	2.018666 
1588.000000	2.017521 
1587.000000	2.016043 
1586.000000	2.014207 
1585.000000	2.012062 
1584.000000	2.009487 
1583.000000	2.006602 
1582.000000	2.003455 
1581.000000	2.000141 
1580.000000	1.996827 
1579.000000	1.993680 
1578.000000	1.990890 
1577.000000	1.988554 
1576.000000	1.986789 
1575.000000	1.985573 
1574.000000	1.984810 
1573.000000	1.984381 
1572.000000	1.984071 
1571.000000	1.983690 
1570.000000	1.982903 
1569.000000	1.981401 
1568.000000	1.978945 
1567.000000	1.975345 
1566.000000	1.970529 
1565.000000	1.964616 
1564.000000	1.957750 
1563.000000	1.950526 
1562.000000	1.943469 
1561.000000	1.937270 
1560.000000	1.932477 
1559.000000	1.929664 
1558.000000	1.929044 
1557.000000	1.930546 
1556.000000	1.933836 
1555.000000	1.938414 
1554.000000	1.943612 
1553.000000	1.948738 
1552.000000	1.953268 
1551.000000	1.956772 
1550.000000	1.959037 
1549.000000	1.960015 
1548.000000	1.959919 
1547.000000	1.959085 
1546.000000	1.958012 
1545.000000	1.957297 
1544.000000	1.957583 
1543.000000	1.959514 
1542.000000	1.963543 
1541.000000	1.969957 
1540.000000	1.978826 
1539.000000	1.989912 
1538.000000	2.002787 
1537.000000	2.016854 
1536.000000	2.031350 
1535.000000	2.045607 
1534.000000	2.059030 
1533.000000	2.071142 
1532.000000	2.081584 
1531.000000	2.090263 
1530.000000	2.097272 
1529.000000	2.102589 
1528.000000	2.106356 
1527.000000	2.108883 
1526.000000	2.110385 
1525.000000	2.111029 
1524.000000	2.111101 
1523.000000	2.110791 
1522.000000	2.110266 
1521.000000	2.109622 
1520.000000	2.108955 
1519.000000	2.108097 
1518.000000	2.107167 
1517.000000	2.105951 
1516.000000	2.104353 
1515.000000	2.102160 
1514.000000	2.099275 
1513.000000	2.095603 
1512.000000	2.091169 
1511.000000	2.085757 
1510.000000	2.079439 
1509.000000	2.071905 
1508.000000	2.062797 
1507.000000	2.051377 
1506.000000	2.036929 
1505.000000	2.018451 
1504.000000	1.995182 
1503.000000	1.966547 
1502.000000	1.932549 
1501.000000	1.893877 
1500.000000	1.851987 
1499.000000	1.809120 
1498.000000	1.767921 
1497.000000	1.731181 
1496.000000	1.701688 
1495.000000	1.681423 
1494.000000	1.671624 
1493.000000	1.672458 
1492.000000	1.683354 
1491.000000	1.702666 
1490.000000	1.728415 
1489.000000	1.758217 
1488.000000	1.789999 
1487.000000	1.821684 
1486.000000	1.851701 
1485.000000	1.878809 
1484.000000	1.902437 
1483.000000	1.922297 
1482.000000	1.938247 
1481.000000	1.950621 
1480.000000	1.959657 
1479.000000	1.965975 
1478.000000	1.970148 
1477.000000	1.972651 
1476.000000	1.973962 
1475.000000	1.974487 
1474.000000	1.974558 
1473.000000	1.974201 
1472.000000	1.973462 
1471.000000	1.972270 
1470.000000	1.970529 
1469.000000	1.967954 
1468.000000	1.964378 
1467.000000	1.959609 
1466.000000	1.953554 
1465.000000	1.945805 
1464.000000	1.936316 
1463.000000	1.924872 
1462.000000	1.911497 
1461.000000	1.896190 
1460.000000	1.879072 
1459.000000	1.860618 
1458.000000	1.841425 
1457.000000	1.822400 
1456.000000	1.804375 
1455.000000	1.788401 
1454.000000	1.775431 
1453.000000	1.766371 
1452.000000	1.761674 
1451.000000	1.761484 
1450.000000	1.765656 
1449.000000	1.773619 
1448.000000	1.784420 
1447.000000	1.796960 
1446.000000	1.810050 
1445.000000	1.822662 
1444.000000	1.833891 
1443.000000	1.843190 
1442.000000	1.850390 
1441.000000	1.855587 
1440.000000	1.859068 
1439.000000	1.861310 
1438.000000	1.862788 
1437.000000	1.863861 
1436.000000	1.864862 
1435.000000	1.865863 
1434.000000	1.866865 
1433.000000	1.867890 
1432.000000	1.868820 
1431.000000	1.869583 
1430.000000	1.870036 
1429.000000	1.870179 
1428.000000	1.870012 
1427.000000	1.869511 
1426.000000	1.868605 
1425.000000	1.867318 
1424.000000	1.865696 
1423.000000	1.863765 
1422.000000	1.861548 
1421.000000	1.859164 
1420.000000	1.856637 
1419.000000	1.853919 
1418.000000	1.850986 
1417.000000	1.847696 
1416.000000	1.843762 
1415.000000	1.838970 
1414.000000	1.832962 
1413.000000	1.825499 
1412.000000	1.816391 
1411.000000	1.805782 
1410.000000	1.793885 
1409.000000	1.781177 
1408.000000	1.768279 
1407.000000	1.755928 
1406.000000	1.744914 
1405.000000	1.735949 
1404.000000	1.729559 
1403.000000	1.726126 
1402.000000	1.725625 
1401.000000	1.727986 
1400.000000	1.732730 
1399.000000	1.739430 
1398.000000	1.747441 
1397.000000	1.756119 
1396.000000	1.764822 
1395.000000	1.772999 
1394.000000	1.780152 
1393.000000	1.785850 
1392.000000	1.789832 
1391.000000	1.792073 
1390.000000	1.792693 
1389.000000	1.791977 
1388.000000	1.790356 
1387.000000	1.788473 
1386.000000	1.786851 
1385.000000	1.786041 
1384.000000	1.786351 
1383.000000	1.787805 
1382.000000	1.790356 
1381.000000	1.793718 
1380.000000	1.797461 
1379.000000	1.801133 
1378.000000	1.804542 
1377.000000	1.807379 
1376.000000	1.809644 
1375.000000	1.811242 
1374.000000	1.812434 
1373.000000	1.813292 
1372.000000	1.813960 
1371.000000	1.814532 
1370.000000	1.815056 
1369.000000	1.815509 
1368.000000	1.815891 
1367.000000	1.816177 
1366.000000	1.816368 
1365.000000	1.816463 
1364.000000	1.816511 
1363.000000	1.816511 
1362.000000	1.816487 
1361.000000	1.816439 
1360.000000	1.816344 
1359.000000	1.816201 
1358.000000	1.816034 
1357.000000	1.815724 
1356.000000	1.815390 
1355.000000	1.814961 
1354.000000	1.814484 
1353.000000	1.814007 
1352.000000	1.813578 
1351.000000	1.813173 
1350.000000	1.812815 
1349.000000	1.812529 
1348.000000	1.812314 
1347.000000	1.812148 
1346.000000	1.812028 
1345.000000	1.812028 
1344.000000	1.812195 
1343.000000	1.812624 
1342.000000	1.813340 
1341.000000	1.814460 
1340.000000	1.816058 
1339.000000	1.818060 
1338.000000	1.820540 
1337.000000	1.823401 
1336.000000	1.826524 
1335.000000	1.829791 
1334.000000	1.833081 
1333.000000	1.836299 
1332.000000	1.839351 
1331.000000	1.842117 
1330.000000	1.844525 
1329.000000	1.846647 
1328.000000	1.848435 
1327.000000	1.849913 
1326.000000	1.851081 
1325.000000	1.852083 
1324.000000	1.852941 
1323.000000	1.853632 
1322.000000	1.854228 
1321.000000	1.854753 
1320.000000	1.855182 
1319.000000	1.855540 
1318.000000	1.855731 
1317.000000	1.855802 
1316.000000	1.855731 
1315.000000	1.855540 
1314.000000	1.855301 
1313.000000	1.855015 
1312.000000	1.854777 
1311.000000	1.854586 
1310.000000	1.854538 
1309.000000	1.854610 
1308.000000	1.854705 
1307.000000	1.854848 
1306.000000	1.855039 
1305.000000	1.855206 
1304.000000	1.855349 
1303.000000	1.855468 
1302.000000	1.855611 
1301.000000	1.855778 
1300.000000	1.855993 
1299.000000	1.856255 
1298.000000	1.856541 
1297.000000	1.856803 
1296.000000	1.856994 
1295.000000	1.857089 
1294.000000	1.857066 
1293.000000	1.856899 
1292.000000	1.856589 
1291.000000	1.856160 
1290.000000	1.855707 
1289.000000	1.855206 
1288.000000	1.854705 
1287.000000	1.854157 
1286.000000	1.853537 
1285.000000	1.852846 
1284.000000	1.851987 
1283.000000	1.850914 
1282.000000	1.849627 
1281.000000	1.847982 
1280.000000	1.845932 
1279.000000	1.843428 
1278.000000	1.840329 
1277.000000	1.836538 
1276.000000	1.831960 
1275.000000	1.826477 
1274.000000	1.820015 
1273.000000	1.812481 
1272.000000	1.803851 
1271.000000	1.794171 
1270.000000	1.783609 
1269.000000	1.772379 
1268.000000	1.760911 
1267.000000	1.749610 
1266.000000	1.739096 
1265.000000	1.729965 
1264.000000	1.722836 
1263.000000	1.718211 
1262.000000	1.716446 
1261.000000	1.717710 
1260.000000	1.721906 
1259.000000	1.728749 
1258.000000	1.737689 
1257.000000	1.748108 
1256.000000	1.759290 
1255.000000	1.770567 
1254.000000	1.781368 
1253.000000	1.791286 
1252.000000	1.800036 
1251.000000	1.807522 
1250.000000	1.813793 
1249.000000	1.818871 
1248.000000	1.823043 
1247.000000	1.826381 
1246.000000	1.829051 
1245.000000	1.831078 
1244.000000	1.832580 
1243.000000	1.833653 
1242.000000	1.834273 
1241.000000	1.834535 
1240.000000	1.834535 
1239.000000	1.834249 
1238.000000	1.833868 
1237.000000	1.833319 
1236.000000	1.832723 
1235.000000	1.832056 
1234.000000	1.831316 
1233.000000	1.830458 
1232.000000	1.829481 
1231.000000	1.828312 
1230.000000	1.826930 
1229.000000	1.825308 
1228.000000	1.823449 
1227.000000	1.821327 
1226.000000	1.818966 
1225.000000	1.816344 
1224.000000	1.813435 
1223.000000	1.810288 
1222.000000	1.806926 
1221.000000	1.803302 
1220.000000	1.799392 
1219.000000	1.795244 
1218.000000	1.790857 
1217.000000	1.786303 
1216.000000	1.781606 
1215.000000	1.776790 
1214.000000	1.772022 
1213.000000	1.767420 
1212.000000	1.763057 
1211.000000	1.759076 
1210.000000	1.755523 
1209.000000	1.752543 
1208.000000	1.750063 
1207.000000	1.748132 
1206.000000	1.746654 
1205.000000	1.745557 
1204.000000	1.744794 
1203.000000	1.744198 
1202.000000	1.743793 
1201.000000	1.743459 
1200.000000	1.743125 
1199.000000	1.742768 
1198.000000	1.742362 
1197.000000	1.741862 
1196.000000	1.741242 
1195.000000	1.740479 
1194.000000	1.739645 
1193.000000	1.738619 
1192.000000	1.737451 
1191.000000	1.736116 
1190.000000	1.734590 
1189.000000	1.732826 
1188.000000	1.730847 
1187.000000	1.728653 
1186.000000	1.726198 
1185.000000	1.723575 
1184.000000	1.720857 
1183.000000	1.718068 
1182.000000	1.715278 
1181.000000	1.712465 
1180.000000	1.709675 
1179.000000	1.706910 
1178.000000	1.704144 
1177.000000	1.701283 
1176.000000	1.698303 
1175.000000	1.695132 
1174.000000	1.691746 
1173.000000	1.688075 
1172.000000	1.684165 
1171.000000	1.680016 
1170.000000	1.675653 
1169.000000	1.671147 
1168.000000	1.666498 
1167.000000	1.661801 
1166.000000	1.657009 
1165.000000	1.652216 
1164.000000	1.647424 
1163.000000	1.642704 
1162.000000	1.638126 
1161.000000	1.633763 
1160.000000	1.629662 
1159.000000	1.625919 
1158.000000	1.622533 
1157.000000	1.619577 
1156.000000	1.617026 
1155.000000	1.614832 
1154.000000	1.613044 
1153.000000	1.611542 
1152.000000	1.610302 
1151.000000	1.609158 
1150.000000	1.608037 
1149.000000	1.606845 
1148.000000	1.605463 
1147.000000	1.603865 
1146.000000	1.602053 
1145.000000	1.600050 
1144.000000	1.597881 
1143.000000	1.595544 
1142.000000	1.593089 
1141.000000	1.590514 
1140.000000	1.587867 
1139.000000	1.585102 
1138.000000	1.582169 
1137.000000	1.579022 
1136.000000	1.575660 
1135.000000	1.572036 
1134.000000	1.568150 
1133.000000	1.564002 
1132.000000	1.559638 
1131.000000	1.555013 
1130.000000	1.550197 
1129.000000	1.545166 
1128.000000	1.540017 
1127.000000	1.534771 
1126.000000	1.529455 
1125.000000	1.524138 
1124.000000	1.518750 
1123.000000	1.513409 
1122.000000	1.508092 
1121.000000	1.502823 
1120.000000	1.497650 
1119.000000	1.492476 
1118.000000	1.487398 
1117.000000	1.482391 
1116.000000	1.477479 
1115.000000	1.472687 
1114.000000	1.467990 
1113.000000	1.463317 
1112.000000	1.458764 
1111.000000	1.454329 
1110.000000	1.450061 
1109.000000	1.445984 
1108.000000	1.442217 
1107.000000	1.438808 
1106.000000	1.435804 
1105.000000	1.433205 
1104.000000	1.431107 
1103.000000	1.429367 
1102.000000	1.427984 
1101.000000	1.426887 
1100.000000	1.425981 
1099.000000	1.425147 
1098.000000	1.424431 
1097.000000	1.423811 
1096.000000	1.423335 
1095.000000	1.423001 
1094.000000	1.422882 
1093.000000	1.423001 
1092.000000	1.423358 
1091.000000	1.423954 
1090.000000	1.424670 
1089.000000	1.425457 
1088.000000	1.426219 
1087.000000	1.426935 
1086.000000	1.427507 
1085.000000	1.427865 
1084.000000	1.427960 
1083.000000	1.427912 
1082.000000	1.427721 
1081.000000	1.427435 
1080.000000	1.427197 
1079.000000	1.427054 
1078.000000	1.427125 
1077.000000	1.427435 
1076.000000	1.428103 
1075.000000	1.429057 
1074.000000	1.430296 
1073.000000	1.431751 
1072.000000	1.433372 
1071.000000	1.435017 
1070.000000	1.436591 
1069.000000	1.438021 
1068.000000	1.439189 
1067.000000	1.439976 
1066.000000	1.440358 
1065.000000	1.440119 
1064.000000	1.439070 
1063.000000	1.437067 
1062.000000	1.433682 
1061.000000	1.428580 
1060.000000	1.421427 
1059.000000	1.411914 
1058.000000	1.399946 
1057.000000	1.385807 
1056.000000	1.369953 
1055.000000	1.353406 
1054.000000	1.337194 
1053.000000	1.322603 
1052.000000	1.310992 
1051.000000	1.303243 
1050.000000	1.300024 
1049.000000	1.301407 
1048.000000	1.307010 
1047.000000	1.315951 
1046.000000	1.327085 
1045.000000	1.339101 
1044.000000	1.350879 
1043.000000	1.361393 
1042.000000	1.370120 
1041.000000	1.376676 
1040.000000	1.381134 
1039.000000	1.383733 
1038.000000	1.384830 
1037.000000	1.384735 
1036.000000	1.383829 
1035.000000	1.382422 
1034.000000	1.380658 
1033.000000	1.378607 
1032.000000	1.376438 
1031.000000	1.374197 
1030.000000	1.371908 
1029.000000	1.369643 
1028.000000	1.367402 
1027.000000	1.365399 
1026.000000	1.363563 
1025.000000	1.362013 
1024.000000	1.360821 
1023.000000	1.360058 
1022.000000	1.359629 
1021.000000	1.359677 
1020.000000	1.360154 
1019.000000	1.361083 
1018.000000	1.362442 
1017.000000	1.364231 
1016.000000	1.366376 
1015.000000	1.368832 
1014.000000	1.371455 
1013.000000	1.374268 
1012.000000	1.377153 
1011.000000	1.379942 
1010.000000	1.382613 
1009.000000	1.385116 
1008.000000	1.387333 
1007.000000	1.389360 
1006.000000	1.391100 
1005.000000	1.392626 
1004.000000	1.393961 
1003.000000	1.395082 
1002.000000	1.396036 
1001.000000	1.396846 
1000.000000	1.397466 
999.000000	 1.397943 
998.000000	 1.398253 
997.000000	 1.398348 
996.000000	 1.398205 
995.000000	 1.397824 
994.000000	 1.397180 
993.000000	 1.396298 
992.000000	 1.395201 
991.000000	 1.393914 
990.000000	 1.392507 
989.000000	 1.390957 
988.000000	 1.389336 
987.000000	 1.387643 
986.000000	 1.385951 
985.000000	 1.384258 
984.000000	 1.382541 
983.000000	 1.380801 
982.000000	 1.379060 
981.000000	 1.377272 
980.000000	 1.375365 
979.000000	 1.373386 
978.000000	 1.371288 
977.000000	 1.369023 
976.000000	 1.366591 
975.000000	 1.363921 
974.000000	 1.361155 
973.000000	 1.358151 
972.000000	 1.354980 
971.000000	 1.351690 
970.000000	 1.348328 
969.000000	 1.344847 
968.000000	 1.341366 
967.000000	 1.337838 
966.000000	 1.334309 
965.000000	 1.330780 
964.000000	 1.327252 
963.000000	 1.323723 
962.000000	 1.320195 
961.000000	 1.316690 
960.000000	 1.313185 
959.000000	 1.309704 
958.000000	 1.306247 
957.000000	 1.302766 
956.000000	 1.299309 
955.000000	 1.295852 
954.000000	 1.292419 
953.000000	 1.289010 
952.000000	 1.285719 
951.000000	 1.282572 
950.000000	 1.279592 
949.000000	 1.276779 
948.000000	 1.274180 
947.000000	 1.271724 
946.000000	 1.269435 
945.000000	 1.267266 
944.000000	 1.265215 
943.000000	 1.263284 
942.000000	 1.261401 
941.000000	 1.259565 
940.000000	 1.257753 
939.000000	 1.255989 
938.000000	 1.254224 
937.000000	 1.252460 
936.000000	 1.250672 
935.000000	 1.248788 
934.000000	 1.246833 
933.000000	 1.244759 
932.000000	 1.242566 
931.000000	 1.240277 
930.000000	 1.237940 
929.000000	 1.235580 
928.000000	 1.233243 
927.000000	 1.231026 
926.000000	 1.228857 
925.000000	 1.226830 
924.000000	 1.224875 
923.000000	 1.222968 
922.000000	 1.221013 
921.000000	 1.218891 
920.000000	 1.216578 
919.000000	 1.213932 
918.000000	 1.210927 
917.000000	 1.207494 
916.000000	 1.203680 
915.000000	 1.199483 
914.000000	 1.195049 
913.000000	 1.190495 
912.000000	 1.185965 
911.000000	 1.181578 
910.000000	 1.177477 
909.000000	 1.173734 
908.000000	 1.170396 
907.000000	 1.167464 
906.000000	 1.164889 
905.000000	 1.162576 
904.000000	 1.160526 
903.000000	 1.158595 
902.000000	 1.156783 
901.000000	 1.154994 
900.000000	 1.153230 
899.000000	 1.151609 
898.000000	 1.149940 
897.000000	 1.148319 
896.000000	 1.146626 
895.000000	 1.144862 
894.000000	 1.142859 
893.000000	 1.140499 
892.000000	 1.137661 
891.000000	 1.134228 
890.000000	 1.130056 
889.000000	 1.125049 
888.000000	 1.119184 
887.000000	 1.112437 
886.000000	 1.104831 
885.000000	 1.096367 
884.000000	 1.087331 
883.000000	 1.077866 
882.000000	 1.068282 
881.000000	 1.058936 
880.000000	 1.050162 
879.000000	 1.042366 
878.000000	 1.035928 
877.000000	 1.031136 
876.000000	 1.028180 
875.000000	 1.027154 
874.000000	 1.028108 
873.000000	 1.030778 
872.000000	 1.035022 
871.000000	 1.040458 
870.000000	 1.046681 
869.000000	 1.053333 
868.000000	 1.060032 
867.000000	 1.066470 
866.000000	 1.072382 
865.000000	 1.077580 
864.000000	 1.081991 
863.000000	 1.085638 
862.000000	 1.088452 
861.000000	 1.090526 
860.000000	 1.091909 
859.000000	 1.092743 
858.000000	 1.093077 
857.000000	 1.092982 
856.000000	 1.092529 
855.000000	 1.091814 
854.000000	 1.090836 
853.000000	 1.089715 
852.000000	 1.088452 
851.000000	 1.087117 
850.000000	 1.085710 
849.000000	 1.084303 
848.000000	 1.082873 
847.000000	 1.081371 
846.000000	 1.079750 
845.000000	 1.077961 
844.000000	 1.075839 
843.000000	 1.073241 
842.000000	 1.070070 
841.000000	 1.066112 
840.000000	 1.061105 
839.000000	 1.054930 
838.000000	 1.047301 
837.000000	 1.038002 
836.000000	 1.026844 
835.000000	 1.013731 
834.000000	 0.998568 
833.000000	 0.981497 
832.000000	 0.962805 
831.000000	 0.943040 
830.000000	 0.922894 
829.000000	 0.903248 
828.000000	 0.885176 
827.000000	 0.869703 
826.000000	 0.857686 
825.000000	 0.849795 
824.000000	 0.846362 
823.000000	 0.847387 
822.000000	 0.852370 
821.000000	 0.860643 
820.000000	 0.871253 
819.000000	 0.883150 
818.000000	 0.895357 
817.000000	 0.907015 
816.000000	 0.917458 
815.000000	 0.926375 
814.000000	 0.933527 
813.000000	 0.938916 
812.000000	 0.942754 
811.000000	 0.945234 
810.000000	 0.946688 
809.000000	 0.947260 
808.000000	 0.947237 
807.000000	 0.946879 
806.000000	 0.946331 
805.000000	 0.945687 
804.000000	 0.945115 
803.000000	 0.944757 
802.000000	 0.944614 
801.000000	 0.944757 
800.000000	 0.945281 
799.000000	 0.946116 
798.000000	 0.947284 
797.000000	 0.948739 
796.000000	 0.950503 
795.000000	 0.952529 
794.000000	 0.954771 
793.000000	 0.957250 
792.000000	 0.959849 
791.000000	 0.962567 
790.000000	 0.965309 
789.000000	 0.968050 
788.000000	 0.970625 
787.000000	 0.973010 
786.000000	 0.975108 
785.000000	 0.976943 
784.000000	 0.978398 
783.000000	 0.979447 
782.000000	 0.980114 
781.000000	 0.980472 
780.000000	 0.980448 
779.000000	 0.980186 
778.000000	 0.979685 
777.000000	 0.979042 
776.000000	 0.978255 
775.000000	 0.977396 
774.000000	 0.976538 
773.000000	 0.975680 
772.000000	 0.974822 
771.000000	 0.973963 
770.000000	 0.973105 
769.000000	 0.972247 
768.000000	 0.971341 
767.000000	 0.970387 
766.000000	 0.969457 
765.000000	 0.968456 
764.000000	 0.967431 
763.000000	 0.966382 
762.000000	 0.965332 
761.000000	 0.964260 
760.000000	 0.963163 
759.000000	 0.962066 
758.000000	 0.960993 
757.000000	 0.959849 
756.000000	 0.958681 
755.000000	 0.957512 
754.000000	 0.956296 
753.000000	 0.955057 
752.000000	 0.953745 
751.000000	 0.952410 
750.000000	 0.951051 
749.000000	 0.949597 
748.000000	 0.948095 
747.000000	 0.946545 
746.000000	 0.944900 
745.000000	 0.943207 
744.000000	 0.941443 
743.000000	 0.939607 
742.000000	 0.937676 
741.000000	 0.935697 
740.000000	 0.933647 
739.000000	 0.931501 
738.000000	 0.929331 
737.000000	 0.927019 
736.000000	 0.924563 
735.000000	 0.922036 
734.000000	 0.919318 
733.000000	 0.916504 
732.000000	 0.913548 
731.000000	 0.910496 
730.000000	 0.907373 
729.000000	 0.904226 
728.000000	 0.901150 
727.000000	 0.898122 
726.000000	 0.895214 
725.000000	 0.892376 
724.000000	 0.889635 
723.000000	 0.886917 
722.000000	 0.884222 
721.000000	 0.881433 
720.000000	 0.878620 
719.000000	 0.875711 
718.000000	 0.872755 
717.000000	 0.869774 
716.000000	 0.866794 
715.000000	 0.863885 
714.000000	 0.861024 
713.000000	 0.858211 
712.000000	 0.855422 
711.000000	 0.852656 
710.000000	 0.849914 
709.000000	 0.847101 
708.000000	 0.844168 
707.000000	 0.841116 
706.000000	 0.837826 
705.000000	 0.834393 
704.000000	 0.830626 
703.000000	 0.826621 
702.000000	 0.822377 
701.000000	 0.817847 
700.000000	 0.813078 
699.000000	 0.807976 
698.000000	 0.802516 
697.000000	 0.796580 
696.000000	 0.790143 
695.000000	 0.783157 
694.000000	 0.775671 
693.000000	 0.767850 
692.000000	 0.759935 
691.000000	 0.752305 
690.000000	 0.745320 
689.000000	 0.739312 
688.000000	 0.734519 
687.000000	 0.731182 
686.000000	 0.729274 
685.000000	 0.728583 
684.000000	 0.728869 
683.000000	 0.729799 
682.000000	 0.730991 
681.000000	 0.732135 
680.000000	 0.732946 
679.000000	 0.733351 
678.000000	 0.733256 
677.000000	 0.732684 
676.000000	 0.731635 
675.000000	 0.730204 
674.000000	 0.728464 
673.000000	 0.726532 
672.000000	 0.724411 
671.000000	 0.722193 
670.000000	 0.719928 
669.000000	 0.717616 
668.000000	 0.715327 
667.000000	 0.712990 
666.000000	 0.710678 
665.000000	 0.708365 
664.000000	 0.706028 
663.000000	 0.703668 
662.000000	 0.701260 
661.000000	 0.698781 
660.000000	 0.696277 
659.000000	 0.693702 
658.000000	 0.691127 
657.000000	 0.688576 
656.000000	 0.686025 
655.000000	 0.683474 
654.000000	 0.680899 
653.000000	 0.678300 
652.000000	 0.675702 
651.000000	 0.673103 
650.000000	 0.670433 
649.000000	 0.667715 
648.000000	 0.664973 
647.000000	 0.662207 
646.000000	 0.659394 
645.000000	 0.656604 
644.000000	 0.653791 
643.000000	 0.651025 
642.000000	 0.648307 
641.000000	 0.645637 
640.000000	 0.642991 
639.000000	 0.640416 
638.000000	 0.637888 
637.000000	 0.635361 
636.000000	 0.632882 
635.000000	 0.630426 
634.000000	 0.627946 
633.000000	 0.625443 
632.000000	 0.622916 
631.000000	 0.620341 
630.000000	 0.617718 
629.000000	 0.615072 
628.000000	 0.612354 
627.000000	 0.609588 
626.000000	 0.606799 
625.000000	 0.603985 
624.000000	 0.601148 
623.000000	 0.598335 
622.000000	 0.595498 
621.000000	 0.592684 
620.000000	 0.589776 
619.000000	 0.586795 
618.000000	 0.583624 
617.000000	 0.580191 
616.000000	 0.576448 
615.000000	 0.572371 
614.000000	 0.567841 
613.000000	 0.562977 
612.000000	 0.557732 
611.000000	 0.552248 
610.000000	 0.546741 
609.000000	 0.541424 
608.000000	 0.536441 
607.000000	 0.532054 
606.000000	 0.528454 
605.000000	 0.525712 
604.000000	 0.523853 
603.000000	 0.522851 
602.000000	 0.522494 
601.000000	 0.522613 
600.000000	 0.522971 
599.000000	 0.523328 
598.000000	 0.523495 
597.000000	 0.523328 
596.000000	 0.522756 
595.000000	 0.521755 
594.000000	 0.520443 
593.000000	 0.518870 
592.000000	 0.517153 
591.000000	 0.515365 
590.000000	 0.513648 
589.000000	 0.512027 
588.000000	 0.510549 
587.000000	 0.509214 
586.000000	 0.507998 
585.000000	 0.506877 
584.000000	 0.505828 
583.000000	 0.504827 
582.000000	 0.503873 
581.000000	 0.502943 
580.000000	 0.502085 
579.000000	 0.501227 
578.000000	 0.500440 
577.000000	 0.499701 
576.000000	 0.499010 
575.000000	 0.498318 
574.000000	 0.497579 
573.000000	 0.496768 
572.000000	 0.495862 
571.000000	 0.494742 
570.000000	 0.493502 
569.000000	 0.492072 
568.000000	 0.490474 
567.000000	 0.488734 
566.000000	 0.486922 
565.000000	 0.485062 
564.000000	 0.483202 
563.000000	 0.481462 
562.000000	 0.479793 
561.000000	 0.478267 
560.000000	 0.476861 
559.000000	 0.475525 
558.000000	 0.474238 
557.000000	 0.472950 
556.000000	 0.471615 
555.000000	 0.470161 
554.000000	 0.468587 
553.000000	 0.466871 
552.000000	 0.465011 
551.000000	 0.463080 
550.000000	 0.461101 
549.000000	 0.459098 
548.000000	 0.457119 
547.000000	 0.455164 
546.000000	 0.453281 
545.000000	 0.451493 
544.000000	 0.449800 
543.000000	 0.448131 
542.000000	 0.446510 
541.000000	 0.444936 
540.000000	 0.443291 
539.000000	 0.441622 
538.000000	 0.439834 
537.000000	 0.437927 
536.000000	 0.435948 
535.000000	 0.433850 
534.000000	 0.431585 
533.000000	 0.429201 
532.000000	 0.426697 
531.000000	 0.424098 
530.000000	 0.421404 
529.000000	 0.418639 
528.000000	 0.415873 
527.000000	 0.413084 
526.000000	 0.410366 
525.000000	 0.407671 
524.000000	 0.405073 
523.000000	 0.402617 
522.000000	 0.400257 
521.000000	 0.398015 
520.000000	 0.395894 
519.000000	 0.393915 
518.000000	 0.391983 
517.000000	 0.390100 
516.000000	 0.388240 
515.000000	 0.386381 
514.000000	 0.384497 
513.000000	 0.382566 
512.000000	 0.380587 
511.000000	 0.378608 
510.000000	 0.376510 
509.000000	 0.374364 
508.000000	 0.372076 
507.000000	 0.369620 
506.000000	 0.366997 
505.000000	 0.364160 
504.000000	 0.361156 
503.000000	 0.357985 
502.000000	 0.354695 
501.000000	 0.351309 
500.000000	 0.347924 
499.000000	 0.344514 
498.000000	 0.341081 
497.000000	 0.337600 
496.000000	 0.334095 
495.000000	 0.330448 
494.000000	 0.326752 
493.000000	 0.322985 
492.000000	 0.319170 
491.000000	 0.315332 
490.000000	 0.311541 
489.000000	 0.307798 
488.000000	 0.304126 
487.000000	 0.300550 
486.000000	 0.297021 
485.000000	 0.293564 
484.000000	 0.290083 
483.000000	 0.286626 
482.000000	 0.283050 
481.000000	 0.279498 
480.000000	 0.275969 
479.000000	 0.272464 
478.000000	 0.269055 
477.000000	 0.265789 
476.000000	 0.262665 
475.000000	 0.259709 
474.000000	 0.256896 
473.000000	 0.254178 
472.000000	 0.251531 
471.000000	 0.248908 
470.000000	 0.246238 
469.000000	 0.243520 
468.000000	 0.240778 
467.000000	 0.237917 
466.000000	 0.234913 
465.000000	 0.231790 
464.000000	 0.228500 
463.000000	 0.224971 
462.000000	 0.221252 
461.000000	 0.217247 
460.000000	 0.213074 
459.000000	 0.208759 
458.000000	 0.204324 
457.000000	 0.199937 
456.000000	 0.195574 
455.000000	 0.191426 
454.000000	 0.187468 
453.000000	 0.183701 
452.000000	 0.180196 
451.000000	 0.176882 
450.000000	 0.173807 
449.000000	 0.170946 
448.000000	 0.168228 
447.000000	 0.165629 
446.000000	 0.163197 
445.000000	 0.160789 
444.000000	 0.158500 
443.000000	 0.156235 
442.000000	 0.153946 
441.000000	 0.151658 
440.000000	 0.149321 
439.000000	 0.146937 
438.000000	 0.144386 
437.000000	 0.141692 
436.000000	 0.138831 
435.000000	 0.135850 
434.000000	 0.132679 
433.000000	 0.129342 
432.000000	 0.125932 
431.000000	 0.122427 
430.000000	 0.118851 
429.000000	 0.115275 
428.000000	 0.111675 
427.000000	 0.108098 
426.000000	 0.104498 
425.000000	 0.100946 
424.000000	 0.097489 
423.000000	 0.094103 
422.000000	 0.090956 
421.000000	 0.088047 
420.000000	 0.085449 
419.000000	 0.083184 
418.000000	 0.081229 
417.000000	 0.079512 
416.000000	 0.077891 
415.000000	 0.076293 
414.000000	 0.074529 
413.000000	 0.072574 
412.000000	 0.070285 
411.000000	 0.067663 
410.000000	 0.064754 
409.000000	 0.061607 
408.000000	 0.058293 
407.000000	 0.054931 
406.000000	 0.051593 
405.000000	 0.048375 
404.000000	 0.045299 
403.000000	 0.042366 
402.000000	 0.039625 
401.000000	 0.037050 
400.000000	 0.034666 
399.000000	 0.032448 
398.000000	 0.030446 
397.000000	 0.028657 
396.000000	 0.027108 
395.000000	 0.025844 
394.000000	 0.024843 
393.000000	 0.024104 
392.000000	 0.023555 
391.000000	 0.023198 
390.000000	 0.022912 
389.000000	 0.022697 
388.000000	 0.022459 
387.000000	 0.022220 
386.000000	 0.021982 
385.000000	 0.021743 
384.000000	 0.021457 
383.000000	 0.021123 
382.000000	 0.020813 
381.000000	 0.020408 
380.000000	 0.019860 
379.000000	 0.019168 
378.000000	 0.018382 
377.000000	 0.017499 
376.000000	 0.016617 
375.000000	 0.015783 
374.000000	 0.015091 
373.000000	 0.014495 
372.000000	 0.014019 
371.000000	 0.013613 
370.000000	 0.013208 

