PE IR       SPECTRUM    SPECTRUM    ASCII       PEDS        1.60        
  -1
BZAC31~1.ASC
17/04/10
09:44:36.00
17/04/10
09:44:36.00
tln
$BZ12041010-4_e0027$<ebV0>[-23.0,28.0,5.5,0.0,22,1,0]
370.000000
64









2002,4.07    
MIRTGS : RIGHTBACK : INTERNAL 2
MIR : ON : INTERNAL 2
OPTKBR

0.200000
8
8.000000
FILLER
SINGLE
SPECTRUM
UNLOCKED 256

DOUBLE

COMBINED
1
0
0


1.000000
BACKG


1
0
TRUE
51149
0
LEFT NOT FITTED RIGHT NOT FITTED 0
NONE
NONE
15600
12.000000
4.427000
51148
TRUE
1 0 8 72 0 0 0 0 

15798.010000






#HDR
-1
-1
#GR
CM-1
EGY
0.00002384185791015625
0.0
5000.000000
-1.000000
4631
8
2.461099
0.010108
#DATA
5000.000000	0.777316 
4999.000000	0.778412 
4998.000000	0.779604 
4997.000000	0.780820 
4996.000000	0.781965 
4995.000000	0.782966 
4994.000000	0.783801 
4993.000000	0.784444 
4992.000000	0.784969 
4991.000000	0.785374 
4990.000000	0.785756 
4989.000000	0.786185 
4988.000000	0.786685 
4987.000000	0.787258 
4986.000000	0.787878 
4985.000000	0.788545 
4984.000000	0.789189 
4983.000000	0.789809 
4982.000000	0.790309 
4981.000000	0.790715 
4980.000000	0.790977 
4979.000000	0.791096 
4978.000000	0.791049 
4977.000000	0.790858 
4976.000000	0.790596 
4975.000000	0.790286 
4974.000000	0.789999 
4973.000000	0.789856 
4972.000000	0.789833 
4971.000000	0.790071 
4970.000000	0.790524 
4969.000000	0.791263 
4968.000000	0.792145 
4967.000000	0.793218 
4966.000000	0.794339 
4965.000000	0.795435 
4964.000000	0.796461 
4963.000000	0.797343 
4962.000000	0.798082 
4961.000000	0.798606 
4960.000000	0.798916 
4959.000000	0.799059 
4958.000000	0.799083 
4957.000000	0.799012 
4956.000000	0.798940 
4955.000000	0.798916 
4954.000000	0.799012 
4953.000000	0.799274 
4952.000000	0.799679 
4951.000000	0.800251 
4950.000000	0.800967 
4949.000000	0.801706 
4948.000000	0.802469 
4947.000000	0.803279 
4946.000000	0.804114 
4945.000000	0.804948 
4944.000000	0.805783 
4943.000000	0.806665 
4942.000000	0.807547 
4941.000000	0.808358 
4940.000000	0.809073 
4939.000000	0.809621 
4938.000000	0.809955 
4937.000000	0.810050 
4936.000000	0.810003 
4935.000000	0.809812 
4934.000000	0.809621 
4933.000000	0.809478 
4932.000000	0.809407 
4931.000000	0.809407 
4930.000000	0.809454 
4929.000000	0.809502 
4928.000000	0.809454 
4927.000000	0.809383 
4926.000000	0.809168 
4925.000000	0.808906 
4924.000000	0.808691 
4923.000000	0.808548 
4922.000000	0.808620 
4921.000000	0.808906 
4920.000000	0.809431 
4919.000000	0.810098 
4918.000000	0.810837 
4917.000000	0.811576 
4916.000000	0.812196 
4915.000000	0.812673 
4914.000000	0.812935 
4913.000000	0.813007 
4912.000000	0.812888 
4911.000000	0.812745 
4910.000000	0.812578 
4909.000000	0.812506 
4908.000000	0.812602 
4907.000000	0.812888 
4906.000000	0.813388 
4905.000000	0.814056 
4904.000000	0.814890 
4903.000000	0.815844 
4902.000000	0.816845 
4901.000000	0.817894 
4900.000000	0.818943 
4899.000000	0.820016 
4898.000000	0.821042 
4897.000000	0.822019 
4896.000000	0.822925 
4895.000000	0.823688 
4894.000000	0.824260 
4893.000000	0.824618 
4892.000000	0.824713 
4891.000000	0.824618 
4890.000000	0.824332 
4889.000000	0.823879 
4888.000000	0.823307 
4887.000000	0.822663 
4886.000000	0.822043 
4885.000000	0.821423 
4884.000000	0.820899 
4883.000000	0.820446 
4882.000000	0.820064 
4881.000000	0.819706 
4880.000000	0.819468 
4879.000000	0.819396 
4878.000000	0.819516 
4877.000000	0.819969 
4876.000000	0.820803 
4875.000000	0.822114 
4874.000000	0.823974 
4873.000000	0.826334 
4872.000000	0.829124 
4871.000000	0.832176 
4870.000000	0.835371 
4869.000000	0.838422 
4868.000000	0.841093 
4867.000000	0.843214 
4866.000000	0.844621 
4865.000000	0.845241 
4864.000000	0.845003 
4863.000000	0.843930 
4862.000000	0.842165 
4861.000000	0.839877 
4860.000000	0.837278 
4859.000000	0.834655 
4858.000000	0.832247 
4857.000000	0.830340 
4856.000000	0.829029 
4855.000000	0.828337 
4854.000000	0.828242 
4853.000000	0.828480 
4852.000000	0.828862 
4851.000000	0.829052 
4850.000000	0.828886 
4849.000000	0.828313 
4848.000000	0.827479 
4847.000000	0.826621 
4846.000000	0.826144 
4845.000000	0.826311 
4844.000000	0.827431 
4843.000000	0.829529 
4842.000000	0.832438 
4841.000000	0.835776 
4840.000000	0.839114 
4839.000000	0.841903 
4838.000000	0.843787 
4837.000000	0.844573 
4836.000000	0.844335 
4835.000000	0.843405 
4834.000000	0.842118 
4833.000000	0.840997 
4832.000000	0.840401 
4831.000000	0.840449 
4830.000000	0.841259 
4829.000000	0.842666 
4828.000000	0.844383 
4827.000000	0.846147 
4826.000000	0.847840 
4825.000000	0.849342 
4824.000000	0.850725 
4823.000000	0.852108 
4822.000000	0.853681 
4821.000000	0.855588 
4820.000000	0.857806 
4819.000000	0.860357 
4818.000000	0.863099 
4817.000000	0.865793 
4816.000000	0.868296 
4815.000000	0.870418 
4814.000000	0.872039 
4813.000000	0.873136 
4812.000000	0.873661 
4811.000000	0.873684 
4810.000000	0.873208 
4809.000000	0.872468 
4808.000000	0.871586 
4807.000000	0.870728 
4806.000000	0.870132 
4805.000000	0.869917 
4804.000000	0.870227 
4803.000000	0.871062 
4802.000000	0.872445 
4801.000000	0.874114 
4800.000000	0.875926 
4799.000000	0.877666 
4798.000000	0.879168 
4797.000000	0.880312 
4796.000000	0.881004 
4795.000000	0.881385 
4794.000000	0.881528 
4793.000000	0.881576 
4792.000000	0.881671 
4791.000000	0.881981 
4790.000000	0.882530 
4789.000000	0.883340 
4788.000000	0.884318 
4787.000000	0.885319 
4786.000000	0.886297 
4785.000000	0.887060 
4784.000000	0.887584 
4783.000000	0.887775 
4782.000000	0.887751 
4781.000000	0.887584 
4780.000000	0.887370 
4779.000000	0.887227 
4778.000000	0.887227 
4777.000000	0.887346 
4776.000000	0.887608 
4775.000000	0.888013 
4774.000000	0.888466 
4773.000000	0.888943 
4772.000000	0.889420 
4771.000000	0.889921 
4770.000000	0.890493 
4769.000000	0.891113 
4768.000000	0.891852 
4767.000000	0.892734 
4766.000000	0.893735 
4765.000000	0.894808 
4764.000000	0.895857 
4763.000000	0.896835 
4762.000000	0.897645 
4761.000000	0.898241 
4760.000000	0.898575 
4759.000000	0.898671 
4758.000000	0.898623 
4757.000000	0.898528 
4756.000000	0.898432 
4755.000000	0.898528 
4754.000000	0.898742 
4753.000000	0.899195 
4752.000000	0.899791 
4751.000000	0.900459 
4750.000000	0.901103 
4749.000000	0.901579 
4748.000000	0.901818 
4747.000000	0.901842 
4746.000000	0.901722 
4745.000000	0.901484 
4744.000000	0.901246 
4743.000000	0.901079 
4742.000000	0.900983 
4741.000000	0.900959 
4740.000000	0.901031 
4739.000000	0.901126 
4738.000000	0.901269 
4737.000000	0.901389 
4736.000000	0.901603 
4735.000000	0.901913 
4734.000000	0.902342 
4733.000000	0.902843 
4732.000000	0.903391 
4731.000000	0.903940 
4730.000000	0.904417 
4729.000000	0.904750 
4728.000000	0.904941 
4727.000000	0.904989 
4726.000000	0.904989 
4725.000000	0.904917 
4724.000000	0.904917 
4723.000000	0.905036 
4722.000000	0.905323 
4721.000000	0.905728 
4720.000000	0.906276 
4719.000000	0.906920 
4718.000000	0.907588 
4717.000000	0.908303 
4716.000000	0.908970 
4715.000000	0.909566 
4714.000000	0.910115 
4713.000000	0.910615 
4712.000000	0.911068 
4711.000000	0.911498 
4710.000000	0.911879 
4709.000000	0.912237 
4708.000000	0.912570 
4707.000000	0.912833 
4706.000000	0.913071 
4705.000000	0.913238 
4704.000000	0.913310 
4703.000000	0.913286 
4702.000000	0.913214 
4701.000000	0.913166 
4700.000000	0.913095 
4699.000000	0.913119 
4698.000000	0.913310 
4697.000000	0.913596 
4696.000000	0.914049 
4695.000000	0.914597 
4694.000000	0.915241 
4693.000000	0.915884 
4692.000000	0.916433 
4691.000000	0.916862 
4690.000000	0.917053 
4689.000000	0.917077 
4688.000000	0.916910 
4687.000000	0.916671 
4686.000000	0.916361 
4685.000000	0.916075 
4684.000000	0.915956 
4683.000000	0.915956 
4682.000000	0.916123 
4681.000000	0.916433 
4680.000000	0.916767 
4679.000000	0.917100 
4678.000000	0.917363 
4677.000000	0.917506 
4676.000000	0.917601 
4675.000000	0.917625 
4674.000000	0.917649 
4673.000000	0.917744 
4672.000000	0.917911 
4671.000000	0.918197 
4670.000000	0.918579 
4669.000000	0.919008 
4668.000000	0.919485 
4667.000000	0.919938 
4666.000000	0.920391 
4665.000000	0.920796 
4664.000000	0.921177 
4663.000000	0.921559 
4662.000000	0.921916 
4661.000000	0.922274 
4660.000000	0.922679 
4659.000000	0.923132 
4658.000000	0.923585 
4657.000000	0.924015 
4656.000000	0.924420 
4655.000000	0.924801 
4654.000000	0.925040 
4653.000000	0.925254 
4652.000000	0.925421 
4651.000000	0.925636 
4650.000000	0.925874 
4649.000000	0.926256 
4648.000000	0.926804 
4647.000000	0.927543 
4646.000000	0.928401 
4645.000000	0.929379 
4644.000000	0.930309 
4643.000000	0.931215 
4642.000000	0.931954 
4641.000000	0.932526 
4640.000000	0.932979 
4639.000000	0.933289 
4638.000000	0.933575 
4637.000000	0.933861 
4636.000000	0.934147 
4635.000000	0.934481 
4634.000000	0.934815 
4633.000000	0.935053 
4632.000000	0.935220 
4631.000000	0.935244 
4630.000000	0.935196 
4629.000000	0.935101 
4628.000000	0.935006 
4627.000000	0.934982 
4626.000000	0.935077 
4625.000000	0.935316 
4624.000000	0.935673 
4623.000000	0.936222 
4622.000000	0.936818 
4621.000000	0.937533 
4620.000000	0.938296 
4619.000000	0.939130 
4618.000000	0.940060 
4617.000000	0.940990 
4616.000000	0.941991 
4615.000000	0.942993 
4614.000000	0.943970 
4613.000000	0.944924 
4612.000000	0.945806 
4611.000000	0.946593 
4610.000000	0.947284 
4609.000000	0.947928 
4608.000000	0.948476 
4607.000000	0.949001 
4606.000000	0.949525 
4605.000000	0.950050 
4604.000000	0.950598 
4603.000000	0.951147 
4602.000000	0.951719 
4601.000000	0.952267 
4600.000000	0.952839 
4599.000000	0.953388 
4598.000000	0.953912 
4597.000000	0.954413 
4596.000000	0.954914 
4595.000000	0.955438 
4594.000000	0.955986 
4593.000000	0.956678 
4592.000000	0.957465 
4591.000000	0.958371 
4590.000000	0.959324 
4589.000000	0.960302 
4588.000000	0.961208 
4587.000000	0.962018 
4586.000000	0.962662 
4585.000000	0.963163 
4584.000000	0.963544 
4583.000000	0.963830 
4582.000000	0.964212 
4581.000000	0.964641 
4580.000000	0.965261 
4579.000000	0.966072 
4578.000000	0.967073 
4577.000000	0.968194 
4576.000000	0.969338 
4575.000000	0.970482 
4574.000000	0.971603 
4573.000000	0.972652 
4572.000000	0.973629 
4571.000000	0.974583 
4570.000000	0.975489 
4569.000000	0.976371 
4568.000000	0.977206 
4567.000000	0.977969 
4566.000000	0.978660 
4565.000000	0.979208 
4564.000000	0.979709 
4563.000000	0.980138 
4562.000000	0.980591 
4561.000000	0.981140 
4560.000000	0.981831 
4559.000000	0.982666 
4558.000000	0.983667 
4557.000000	0.984811 
4556.000000	0.986027 
4555.000000	0.987291 
4554.000000	0.988578 
4553.000000	0.989866 
4552.000000	0.991129 
4551.000000	0.992369 
4550.000000	0.993561 
4549.000000	0.994586 
4548.000000	0.995469 
4547.000000	0.996136 
4546.000000	0.996565 
4545.000000	0.996828 
4544.000000	0.996923 
4543.000000	0.996994 
4542.000000	0.997161 
4541.000000	0.997471 
4540.000000	0.997972 
4539.000000	0.998640 
4538.000000	0.999498 
4537.000000	1.000452 
4536.000000	1.001429 
4535.000000	1.002359 
4534.000000	1.003170 
4533.000000	1.003837 
4532.000000	1.004433 
4531.000000	1.004958 
4530.000000	1.005411 
4529.000000	1.005864 
4528.000000	1.006245 
4527.000000	1.006555 
4526.000000	1.006722 
4525.000000	1.006722 
4524.000000	1.006484 
4523.000000	1.006078 
4522.000000	1.005601 
4521.000000	1.005101 
4520.000000	1.004743 
4519.000000	1.004528 
4518.000000	1.004528 
4517.000000	1.004767 
4516.000000	1.005172 
4515.000000	1.005768 
4514.000000	1.006507 
4513.000000	1.007294 
4512.000000	1.008105 
4511.000000	1.008892 
4510.000000	1.009583 
4509.000000	1.010203 
4508.000000	1.010656 
4507.000000	1.011013 
4506.000000	1.011252 
4505.000000	1.011395 
4504.000000	1.011490 
4503.000000	1.011466 
4502.000000	1.011323 
4501.000000	1.010990 
4500.000000	1.010465 
4499.000000	1.009678 
4498.000000	1.008677 
4497.000000	1.007652 
4496.000000	1.006722 
4495.000000	1.006102 
4494.000000	1.005935 
4493.000000	1.006317 
4492.000000	1.007151 
4491.000000	1.008224 
4490.000000	1.009416 
4489.000000	1.010560 
4488.000000	1.011514 
4487.000000	1.012277 
4486.000000	1.012825 
4485.000000	1.013135 
4484.000000	1.013183 
4483.000000	1.013040 
4482.000000	1.012659 
4481.000000	1.012086 
4480.000000	1.011538 
4479.000000	1.011085 
4478.000000	1.010751 
4477.000000	1.010227 
4476.000000	1.009035 
4475.000000	1.006507 
4474.000000	1.001715 
4473.000000	0.993776 
4472.000000	0.982117 
4471.000000	0.966382 
4470.000000	0.946712 
4469.000000	0.923657 
4468.000000	0.898241 
4467.000000	0.871539 
4466.000000	0.844717 
4465.000000	0.818848 
4464.000000	0.794935 
4463.000000	0.773978 
4462.000000	0.757074 
4461.000000	0.745368 
4460.000000	0.740003 
4459.000000	0.741982 
4458.000000	0.752019 
4457.000000	0.770068 
4456.000000	0.795483 
4455.000000	0.826716 
4454.000000	0.861716 
4453.000000	0.898003 
4452.000000	0.933122 
4451.000000	0.964975 
4450.000000	0.991988 
4449.000000	1.013398 
4448.000000	1.029133 
4447.000000	1.039767 
4446.000000	1.046228 
4445.000000	1.049733 
4444.000000	1.051330 
4443.000000	1.051855 
4442.000000	1.051855 
4441.000000	1.051688 
4440.000000	1.051473 
4439.000000	1.051115 
4438.000000	1.050567 
4437.000000	1.049852 
4436.000000	1.049017 
4435.000000	1.048135 
4434.000000	1.047468 
4433.000000	1.047134 
4432.000000	1.047277 
4431.000000	1.047897 
4430.000000	1.048922 
4429.000000	1.050209 
4428.000000	1.051592 
4427.000000	1.052880 
4426.000000	1.053977 
4425.000000	1.054668 
4424.000000	1.055049 
4423.000000	1.055145 
4422.000000	1.054930 
4421.000000	1.054382 
4420.000000	1.053643 
4419.000000	1.052784 
4418.000000	1.051831 
4417.000000	1.050782 
4416.000000	1.049780 
4415.000000	1.048851 
4414.000000	1.048064 
4413.000000	1.047515 
4412.000000	1.047205 
4411.000000	1.047158 
4410.000000	1.047420 
4409.000000	1.047921 
4408.000000	1.048636 
4407.000000	1.049566 
4406.000000	1.050543 
4405.000000	1.051545 
4404.000000	1.052498 
4403.000000	1.053261 
4402.000000	1.053857 
4401.000000	1.054167 
4400.000000	1.054167 
4399.000000	1.053929 
4398.000000	1.053452 
4397.000000	1.052761 
4396.000000	1.051950 
4395.000000	1.051115 
4394.000000	1.050305 
4393.000000	1.049590 
4392.000000	1.049017 
4391.000000	1.048660 
4390.000000	1.048541 
4389.000000	1.048660 
4388.000000	1.048994 
4387.000000	1.049590 
4386.000000	1.050353 
4385.000000	1.051187 
4384.000000	1.052117 
4383.000000	1.053047 
4382.000000	1.053857 
4381.000000	1.054596 
4380.000000	1.055264 
4379.000000	1.055860 
4378.000000	1.056432 
4377.000000	1.057052 
4376.000000	1.057720 
4375.000000	1.058435 
4374.000000	1.059198 
4373.000000	1.059985 
4372.000000	1.060748 
4371.000000	1.061463 
4370.000000	1.062083 
4369.000000	1.062607 
4368.000000	1.063036 
4367.000000	1.063418 
4366.000000	1.063799 
4365.000000	1.064205 
4364.000000	1.064729 
4363.000000	1.065349 
4362.000000	1.066064 
4361.000000	1.066946 
4360.000000	1.067924 
4359.000000	1.068997 
4358.000000	1.070070 
4357.000000	1.071119 
4356.000000	1.072120 
4355.000000	1.073074 
4354.000000	1.073956 
4353.000000	1.074814 
4352.000000	1.075720 
4351.000000	1.076626 
4350.000000	1.077604 
4349.000000	1.078653 
4348.000000	1.079750 
4347.000000	1.080799 
4346.000000	1.081800 
4345.000000	1.082730 
4344.000000	1.083540 
4343.000000	1.084232 
4342.000000	1.084852 
4341.000000	1.085424 
4340.000000	1.085972 
4339.000000	1.086568 
4338.000000	1.087188 
4337.000000	1.087856 
4336.000000	1.088547 
4335.000000	1.089334 
4334.000000	1.090168 
4333.000000	1.091146 
4332.000000	1.092195 
4331.000000	1.093363 
4330.000000	1.094651 
4329.000000	1.095962 
4328.000000	1.097249 
4327.000000	1.098489 
4326.000000	1.099658 
4325.000000	1.100730 
4324.000000	1.101732 
4323.000000	1.102709 
4322.000000	1.103711 
4321.000000	1.104784 
4320.000000	1.105999 
4319.000000	1.107311 
4318.000000	1.108670 
4317.000000	1.110053 
4316.000000	1.111435 
4315.000000	1.112723 
4314.000000	1.113963 
4313.000000	1.115059 
4312.000000	1.116108 
4311.000000	1.117086 
4310.000000	1.118087 
4309.000000	1.119136 
4308.000000	1.120257 
4307.000000	1.121449 
4306.000000	1.122736 
4305.000000	1.124119 
4304.000000	1.125550 
4303.000000	1.126933 
4302.000000	1.128315 
4301.000000	1.129674 
4300.000000	1.130962 
4299.000000	1.132202 
4298.000000	1.133370 
4297.000000	1.134514 
4296.000000	1.135611 
4295.000000	1.136755 
4294.000000	1.137900 
4293.000000	1.139044 
4292.000000	1.140213 
4291.000000	1.141381 
4290.000000	1.142501 
4289.000000	1.143646 
4288.000000	1.144671 
4287.000000	1.145648 
4286.000000	1.146531 
4285.000000	1.147317 
4284.000000	1.147985 
4283.000000	1.148557 
4282.000000	1.149058 
4281.000000	1.149535 
4280.000000	1.150012 
4279.000000	1.150512 
4278.000000	1.151132 
4277.000000	1.151895 
4276.000000	1.152753 
4275.000000	1.153707 
4274.000000	1.154756 
4273.000000	1.155877 
4272.000000	1.156973 
4271.000000	1.158118 
4270.000000	1.159238 
4269.000000	1.160311 
4268.000000	1.161408 
4267.000000	1.162433 
4266.000000	1.163482 
4265.000000	1.164484 
4264.000000	1.165485 
4263.000000	1.166462 
4262.000000	1.167416 
4261.000000	1.168370 
4260.000000	1.169371 
4259.000000	1.170349 
4258.000000	1.171302 
4257.000000	1.172256 
4256.000000	1.173162 
4255.000000	1.174044 
4254.000000	1.174831 
4253.000000	1.175570 
4252.000000	1.176214 
4251.000000	1.176810 
4250.000000	1.177382 
4249.000000	1.177930 
4248.000000	1.178479 
4247.000000	1.179075 
4246.000000	1.179671 
4245.000000	1.180338 
4244.000000	1.181006 
4243.000000	1.181650 
4242.000000	1.182270 
4241.000000	1.182818 
4240.000000	1.183271 
4239.000000	1.183581 
4238.000000	1.183795 
4237.000000	1.183915 
4236.000000	1.183962 
4235.000000	1.184058 
4234.000000	1.184225 
4233.000000	1.184535 
4232.000000	1.185107 
4231.000000	1.185894 
4230.000000	1.186871 
4229.000000	1.187992 
4228.000000	1.189184 
4227.000000	1.190280 
4226.000000	1.191258 
4225.000000	1.192092 
4224.000000	1.192688 
4223.000000	1.193165 
4222.000000	1.193475 
4221.000000	1.193785 
4220.000000	1.194095 
4219.000000	1.194477 
4218.000000	1.194906 
4217.000000	1.195454 
4216.000000	1.196002 
4215.000000	1.196575 
4214.000000	1.197171 
4213.000000	1.197743 
4212.000000	1.198339 
4211.000000	1.198887 
4210.000000	1.199460 
4209.000000	1.200032 
4208.000000	1.200580 
4207.000000	1.201081 
4206.000000	1.201534 
4205.000000	1.201891 
4204.000000	1.202178 
4203.000000	1.202416 
4202.000000	1.202630 
4201.000000	1.202797 
4200.000000	1.203012 
4199.000000	1.203250 
4198.000000	1.203536 
4197.000000	1.203870 
4196.000000	1.204228 
4195.000000	1.204633 
4194.000000	1.205062 
4193.000000	1.205492 
4192.000000	1.205945 
4191.000000	1.206421 
4190.000000	1.206922 
4189.000000	1.207351 
4188.000000	1.207709 
4187.000000	1.208066 
4186.000000	1.208329 
4185.000000	1.208519 
4184.000000	1.208662 
4183.000000	1.208806 
4182.000000	1.208949 
4181.000000	1.209187 
4180.000000	1.209497 
4179.000000	1.209878 
4178.000000	1.210331 
4177.000000	1.210856 
4176.000000	1.211357 
4175.000000	1.211857 
4174.000000	1.212286 
4173.000000	1.212620 
4172.000000	1.212930 
4171.000000	1.213192 
4170.000000	1.213431 
4169.000000	1.213645 
4168.000000	1.213908 
4167.000000	1.214170 
4166.000000	1.214575 
4165.000000	1.215052 
4164.000000	1.215624 
4163.000000	1.216363 
4162.000000	1.217222 
4161.000000	1.218199 
4160.000000	1.219296 
4159.000000	1.220464 
4158.000000	1.221561 
4157.000000	1.222634 
4156.000000	1.223587 
4155.000000	1.224446 
4154.000000	1.225137 
4153.000000	1.225757 
4152.000000	1.226258 
4151.000000	1.226735 
4150.000000	1.227211 
4149.000000	1.227712 
4148.000000	1.228237 
4147.000000	1.228785 
4146.000000	1.229357 
4145.000000	1.229953 
4144.000000	1.230573 
4143.000000	1.231217 
4142.000000	1.231908 
4141.000000	1.232695 
4140.000000	1.233625 
4139.000000	1.234674 
4138.000000	1.235818 
4137.000000	1.236987 
4136.000000	1.238131 
4135.000000	1.239204 
4134.000000	1.240110 
4133.000000	1.240897 
4132.000000	1.241493 
4131.000000	1.241922 
4130.000000	1.242327 
4129.000000	1.242756 
4128.000000	1.243329 
4127.000000	1.244044 
4126.000000	1.245021 
4125.000000	1.246237 
4124.000000	1.247715 
4123.000000	1.249313 
4122.000000	1.250982 
4121.000000	1.252627 
4120.000000	1.254129 
4119.000000	1.255440 
4118.000000	1.256537 
4117.000000	1.257395 
4116.000000	1.258063 
4115.000000	1.258611 
4114.000000	1.259088 
4113.000000	1.259565 
4112.000000	1.260089 
4111.000000	1.260709 
4110.000000	1.261401 
4109.000000	1.262164 
4108.000000	1.263022 
4107.000000	1.263904 
4106.000000	1.264762 
4105.000000	1.265597 
4104.000000	1.266407 
4103.000000	1.267170 
4102.000000	1.267886 
4101.000000	1.268601 
4100.000000	1.269316 
4099.000000	1.270079 
4098.000000	1.270914 
4097.000000	1.271843 
4096.000000	1.272892 
4095.000000	1.274061 
4094.000000	1.275348 
4093.000000	1.276779 
4092.000000	1.278352 
4091.000000	1.279950 
4090.000000	1.281595 
4089.000000	1.283216 
4088.000000	1.284813 
4087.000000	1.286411 
4086.000000	1.287961 
4085.000000	1.289486 
4084.000000	1.291012 
4083.000000	1.292634 
4082.000000	1.294279 
4081.000000	1.295971 
4080.000000	1.297593 
4079.000000	1.299190 
4078.000000	1.300621 
4077.000000	1.301860 
4076.000000	1.302886 
4075.000000	1.303815 
4074.000000	1.304650 
4073.000000	1.305484 
4072.000000	1.306462 
4071.000000	1.307725 
4070.000000	1.309275 
4069.000000	1.311206 
4068.000000	1.313400 
4067.000000	1.315832 
4066.000000	1.318407 
4065.000000	1.320981 
4064.000000	1.323485 
4063.000000	1.325821 
4062.000000	1.327991 
4061.000000	1.329874 
4060.000000	1.331567 
4059.000000	1.332950 
4058.000000	1.334095 
4057.000000	1.335000 
4056.000000	1.335716 
4055.000000	1.336312 
4054.000000	1.336860 
4053.000000	1.337480 
4052.000000	1.338267 
4051.000000	1.339292 
4050.000000	1.340603 
4049.000000	1.342153 
4048.000000	1.343941 
4047.000000	1.345825 
4046.000000	1.347684 
4045.000000	1.349496 
4044.000000	1.351165 
4043.000000	1.352667 
4042.000000	1.353979 
4041.000000	1.355218 
4040.000000	1.356387 
4039.000000	1.357531 
4038.000000	1.358771 
4037.000000	1.360011 
4036.000000	1.361298 
4035.000000	1.362633 
4034.000000	1.364040 
4033.000000	1.365399 
4032.000000	1.366806 
4031.000000	1.368212 
4030.000000	1.369643 
4029.000000	1.371097 
4028.000000	1.372599 
4027.000000	1.374101 
4026.000000	1.375603 
4025.000000	1.377129 
4024.000000	1.378583 
4023.000000	1.379966 
4022.000000	1.381206 
4021.000000	1.382327 
4020.000000	1.383256 
4019.000000	1.384043 
4018.000000	1.384687 
4017.000000	1.385235 
4016.000000	1.385807 
4015.000000	1.386427 
4014.000000	1.387166 
4013.000000	1.388049 
4012.000000	1.389098 
4011.000000	1.390314 
4010.000000	1.391530 
4009.000000	1.392793 
4008.000000	1.394033 
4007.000000	1.395130 
4006.000000	1.396179 
4005.000000	1.397156 
4004.000000	1.398086 
4003.000000	1.398944 
4002.000000	1.399850 
4001.000000	1.400804 
4000.000000	1.401782 
3999.000000	1.402759 
3998.000000	1.403760 
3997.000000	1.404666 
3996.000000	1.405477 
3995.000000	1.406168 
3994.000000	1.406669 
3993.000000	1.407027 
3992.000000	1.407289 
3991.000000	1.407432 
3990.000000	1.407551 
3989.000000	1.407742 
3988.000000	1.408004 
3987.000000	1.408433 
3986.000000	1.409077 
3985.000000	1.409912 
3984.000000	1.411008 
3983.000000	1.412248 
3982.000000	1.413583 
3981.000000	1.415038 
3980.000000	1.416468 
3979.000000	1.417756 
3978.000000	1.418852 
3977.000000	1.419734 
3976.000000	1.420402 
3975.000000	1.420807 
3974.000000	1.421022 
3973.000000	1.421165 
3972.000000	1.421236 
3971.000000	1.421332 
3970.000000	1.421475 
3969.000000	1.421761 
3968.000000	1.422119 
3967.000000	1.422572 
3966.000000	1.423025 
3965.000000	1.423525 
3964.000000	1.423978 
3963.000000	1.424336 
3962.000000	1.424574 
3961.000000	1.424694 
3960.000000	1.424694 
3959.000000	1.424574 
3958.000000	1.424336 
3957.000000	1.424002 
3956.000000	1.423692 
3955.000000	1.423430 
3954.000000	1.423287 
3953.000000	1.423358 
3952.000000	1.423597 
3951.000000	1.424074 
3950.000000	1.424717 
3949.000000	1.425528 
3948.000000	1.426386 
3947.000000	1.427268 
3946.000000	1.428103 
3945.000000	1.428890 
3944.000000	1.429510 
3943.000000	1.430034 
3942.000000	1.430416 
3941.000000	1.430678 
3940.000000	1.430821 
3939.000000	1.430845 
3938.000000	1.430726 
3937.000000	1.430535 
3936.000000	1.430320 
3935.000000	1.430130 
3934.000000	1.430034 
3933.000000	1.430034 
3932.000000	1.430177 
3931.000000	1.430487 
3930.000000	1.430892 
3929.000000	1.431345 
3928.000000	1.431822 
3927.000000	1.432204 
3926.000000	1.432490 
3925.000000	1.432633 
3924.000000	1.432728 
3923.000000	1.432871 
3922.000000	1.433038 
3921.000000	1.433396 
3920.000000	1.433944 
3919.000000	1.434683 
3918.000000	1.435613 
3917.000000	1.436638 
3916.000000	1.437640 
3915.000000	1.438570 
3914.000000	1.439285 
3913.000000	1.439762 
3912.000000	1.439952 
3911.000000	1.439809 
3910.000000	1.439332 
3909.000000	1.438641 
3908.000000	1.437783 
3907.000000	1.436853 
3906.000000	1.435995 
3905.000000	1.435303 
3904.000000	1.434969 
3903.000000	1.435041 
3902.000000	1.435565 
3901.000000	1.436519 
3900.000000	1.437807 
3899.000000	1.439356 
3898.000000	1.440954 
3897.000000	1.442456 
3896.000000	1.443719 
3895.000000	1.444673 
3894.000000	1.445293 
3893.000000	1.445603 
3892.000000	1.445579 
3891.000000	1.445388 
3890.000000	1.445055 
3889.000000	1.444721 
3888.000000	1.444363 
3887.000000	1.444125 
3886.000000	1.444101 
3885.000000	1.444292 
3884.000000	1.444792 
3883.000000	1.445555 
3882.000000	1.446533 
3881.000000	1.447725 
3880.000000	1.448965 
3879.000000	1.450109 
3878.000000	1.451086 
3877.000000	1.451754 
3876.000000	1.452088 
3875.000000	1.452064 
3874.000000	1.451826 
3873.000000	1.451468 
3872.000000	1.451110 
3871.000000	1.450896 
3870.000000	1.450991 
3869.000000	1.451396 
3868.000000	1.452207 
3867.000000	1.453375 
3866.000000	1.454854 
3865.000000	1.456451 
3864.000000	1.458001 
3863.000000	1.459336 
3862.000000	1.460218 
3861.000000	1.460480 
3860.000000	1.460075 
3859.000000	1.459121 
3858.000000	1.457715 
3857.000000	1.456189 
3856.000000	1.454877 
3855.000000	1.454162 
3854.000000	1.454353 
3853.000000	1.455640 
3852.000000	1.457953 
3851.000000	1.461219 
3850.000000	1.465058 
3849.000000	1.469111 
3848.000000	1.472997 
3847.000000	1.476359 
3846.000000	1.479029 
3845.000000	1.480865 
3844.000000	1.481962 
3843.000000	1.482486 
3842.000000	1.482629 
3841.000000	1.482605 
3840.000000	1.482629 
3839.000000	1.482892 
3838.000000	1.483488 
3837.000000	1.484489 
3836.000000	1.485824 
3835.000000	1.487421 
3834.000000	1.489233 
3833.000000	1.491117 
3832.000000	1.492953 
3831.000000	1.494598 
3830.000000	1.496005 
3829.000000	1.497054 
3828.000000	1.497793 
3827.000000	1.498174 
3826.000000	1.498270 
3825.000000	1.498150 
3824.000000	1.497888 
3823.000000	1.497626 
3822.000000	1.497459 
3821.000000	1.497530 
3820.000000	1.497960 
3819.000000	1.498794 
3818.000000	1.500082 
3817.000000	1.501798 
3816.000000	1.503825 
3815.000000	1.506090 
3814.000000	1.508355 
3813.000000	1.510524 
3812.000000	1.512384 
3811.000000	1.513814 
3810.000000	1.514816 
3809.000000	1.515436 
3808.000000	1.515722 
3807.000000	1.515793 
3806.000000	1.515913 
3805.000000	1.516127 
3804.000000	1.516628 
3803.000000	1.517510 
3802.000000	1.518821 
3801.000000	1.520586 
3800.000000	1.522660 
3799.000000	1.525044 
3798.000000	1.527595 
3797.000000	1.530218 
3796.000000	1.532769 
3795.000000	1.535201 
3794.000000	1.537466 
3793.000000	1.539516 
3792.000000	1.541328 
3791.000000	1.542901 
3790.000000	1.544189 
3789.000000	1.545238 
3788.000000	1.546120 
3787.000000	1.546835 
3786.000000	1.547408 
3785.000000	1.547956 
3784.000000	1.548552 
3783.000000	1.549243 
3782.000000	1.550078 
3781.000000	1.551055 
3780.000000	1.552128 
3779.000000	1.553297 
3778.000000	1.554441 
3777.000000	1.555538 
3776.000000	1.556515 
3775.000000	1.557350 
3774.000000	1.558065 
3773.000000	1.558709 
3772.000000	1.559352 
3771.000000	1.559948 
3770.000000	1.560521 
3769.000000	1.561045 
3768.000000	1.561522 
3767.000000	1.561880 
3766.000000	1.562118 
3765.000000	1.562285 
3764.000000	1.562428 
3763.000000	1.562571 
3762.000000	1.562738 
3761.000000	1.562952 
3760.000000	1.563143 
3759.000000	1.563262 
3758.000000	1.563167 
3757.000000	1.562738 
3756.000000	1.561880 
3755.000000	1.560640 
3754.000000	1.558995 
3753.000000	1.557159 
3752.000000	1.555228 
3751.000000	1.553440 
3750.000000	1.551938 
3749.000000	1.550912 
3748.000000	1.550483 
3747.000000	1.550745 
3746.000000	1.551651 
3745.000000	1.553201 
3744.000000	1.555180 
3743.000000	1.557397 
3742.000000	1.559662 
3741.000000	1.561713 
3740.000000	1.563405 
3739.000000	1.564645 
3738.000000	1.565527 
3737.000000	1.566100 
3736.000000	1.566576 
3735.000000	1.567101 
3734.000000	1.567864 
3733.000000	1.568913 
3732.000000	1.570272 
3731.000000	1.571846 
3730.000000	1.573491 
3729.000000	1.575064 
3728.000000	1.576399 
3727.000000	1.577496 
3726.000000	1.578307 
3725.000000	1.578855 
3724.000000	1.579260 
3723.000000	1.579546 
3722.000000	1.579761 
3721.000000	1.579928 
3720.000000	1.579976 
3719.000000	1.579880 
3718.000000	1.579642 
3717.000000	1.579213 
3716.000000	1.578688 
3715.000000	1.578164 
3714.000000	1.577734 
3713.000000	1.577544 
3712.000000	1.577615 
3711.000000	1.578068 
3710.000000	1.578807 
3709.000000	1.579713 
3708.000000	1.580715 
3707.000000	1.581668 
3706.000000	1.582503 
3705.000000	1.583194 
3704.000000	1.583743 
3703.000000	1.584196 
3702.000000	1.584625 
3701.000000	1.585078 
3700.000000	1.585507 
3699.000000	1.585888 
3698.000000	1.586031 
3697.000000	1.585888 
3696.000000	1.585316 
3695.000000	1.584267 
3694.000000	1.582813 
3693.000000	1.581072 
3692.000000	1.579236 
3691.000000	1.577591 
3690.000000	1.576352 
3689.000000	1.575636 
3688.000000	1.575541 
3687.000000	1.576018 
3686.000000	1.576828 
3685.000000	1.577734 
3684.000000	1.578545 
3683.000000	1.579022 
3682.000000	1.579046 
3681.000000	1.578521 
3680.000000	1.577520 
3679.000000	1.576113 
3678.000000	1.574540 
3677.000000	1.572990 
3676.000000	1.571559 
3675.000000	1.570534 
3674.000000	1.569890 
3673.000000	1.569795 
3672.000000	1.570272 
3671.000000	1.571249 
3670.000000	1.572728 
3669.000000	1.574563 
3668.000000	1.576614 
3667.000000	1.578760 
3666.000000	1.580786 
3665.000000	1.582598 
3664.000000	1.584029 
3663.000000	1.584982 
3662.000000	1.585459 
3661.000000	1.585459 
3660.000000	1.585030 
3659.000000	1.584291 
3658.000000	1.583242 
3657.000000	1.582074 
3656.000000	1.580739 
3655.000000	1.579356 
3654.000000	1.577997 
3653.000000	1.576757 
3652.000000	1.575756 
3651.000000	1.575040 
3650.000000	1.574754 
3649.000000	1.574993 
3648.000000	1.575732 
3647.000000	1.576948 
3646.000000	1.578521 
3645.000000	1.580333 
3644.000000	1.582169 
3643.000000	1.583957 
3642.000000	1.585555 
3641.000000	1.586866 
3640.000000	1.587748 
3639.000000	1.588249 
3638.000000	1.588273 
3637.000000	1.587820 
3636.000000	1.586961 
3635.000000	1.585721 
3634.000000	1.584291 
3633.000000	1.582837 
3632.000000	1.581549 
3631.000000	1.580691 
3630.000000	1.580333 
3629.000000	1.580572 
3628.000000	1.581335 
3627.000000	1.582503 
3626.000000	1.583862 
3625.000000	1.585197 
3624.000000	1.586365 
3623.000000	1.587295 
3622.000000	1.587891 
3621.000000	1.588273 
3620.000000	1.588511 
3619.000000	1.588654 
3618.000000	1.588821 
3617.000000	1.589012 
3616.000000	1.589202 
3615.000000	1.589393 
3614.000000	1.589632 
3613.000000	1.589822 
3612.000000	1.590085 
3611.000000	1.590418 
3610.000000	1.590991 
3609.000000	1.591730 
3608.000000	1.592707 
3607.000000	1.593828 
3606.000000	1.595044 
3605.000000	1.596283 
3604.000000	1.597404 
3603.000000	1.598358 
3602.000000	1.599121 
3601.000000	1.599669 
3600.000000	1.600027 
3599.000000	1.600289 
3598.000000	1.600480 
3597.000000	1.600646 
3596.000000	1.600813 
3595.000000	1.600980 
3594.000000	1.601219 
3593.000000	1.601386 
3592.000000	1.601600 
3591.000000	1.601839 
3590.000000	1.602149 
3589.000000	1.602578 
3588.000000	1.603126 
3587.000000	1.603889 
3586.000000	1.604819 
3585.000000	1.605916 
3584.000000	1.607131 
3583.000000	1.608371 
3582.000000	1.609635 
3581.000000	1.610803 
3580.000000	1.611900 
3579.000000	1.612877 
3578.000000	1.613759 
3577.000000	1.614522 
3576.000000	1.615142 
3575.000000	1.615619 
3574.000000	1.616001 
3573.000000	1.616263 
3572.000000	1.616430 
3571.000000	1.616525 
3570.000000	1.616621 
3569.000000	1.616811 
3568.000000	1.617121 
3567.000000	1.617646 
3566.000000	1.618409 
3565.000000	1.619362 
3564.000000	1.620507 
3563.000000	1.621747 
3562.000000	1.622986 
3561.000000	1.624202 
3560.000000	1.625299 
3559.000000	1.626229 
3558.000000	1.626992 
3557.000000	1.627635 
3556.000000	1.628112 
3555.000000	1.628518 
3554.000000	1.628804 
3553.000000	1.629066 
3552.000000	1.629376 
3551.000000	1.629662 
3550.000000	1.629948 
3549.000000	1.630282 
3548.000000	1.630640 
3547.000000	1.630997 
3546.000000	1.631379 
3545.000000	1.631736 
3544.000000	1.632046 
3543.000000	1.632308 
3542.000000	1.632523 
3541.000000	1.632642 
3540.000000	1.632690 
3539.000000	1.632642 
3538.000000	1.632523 
3537.000000	1.632380 
3536.000000	1.632189 
3535.000000	1.631999 
3534.000000	1.631855 
3533.000000	1.631736 
3532.000000	1.631736 
3531.000000	1.631855 
3530.000000	1.632118 
3529.000000	1.632452 
3528.000000	1.632928 
3527.000000	1.633477 
3526.000000	1.634073 
3525.000000	1.634621 
3524.000000	1.635122 
3523.000000	1.635551 
3522.000000	1.635932 
3521.000000	1.636242 
3520.000000	1.636552 
3519.000000	1.636838 
3518.000000	1.637172 
3517.000000	1.637506 
3516.000000	1.637887 
3515.000000	1.638221 
3514.000000	1.638531 
3513.000000	1.638746 
3512.000000	1.638865 
3511.000000	1.638889 
3510.000000	1.638889 
3509.000000	1.638793 
3508.000000	1.638650 
3507.000000	1.638436 
3506.000000	1.638221 
3505.000000	1.637911 
3504.000000	1.637506 
3503.000000	1.637053 
3502.000000	1.636505 
3501.000000	1.635932 
3500.000000	1.635289 
3499.000000	1.634621 
3498.000000	1.633977 
3497.000000	1.633358 
3496.000000	1.632761 
3495.000000	1.632165 
3494.000000	1.631617 
3493.000000	1.631093 
3492.000000	1.630640 
3491.000000	1.630210 
3490.000000	1.629853 
3489.000000	1.629567 
3488.000000	1.629352 
3487.000000	1.629209 
3486.000000	1.629090 
3485.000000	1.629042 
3484.000000	1.628994 
3483.000000	1.628899 
3482.000000	1.628732 
3481.000000	1.628422 
3480.000000	1.628017 
3479.000000	1.627445 
3478.000000	1.626729 
3477.000000	1.625895 
3476.000000	1.624965 
3475.000000	1.624035 
3474.000000	1.623129 
3473.000000	1.622366 
3472.000000	1.621723 
3471.000000	1.621270 
3470.000000	1.620984 
3469.000000	1.620817 
3468.000000	1.620674 
3467.000000	1.620531 
3466.000000	1.620268 
3465.000000	1.619887 
3464.000000	1.619315 
3463.000000	1.618671 
3462.000000	1.617860 
3461.000000	1.616978 
3460.000000	1.616048 
3459.000000	1.615142 
3458.000000	1.614260 
3457.000000	1.613378 
3456.000000	1.612544 
3455.000000	1.611709 
3454.000000	1.610851 
3453.000000	1.609992 
3452.000000	1.609158 
3451.000000	1.608276 
3450.000000	1.607394 
3449.000000	1.606488 
3448.000000	1.605510 
3447.000000	1.604533 
3446.000000	1.603507 
3445.000000	1.602482 
3444.000000	1.601457 
3443.000000	1.600456 
3442.000000	1.599550 
3441.000000	1.598715 
3440.000000	1.598000 
3439.000000	1.597452 
3438.000000	1.597023 
3437.000000	1.596736 
3436.000000	1.596522 
3435.000000	1.596403 
3434.000000	1.596307 
3433.000000	1.596236 
3432.000000	1.596164 
3431.000000	1.596117 
3430.000000	1.596045 
3429.000000	1.595973 
3428.000000	1.595902 
3427.000000	1.595854 
3426.000000	1.595902 
3425.000000	1.596021 
3424.000000	1.596260 
3423.000000	1.596593 
3422.000000	1.596999 
3421.000000	1.597428 
3420.000000	1.597881 
3419.000000	1.598286 
3418.000000	1.598620 
3417.000000	1.598834 
3416.000000	1.598978 
3415.000000	1.599049 
3414.000000	1.599073 
3413.000000	1.599049 
3412.000000	1.599073 
3411.000000	1.599097 
3410.000000	1.599216 
3409.000000	1.599359 
3408.000000	1.599597 
3407.000000	1.599979 
3406.000000	1.600503 
3405.000000	1.601195 
3404.000000	1.601982 
3403.000000	1.602983 
3402.000000	1.604008 
3401.000000	1.605105 
3400.000000	1.606154 
3399.000000	1.607131 
3398.000000	1.607966 
3397.000000	1.608681 
3396.000000	1.609253 
3395.000000	1.609754 
3394.000000	1.610255 
3393.000000	1.610732 
3392.000000	1.611280 
3391.000000	1.611924 
3390.000000	1.612639 
3389.000000	1.613426 
3388.000000	1.614260 
3387.000000	1.615095 
3386.000000	1.615953 
3385.000000	1.616787 
3384.000000	1.617574 
3383.000000	1.618337 
3382.000000	1.619029 
3381.000000	1.619720 
3380.000000	1.620388 
3379.000000	1.621055 
3378.000000	1.621794 
3377.000000	1.622533 
3376.000000	1.623392 
3375.000000	1.624298 
3374.000000	1.625275 
3373.000000	1.626276 
3372.000000	1.627302 
3371.000000	1.628327 
3370.000000	1.629352 
3369.000000	1.630353 
3368.000000	1.631379 
3367.000000	1.632475 
3366.000000	1.633620 
3365.000000	1.634860 
3364.000000	1.636195 
3363.000000	1.637697 
3362.000000	1.639199 
3361.000000	1.640772 
3360.000000	1.642346 
3359.000000	1.643896 
3358.000000	1.645398 
3357.000000	1.646828 
3356.000000	1.648187 
3355.000000	1.649475 
3354.000000	1.650738 
3353.000000	1.651978 
3352.000000	1.653194 
3351.000000	1.654481 
3350.000000	1.655769 
3349.000000	1.657152 
3348.000000	1.658582 
3347.000000	1.660132 
3346.000000	1.661729 
3345.000000	1.663351 
3344.000000	1.665043 
3343.000000	1.666712 
3342.000000	1.668357 
3341.000000	1.669979 
3340.000000	1.671528 
3339.000000	1.673007 
3338.000000	1.674485 
3337.000000	1.675915 
3336.000000	1.677417 
3335.000000	1.678943 
3334.000000	1.680541 
3333.000000	1.682209 
3332.000000	1.683926 
3331.000000	1.685690 
3330.000000	1.687455 
3329.000000	1.689219 
3328.000000	1.690936 
3327.000000	1.692628 
3326.000000	1.694273 
3325.000000	1.695847 
3324.000000	1.697397 
3323.000000	1.698875 
3322.000000	1.700305 
3321.000000	1.701664 
3320.000000	1.703000 
3319.000000	1.704311 
3318.000000	1.705574 
3317.000000	1.706814 
3316.000000	1.708078 
3315.000000	1.709342 
3314.000000	1.710629 
3313.000000	1.711893 
3312.000000	1.713180 
3311.000000	1.714444 
3310.000000	1.715755 
3309.000000	1.717114 
3308.000000	1.718521 
3307.000000	1.720023 
3306.000000	1.721620 
3305.000000	1.723313 
3304.000000	1.725077 
3303.000000	1.726841 
3302.000000	1.728558 
3301.000000	1.730155 
3300.000000	1.731657 
3299.000000	1.732921 
3298.000000	1.734042 
3297.000000	1.735043 
3296.000000	1.735973 
3295.000000	1.736927 
3294.000000	1.737999 
3293.000000	1.739215 
3292.000000	1.740503 
3291.000000	1.741933 
3290.000000	1.743388 
3289.000000	1.744890 
3288.000000	1.746344 
3287.000000	1.747703 
3286.000000	1.749038 
3285.000000	1.750278 
3284.000000	1.751518 
3283.000000	1.752758 
3282.000000	1.754045 
3281.000000	1.755380 
3280.000000	1.756787 
3279.000000	1.758217 
3278.000000	1.759672 
3277.000000	1.761078 
3276.000000	1.762437 
3275.000000	1.763749 
3274.000000	1.764965 
3273.000000	1.766109 
3272.000000	1.767182 
3271.000000	1.768207 
3270.000000	1.769232 
3269.000000	1.770186 
3268.000000	1.771163 
3267.000000	1.772069 
3266.000000	1.772952 
3265.000000	1.773786 
3264.000000	1.774549 
3263.000000	1.775169 
3262.000000	1.775717 
3261.000000	1.776194 
3260.000000	1.776671 
3259.000000	1.777100 
3258.000000	1.777601 
3257.000000	1.778149 
3256.000000	1.778769 
3255.000000	1.779508 
3254.000000	1.780319 
3253.000000	1.781177 
3252.000000	1.782011 
3251.000000	1.782822 
3250.000000	1.783585 
3249.000000	1.784324 
3248.000000	1.784968 
3247.000000	1.785540 
3246.000000	1.786160 
3245.000000	1.786732 
3244.000000	1.787352 
3243.000000	1.787948 
3242.000000	1.788568 
3241.000000	1.789140 
3240.000000	1.789760 
3239.000000	1.790332 
3238.000000	1.790833 
3237.000000	1.791310 
3236.000000	1.791739 
3235.000000	1.792168 
3234.000000	1.792550 
3233.000000	1.792931 
3232.000000	1.793217 
3231.000000	1.793432 
3230.000000	1.793622 
3229.000000	1.793670 
3228.000000	1.793670 
3227.000000	1.793575 
3226.000000	1.793503 
3225.000000	1.793456 
3224.000000	1.793408 
3223.000000	1.793479 
3222.000000	1.793551 
3221.000000	1.793670 
3220.000000	1.793789 
3219.000000	1.793932 
3218.000000	1.794099 
3217.000000	1.794314 
3216.000000	1.794624 
3215.000000	1.795053 
3214.000000	1.795601 
3213.000000	1.796269 
3212.000000	1.797032 
3211.000000	1.797795 
3210.000000	1.798486 
3209.000000	1.799082 
3208.000000	1.799511 
3207.000000	1.799798 
3206.000000	1.799964 
3205.000000	1.800084 
3204.000000	1.800203 
3203.000000	1.800298 
3202.000000	1.800417 
3201.000000	1.800584 
3200.000000	1.800727 
3199.000000	1.800799 
3198.000000	1.800847 
3197.000000	1.800823 
3196.000000	1.800751 
3195.000000	1.800656 
3194.000000	1.800584 
3193.000000	1.800584 
3192.000000	1.800704 
3191.000000	1.800990 
3190.000000	1.801347 
3189.000000	1.801824 
3188.000000	1.802396 
3187.000000	1.802945 
3186.000000	1.803541 
3185.000000	1.804089 
3184.000000	1.804566 
3183.000000	1.804947 
3182.000000	1.805257 
3181.000000	1.805424 
3180.000000	1.805543 
3179.000000	1.805567 
3178.000000	1.805520 
3177.000000	1.805472 
3176.000000	1.805448 
3175.000000	1.805472 
3174.000000	1.805615 
3173.000000	1.805853 
3172.000000	1.806259 
3171.000000	1.806759 
3170.000000	1.807355 
3169.000000	1.808094 
3168.000000	1.808834 
3167.000000	1.809620 
3166.000000	1.810407 
3165.000000	1.811146 
3164.000000	1.811885 
3163.000000	1.812577 
3162.000000	1.813268 
3161.000000	1.813936 
3160.000000	1.814627 
3159.000000	1.815366 
3158.000000	1.816082 
3157.000000	1.816797 
3156.000000	1.817512 
3155.000000	1.818203 
3154.000000	1.818871 
3153.000000	1.819539 
3152.000000	1.820206 
3151.000000	1.820850 
3150.000000	1.821494 
3149.000000	1.822161 
3148.000000	1.822853 
3147.000000	1.823592 
3146.000000	1.824378 
3145.000000	1.825189 
3144.000000	1.826024 
3143.000000	1.826906 
3142.000000	1.827883 
3141.000000	1.828908 
3140.000000	1.829957 
3139.000000	1.831102 
3138.000000	1.832294 
3137.000000	1.833510 
3136.000000	1.834797 
3135.000000	1.836061 
3134.000000	1.837348 
3133.000000	1.838564 
3132.000000	1.839733 
3131.000000	1.840806 
3130.000000	1.841831 
3129.000000	1.842784 
3128.000000	1.843762 
3127.000000	1.844692 
3126.000000	1.845669 
3125.000000	1.846718 
3124.000000	1.847839 
3123.000000	1.849079 
3122.000000	1.850366 
3121.000000	1.851725 
3120.000000	1.853084 
3119.000000	1.854491 
3118.000000	1.855874 
3117.000000	1.857256 
3116.000000	1.858639 
3115.000000	1.860022 
3114.000000	1.861381 
3113.000000	1.862788 
3112.000000	1.864242 
3111.000000	1.865696 
3110.000000	1.867222 
3109.000000	1.868772 
3108.000000	1.870369 
3107.000000	1.872110 
3106.000000	1.873874 
3105.000000	1.875686 
3104.000000	1.877546 
3103.000000	1.879453 
3102.000000	1.881384 
3101.000000	1.883363 
3100.000000	1.885366 
3099.000000	1.887392 
3098.000000	1.889491 
3097.000000	1.891636 
3096.000000	1.893877 
3095.000000	1.896166 
3094.000000	1.898527 
3093.000000	1.900911 
3092.000000	1.903271 
3091.000000	1.905584 
3090.000000	1.907849 
3089.000000	1.910066 
3088.000000	1.912164 
3087.000000	1.914167 
3086.000000	1.916074 
3085.000000	1.917934 
3084.000000	1.919770 
3083.000000	1.921534 
3082.000000	1.923227 
3081.000000	1.924896 
3080.000000	1.926469 
3079.000000	1.927947 
3078.000000	1.929330 
3077.000000	1.930570 
3076.000000	1.931738 
3075.000000	1.932811 
3074.000000	1.933836 
3073.000000	1.934909 
3072.000000	1.936054 
3071.000000	1.937270 
3070.000000	1.938581 
3069.000000	1.940011 
3068.000000	1.941514 
3067.000000	1.943087 
3066.000000	1.944637 
3065.000000	1.946210 
3064.000000	1.947784 
3063.000000	1.949334 
3062.000000	1.950907 
3061.000000	1.952481 
3060.000000	1.954078 
3059.000000	1.955676 
3058.000000	1.957297 
3057.000000	1.958966 
3056.000000	1.960587 
3055.000000	1.962232 
3054.000000	1.963901 
3053.000000	1.965570 
3052.000000	1.967310 
3051.000000	1.969051 
3050.000000	1.970815 
3049.000000	1.972579 
3048.000000	1.974368 
3047.000000	1.976084 
3046.000000	1.977705 
3045.000000	1.979279 
3044.000000	1.980733 
3043.000000	1.982069 
3042.000000	1.983284 
3041.000000	1.984381 
3040.000000	1.985311 
3039.000000	1.986074 
3038.000000	1.986670 
3037.000000	1.987123 
3036.000000	1.987361 
3035.000000	1.987433 
3034.000000	1.987290 
3033.000000	1.986980 
3032.000000	1.986455 
3031.000000	1.985788 
3030.000000	1.984930 
3029.000000	1.983904 
3028.000000	1.982641 
3027.000000	1.981234 
3026.000000	1.979684 
3025.000000	1.978015 
3024.000000	1.976299 
3023.000000	1.974630 
3022.000000	1.973176 
3021.000000	1.972031 
3020.000000	1.971387 
3019.000000	1.971387 
3018.000000	1.972174 
3017.000000	1.973795 
3016.000000	1.976323 
3015.000000	1.979684 
3014.000000	1.983809 
3013.000000	1.988554 
3012.000000	1.993727 
3011.000000	1.999163 
3010.000000	2.004599 
3009.000000	2.009892 
3008.000000	2.014899 
3007.000000	2.019453 
3006.000000	2.023482 
3005.000000	2.026963 
3004.000000	2.029824 
3003.000000	2.032160 
3002.000000	2.033948 
3001.000000	2.035307 
3000.000000	2.036237 
2999.000000	2.036881 
2998.000000	2.037310 
2997.000000	2.037620 
2996.000000	2.037835 
2995.000000	2.038049 
2994.000000	2.038240 
2993.000000	2.038455 
2992.000000	2.038598 
2991.000000	2.038574 
2990.000000	2.038478 
2989.000000	2.038168 
2988.000000	2.037668 
2987.000000	2.036976 
2986.000000	2.036046 
2985.000000	2.034926 
2984.000000	2.033567 
2983.000000	2.032017 
2982.000000	2.030229 
2981.000000	2.028131 
2980.000000	2.025699 
2979.000000	2.022886 
2978.000000	2.019643 
2977.000000	2.015900 
2976.000000	2.011704 
2975.000000	2.006936 
2974.000000	2.001762 
2973.000000	1.996159 
2972.000000	1.990246 
2971.000000	1.984143 
2970.000000	1.977944 
2969.000000	1.971864 
2968.000000	1.965904 
2967.000000	1.960206 
2966.000000	1.954936 
2965.000000	1.950144 
2964.000000	1.945900 
2963.000000	1.942253 
2962.000000	1.939225 
2961.000000	1.936817 
2960.000000	1.934981 
2959.000000	1.933670 
2958.000000	1.932764 
2957.000000	1.932144 
2956.000000	1.931738 
2955.000000	1.931357 
2954.000000	1.930856 
2953.000000	1.930046 
2952.000000	1.928830 
2951.000000	1.927089 
2950.000000	1.924705 
2949.000000	1.921606 
2948.000000	1.917719 
2947.000000	1.913070 
2946.000000	1.907539 
2945.000000	1.901245 
2944.000000	1.894259 
2943.000000	1.886606 
2942.000000	1.878333 
2941.000000	1.869702 
2940.000000	1.860737 
2939.000000	1.851654 
2938.000000	1.842522 
2937.000000	1.833534 
2936.000000	1.824831 
2935.000000	1.816415 
2934.000000	1.808381 
2933.000000	1.800823 
2932.000000	1.793813 
2931.000000	1.787447 
2930.000000	1.781868 
2929.000000	1.777291 
2928.000000	1.773953 
2927.000000	1.772117 
2926.000000	1.772069 
2925.000000	1.773977 
2924.000000	1.777839 
2923.000000	1.783704 
2922.000000	1.791453 
2921.000000	1.800847 
2920.000000	1.811552 
2919.000000	1.823210 
2918.000000	1.835441 
2917.000000	1.847887 
2916.000000	1.860189 
2915.000000	1.872062 
2914.000000	1.883339 
2913.000000	1.893830 
2912.000000	1.903462 
2911.000000	1.912164 
2910.000000	1.920008 
2909.000000	1.927089 
2908.000000	1.933407 
2907.000000	1.939177 
2906.000000	1.944446 
2905.000000	1.949357 
2904.000000	1.953911 
2903.000000	1.958203 
2902.000000	1.962232 
2901.000000	1.966023 
2900.000000	1.969575 
2899.000000	1.972937 
2898.000000	1.976084 
2897.000000	1.979064 
2896.000000	1.981949 
2895.000000	1.984786 
2894.000000	1.987600 
2893.000000	1.990413 
2892.000000	1.993250 
2891.000000	1.996088 
2890.000000	1.998877 
2889.000000	2.001619 
2888.000000	2.004265 
2887.000000	2.006697 
2886.000000	2.008891 
2885.000000	2.010822 
2884.000000	2.012467 
2883.000000	2.013778 
2882.000000	2.014732 
2881.000000	2.015328 
2880.000000	2.015519 
2879.000000	2.015209 
2878.000000	2.014350 
2877.000000	2.012825 
2876.000000	2.010560 
2875.000000	2.007460 
2874.000000	2.003431 
2873.000000	1.998400 
2872.000000	1.992344 
2871.000000	1.985311 
2870.000000	1.977348 
2869.000000	1.968693 
2868.000000	1.959514 
2867.000000	1.950192 
2866.000000	1.941132 
2865.000000	1.932764 
2864.000000	1.925516 
2863.000000	1.919865 
2862.000000	1.916003 
2861.000000	1.914310 
2860.000000	1.914763 
2859.000000	1.917362 
2858.000000	1.921939 
2857.000000	1.928281 
2856.000000	1.936054 
2855.000000	1.944899 
2854.000000	1.954507 
2853.000000	1.964640 
2852.000000	1.975035 
2851.000000	1.985502 
2850.000000	1.995897 
2849.000000	2.006101 
2848.000000	2.016019 
2847.000000	2.025580 
2846.000000	2.034664 
2845.000000	2.043294 
2844.000000	2.051401 
2843.000000	2.058982 
2842.000000	2.065920 
2841.000000	2.072381 
2840.000000	2.078270 
2839.000000	2.083659 
2838.000000	2.088522 
2837.000000	2.093005 
2836.000000	2.097129 
2835.000000	2.100992 
2834.000000	2.104568 
2833.000000	2.107954 
2832.000000	2.111220 
2831.000000	2.114415 
2830.000000	2.117514 
2829.000000	2.120614 
2828.000000	2.123689 
2827.000000	2.126789 
2826.000000	2.129960 
2825.000000	2.133154 
2824.000000	2.136325 
2823.000000	2.139496 
2822.000000	2.142572 
2821.000000	2.145504 
2820.000000	2.148270 
2819.000000	2.150869 
2818.000000	2.153301 
2817.000000	2.155542 
2816.000000	2.157664 
2815.000000	2.159714 
2814.000000	2.161765 
2813.000000	2.163767 
2812.000000	2.165818 
2811.000000	2.167916 
2810.000000	2.170062 
2809.000000	2.172255 
2808.000000	2.174448 
2807.000000	2.176713 
2806.000000	2.178955 
2805.000000	2.181196 
2804.000000	2.183341 
2803.000000	2.185463 
2802.000000	2.187466 
2801.000000	2.189373 
2800.000000	2.191185 
2799.000000	2.192926 
2798.000000	2.194595 
2797.000000	2.196240 
2796.000000	2.197790 
2795.000000	2.199363 
2794.000000	2.200937 
2793.000000	2.202534 
2792.000000	2.204132 
2791.000000	2.205777 
2790.000000	2.207422 
2789.000000	2.209115 
2788.000000	2.210831 
2787.000000	2.212595 
2786.000000	2.214360 
2785.000000	2.216172 
2784.000000	2.218031 
2783.000000	2.219939 
2782.000000	2.221918 
2781.000000	2.223992 
2780.000000	2.226161 
2779.000000	2.228426 
2778.000000	2.230715 
2777.000000	2.233004 
2776.000000	2.235198 
2775.000000	2.237272 
2774.000000	2.239108 
2773.000000	2.240705 
2772.000000	2.242064 
2771.000000	2.243208 
2770.000000	2.244162 
2769.000000	2.245044 
2768.000000	2.245831 
2767.000000	2.246642 
2766.000000	2.247452 
2765.000000	2.248334 
2764.000000	2.249264 
2763.000000	2.250218 
2762.000000	2.251267 
2761.000000	2.252364 
2760.000000	2.253484 
2759.000000	2.254605 
2758.000000	2.255678 
2757.000000	2.256679 
2756.000000	2.257609 
2755.000000	2.258396 
2754.000000	2.259016 
2753.000000	2.259469 
2752.000000	2.259802 
2751.000000	2.260041 
2750.000000	2.260208 
2749.000000	2.260398 
2748.000000	2.260637 
2747.000000	2.260994 
2746.000000	2.261447 
2745.000000	2.262020 
2744.000000	2.262687 
2743.000000	2.263402 
2742.000000	2.264094 
2741.000000	2.264714 
2740.000000	2.265238 
2739.000000	2.265620 
2738.000000	2.265882 
2737.000000	2.266025 
2736.000000	2.266049 
2735.000000	2.266001 
2734.000000	2.265906 
2733.000000	2.265787 
2732.000000	2.265620 
2731.000000	2.265477 
2730.000000	2.265286 
2729.000000	2.265119 
2728.000000	2.264928 
2727.000000	2.264738 
2726.000000	2.264475 
2725.000000	2.264165 
2724.000000	2.263808 
2723.000000	2.263355 
2722.000000	2.262878 
2721.000000	2.262377 
2720.000000	2.261924 
2719.000000	2.261543 
2718.000000	2.261257 
2717.000000	2.261042 
2716.000000	2.260923 
2715.000000	2.260875 
2714.000000	2.260851 
2713.000000	2.260780 
2712.000000	2.260637 
2711.000000	2.260446 
2710.000000	2.260160 
2709.000000	2.259802 
2708.000000	2.259397 
2707.000000	2.258920 
2706.000000	2.258419 
2705.000000	2.257871 
2704.000000	2.257299 
2703.000000	2.256727 
2702.000000	2.256131 
2701.000000	2.255535 
2700.000000	2.254915 
2699.000000	2.254295 
2698.000000	2.253699 
2697.000000	2.253127 
2696.000000	2.252578 
2695.000000	2.252054 
2694.000000	2.251601 
2693.000000	2.251219 
2692.000000	2.250885 
2691.000000	2.250576 
2690.000000	2.250289 
2689.000000	2.249979 
2688.000000	2.249598 
2687.000000	2.249121 
2686.000000	2.248597 
2685.000000	2.248001 
2684.000000	2.247357 
2683.000000	2.246689 
2682.000000	2.246022 
2681.000000	2.245354 
2680.000000	2.244663 
2679.000000	2.243924 
2678.000000	2.243137 
2677.000000	2.242255 
2676.000000	2.241253 
2675.000000	2.240157 
2674.000000	2.239036 
2673.000000	2.237892 
2672.000000	2.236795 
2671.000000	2.235794 
2670.000000	2.234959 
2669.000000	2.234244 
2668.000000	2.233648 
2667.000000	2.233195 
2666.000000	2.232837 
2665.000000	2.232551 
2664.000000	2.232241 
2663.000000	2.231907 
2662.000000	2.231574 
2661.000000	2.231192 
2660.000000	2.230763 
2659.000000	2.230286 
2658.000000	2.229809 
2657.000000	2.229356 
2656.000000	2.228903 
2655.000000	2.228498 
2654.000000	2.228116 
2653.000000	2.227783 
2652.000000	2.227520 
2651.000000	2.227258 
2650.000000	2.227115 
2649.000000	2.226972 
2648.000000	2.226901 
2647.000000	2.226877 
2646.000000	2.226877 
2645.000000	2.226948 
2644.000000	2.227020 
2643.000000	2.227139 
2642.000000	2.227258 
2641.000000	2.227354 
2640.000000	2.227449 
2639.000000	2.227473 
2638.000000	2.227497 
2637.000000	2.227449 
2636.000000	2.227401 
2635.000000	2.227354 
2634.000000	2.227306 
2633.000000	2.227258 
2632.000000	2.227258 
2631.000000	2.227282 
2630.000000	2.227306 
2629.000000	2.227377 
2628.000000	2.227497 
2627.000000	2.227592 
2626.000000	2.227711 
2625.000000	2.227783 
2624.000000	2.227878 
2623.000000	2.227854 
2622.000000	2.227783 
2621.000000	2.227640 
2620.000000	2.227473 
2619.000000	2.227306 
2618.000000	2.227139 
2617.000000	2.227091 
2616.000000	2.227163 
2615.000000	2.227330 
2614.000000	2.227616 
2613.000000	2.228045 
2612.000000	2.228569 
2611.000000	2.229142 
2610.000000	2.229762 
2609.000000	2.230429 
2608.000000	2.231097 
2607.000000	2.231740 
2606.000000	2.232360 
2605.000000	2.232956 
2604.000000	2.233505 
2603.000000	2.233934 
2602.000000	2.234244 
2601.000000	2.234506 
2600.000000	2.234721 
2599.000000	2.234888 
2598.000000	2.235102 
2597.000000	2.235341 
2596.000000	2.235674 
2595.000000	2.236175 
2594.000000	2.236843 
2593.000000	2.237677 
2592.000000	2.238678 
2591.000000	2.239823 
2590.000000	2.241110 
2589.000000	2.242517 
2588.000000	2.244019 
2587.000000	2.245569 
2586.000000	2.247166 
2585.000000	2.248811 
2584.000000	2.250409 
2583.000000	2.252030 
2582.000000	2.253651 
2581.000000	2.255225 
2580.000000	2.256774 
2579.000000	2.258276 
2578.000000	2.259731 
2577.000000	2.261137 
2576.000000	2.262544 
2575.000000	2.263879 
2574.000000	2.265191 
2573.000000	2.266502 
2572.000000	2.267813 
2571.000000	2.269124 
2570.000000	2.270483 
2569.000000	2.271795 
2568.000000	2.273106 
2567.000000	2.274441 
2566.000000	2.275753 
2565.000000	2.277040 
2564.000000	2.278327 
2563.000000	2.279639 
2562.000000	2.280998 
2561.000000	2.282381 
2560.000000	2.283811 
2559.000000	2.285313 
2558.000000	2.286839 
2557.000000	2.288365 
2556.000000	2.289867 
2555.000000	2.291369 
2554.000000	2.292823 
2553.000000	2.294230 
2552.000000	2.295565 
2551.000000	2.296853 
2550.000000	2.298021 
2549.000000	2.299118 
2548.000000	2.300119 
2547.000000	2.301001 
2546.000000	2.301836 
2545.000000	2.302670 
2544.000000	2.303481 
2543.000000	2.304315 
2542.000000	2.305245 
2541.000000	2.306222 
2540.000000	2.307319 
2539.000000	2.308464 
2538.000000	2.309656 
2537.000000	2.310848 
2536.000000	2.311921 
2535.000000	2.312874 
2534.000000	2.313709 
2533.000000	2.314400 
2532.000000	2.314949 
2531.000000	2.315425 
2530.000000	2.315878 
2529.000000	2.316427 
2528.000000	2.317094 
2527.000000	2.317976 
2526.000000	2.319002 
2525.000000	2.320241 
2524.000000	2.321600 
2523.000000	2.323031 
2522.000000	2.324414 
2521.000000	2.325677 
2520.000000	2.326798 
2519.000000	2.327704 
2518.000000	2.328443 
2517.000000	2.328991 
2516.000000	2.329444 
2515.000000	2.329874 
2514.000000	2.330303 
2513.000000	2.330780 
2512.000000	2.331304 
2511.000000	2.331876 
2510.000000	2.332401 
2509.000000	2.332901 
2508.000000	2.333283 
2507.000000	2.333545 
2506.000000	2.333664 
2505.000000	2.333688 
2504.000000	2.333641 
2503.000000	2.333569 
2502.000000	2.333474 
2501.000000	2.333402 
2500.000000	2.333354 
2499.000000	2.333283 
2498.000000	2.333235 
2497.000000	2.333188 
2496.000000	2.333092 
2495.000000	2.332949 
2494.000000	2.332782 
2493.000000	2.332568 
2492.000000	2.332329 
2491.000000	2.332139 
2490.000000	2.331924 
2489.000000	2.331709 
2488.000000	2.331495 
2487.000000	2.331304 
2486.000000	2.331113 
2485.000000	2.330923 
2484.000000	2.330780 
2483.000000	2.330636 
2482.000000	2.330517 
2481.000000	2.330398 
2480.000000	2.330327 
2479.000000	2.330231 
2478.000000	2.330040 
2477.000000	2.329802 
2476.000000	2.329468 
2475.000000	2.328991 
2474.000000	2.328443 
2473.000000	2.327704 
2472.000000	2.326869 
2471.000000	2.325940 
2470.000000	2.324986 
2469.000000	2.323985 
2468.000000	2.323007 
2467.000000	2.322125 
2466.000000	2.321314 
2465.000000	2.320528 
2464.000000	2.319765 
2463.000000	2.318978 
2462.000000	2.318096 
2461.000000	2.317094 
2460.000000	2.315974 
2459.000000	2.314758 
2458.000000	2.313399 
2457.000000	2.312040 
2456.000000	2.310681 
2455.000000	2.309393 
2454.000000	2.308201 
2453.000000	2.307105 
2452.000000	2.306127 
2451.000000	2.305173 
2450.000000	2.304267 
2449.000000	2.303314 
2448.000000	2.302360 
2447.000000	2.301335 
2446.000000	2.300238 
2445.000000	2.299141 
2444.000000	2.297997 
2443.000000	2.296876 
2442.000000	2.295708 
2441.000000	2.294540 
2440.000000	2.293348 
2439.000000	2.292156 
2438.000000	2.290987 
2437.000000	2.289843 
2436.000000	2.288746 
2435.000000	2.287721 
2434.000000	2.286815 
2433.000000	2.285981 
2432.000000	2.285242 
2431.000000	2.284574 
2430.000000	2.283954 
2429.000000	2.283334 
2428.000000	2.282691 
2427.000000	2.281928 
2426.000000	2.281069 
2425.000000	2.280116 
2424.000000	2.279019 
2423.000000	2.277874 
2422.000000	2.276682 
2421.000000	2.275538 
2420.000000	2.274489 
2419.000000	2.273583 
2418.000000	2.272796 
2417.000000	2.272152 
2416.000000	2.271580 
2415.000000	2.271008 
2414.000000	2.270412 
2413.000000	2.269673 
2412.000000	2.268767 
2411.000000	2.267742 
2410.000000	2.266621 
2409.000000	2.265453 
2408.000000	2.264308 
2407.000000	2.263283 
2406.000000	2.262401 
2405.000000	2.261734 
2404.000000	2.261233 
2403.000000	2.260875 
2402.000000	2.260589 
2401.000000	2.260327 
2400.000000	2.260017 
2399.000000	2.259612 
2398.000000	2.259087 
2397.000000	2.258491 
2396.000000	2.257847 
2395.000000	2.257180 
2394.000000	2.256488 
2393.000000	2.255892 
2392.000000	2.255368 
2391.000000	2.255010 
2390.000000	2.254748 
2389.000000	2.254629 
2388.000000	2.254605 
2387.000000	2.254629 
2386.000000	2.254652 
2385.000000	2.254629 
2384.000000	2.254533 
2383.000000	2.254295 
2382.000000	2.253913 
2381.000000	2.253317 
2380.000000	2.252578 
2379.000000	2.251672 
2378.000000	2.250647 
2377.000000	2.249503 
2376.000000	2.248311 
2375.000000	2.247071 
2374.000000	2.245831 
2373.000000	2.244663 
2372.000000	2.243471 
2371.000000	2.242374 
2370.000000	2.241396 
2369.000000	2.240514 
2368.000000	2.239799 
2367.000000	2.239298 
2366.000000	2.238988 
2365.000000	2.238941 
2364.000000	2.239179 
2363.000000	2.239727 
2362.000000	2.240538 
2361.000000	2.241659 
2360.000000	2.243018 
2359.000000	2.244639 
2358.000000	2.246451 
2357.000000	2.248454 
2356.000000	2.250623 
2355.000000	2.252936 
2354.000000	2.255296 
2353.000000	2.257680 
2352.000000	2.259969 
2351.000000	2.262187 
2350.000000	2.264165 
2349.000000	2.265906 
2348.000000	2.267313 
2347.000000	2.268338 
2346.000000	2.269101 
2345.000000	2.269673 
2344.000000	2.270102 
2343.000000	2.270460 
2342.000000	2.270936 
2341.000000	2.271556 
2340.000000	2.272367 
2339.000000	2.273344 
2338.000000	2.274513 
2337.000000	2.275824 
2336.000000	2.277231 
2335.000000	2.278661 
2334.000000	2.280139 
2333.000000	2.281665 
2332.000000	2.283239 
2331.000000	2.284932 
2330.000000	2.286744 
2329.000000	2.288675 
2328.000000	2.290678 
2327.000000	2.292776 
2326.000000	2.294969 
2325.000000	2.297210 
2324.000000	2.299404 
2323.000000	2.301597 
2322.000000	2.303743 
2321.000000	2.305841 
2320.000000	2.307891 
2319.000000	2.309894 
2318.000000	2.311801 
2317.000000	2.313685 
2316.000000	2.315521 
2315.000000	2.317357 
2314.000000	2.319192 
2313.000000	2.321052 
2312.000000	2.322959 
2311.000000	2.324938 
2310.000000	2.326989 
2309.000000	2.329063 
2308.000000	2.331161 
2307.000000	2.333211 
2306.000000	2.335238 
2305.000000	2.337145 
2304.000000	2.338957 
2303.000000	2.340626 
2302.000000	2.342176 
2301.000000	2.343702 
2300.000000	2.345156 
2299.000000	2.346587 
2298.000000	2.348017 
2297.000000	2.349448 
2296.000000	2.350902 
2295.000000	2.352380 
2294.000000	2.353930 
2293.000000	2.355408 
2292.000000	2.356886 
2291.000000	2.358341 
2290.000000	2.359700 
2289.000000	2.361059 
2288.000000	2.362346 
2287.000000	2.363586 
2286.000000	2.364873 
2285.000000	2.366137 
2284.000000	2.367472 
2283.000000	2.368855 
2282.000000	2.370214 
2281.000000	2.371549 
2280.000000	2.372765 
2279.000000	2.373838 
2278.000000	2.374744 
2277.000000	2.375483 
2276.000000	2.376031 
2275.000000	2.376437 
2274.000000	2.376794 
2273.000000	2.377057 
2272.000000	2.377319 
2271.000000	2.377581 
2270.000000	2.377939 
2269.000000	2.378296 
2268.000000	2.378702 
2267.000000	2.379202 
2266.000000	2.379775 
2265.000000	2.380442 
2264.000000	2.381205 
2263.000000	2.382087 
2262.000000	2.383065 
2261.000000	2.384090 
2260.000000	2.385115 
2259.000000	2.386093 
2258.000000	2.386999 
2257.000000	2.387785 
2256.000000	2.388405 
2255.000000	2.388834 
2254.000000	2.389073 
2253.000000	2.389192 
2252.000000	2.389192 
2251.000000	2.389168 
2250.000000	2.389073 
2249.000000	2.388978 
2248.000000	2.388858 
2247.000000	2.388739 
2246.000000	2.388620 
2245.000000	2.388453 
2244.000000	2.388262 
2243.000000	2.387976 
2242.000000	2.387690 
2241.000000	2.387404 
2240.000000	2.387118 
2239.000000	2.386903 
2238.000000	2.386736 
2237.000000	2.386689 
2236.000000	2.386665 
2235.000000	2.386665 
2234.000000	2.386617 
2233.000000	2.386498 
2232.000000	2.386260 
2231.000000	2.385902 
2230.000000	2.385473 
2229.000000	2.384924 
2228.000000	2.384376 
2227.000000	2.383875 
2226.000000	2.383399 
2225.000000	2.382969 
2224.000000	2.382612 
2223.000000	2.382230 
2222.000000	2.381873 
2221.000000	2.381467 
2220.000000	2.381014 
2219.000000	2.380490 
2218.000000	2.379941 
2217.000000	2.379345 
2216.000000	2.378773 
2215.000000	2.378153 
2214.000000	2.377533 
2213.000000	2.376866 
2212.000000	2.376174 
2211.000000	2.375364 
2210.000000	2.374482 
2209.000000	2.373552 
2208.000000	2.372527 
2207.000000	2.371454 
2206.000000	2.370381 
2205.000000	2.369308 
2204.000000	2.368259 
2203.000000	2.367258 
2202.000000	2.366280 
2201.000000	2.365326 
2200.000000	2.364468 
2199.000000	2.363681 
2198.000000	2.362918 
2197.000000	2.362275 
2196.000000	2.361702 
2195.000000	2.361154 
2194.000000	2.360630 
2193.000000	2.360033 
2192.000000	2.359437 
2191.000000	2.358722 
2190.000000	2.357959 
2189.000000	2.357125 
2188.000000	2.356266 
2187.000000	2.355384 
2186.000000	2.354502 
2185.000000	2.353692 
2184.000000	2.352905 
2183.000000	2.352142 
2182.000000	2.351403 
2181.000000	2.350664 
2180.000000	2.349948 
2179.000000	2.349233 
2178.000000	2.348518 
2177.000000	2.347850 
2176.000000	2.347183 
2175.000000	2.346515 
2174.000000	2.345800 
2173.000000	2.345085 
2172.000000	2.344346 
2171.000000	2.343583 
2170.000000	2.342796 
2169.000000	2.342033 
2168.000000	2.341389 
2167.000000	2.340865 
2166.000000	2.340579 
2165.000000	2.340483 
2164.000000	2.340531 
2163.000000	2.340698 
2162.000000	2.340960 
2161.000000	2.341222 
2160.000000	2.341461 
2159.000000	2.341628 
2158.000000	2.341723 
2157.000000	2.341771 
2156.000000	2.341747 
2155.000000	2.341699 
2154.000000	2.341699 
2153.000000	2.341699 
2152.000000	2.341771 
2151.000000	2.341818 
2150.000000	2.341866 
2149.000000	2.341890 
2148.000000	2.341914 
2147.000000	2.341866 
2146.000000	2.341794 
2145.000000	2.341651 
2144.000000	2.341508 
2143.000000	2.341341 
2142.000000	2.341198 
2141.000000	2.341079 
2140.000000	2.341008 
2139.000000	2.341008 
2138.000000	2.341055 
2137.000000	2.341151 
2136.000000	2.341246 
2135.000000	2.341365 
2134.000000	2.341437 
2133.000000	2.341461 
2132.000000	2.341413 
2131.000000	2.341270 
2130.000000	2.341103 
2129.000000	2.340841 
2128.000000	2.340579 
2127.000000	2.340292 
2126.000000	2.340078 
2125.000000	2.339911 
2124.000000	2.339887 
2123.000000	2.339935 
2122.000000	2.340102 
2121.000000	2.340364 
2120.000000	2.340722 
2119.000000	2.341103 
2118.000000	2.341485 
2117.000000	2.341866 
2116.000000	2.342152 
2115.000000	2.342367 
2114.000000	2.342510 
2113.000000	2.342581 
2112.000000	2.342581 
2111.000000	2.342534 
2110.000000	2.342462 
2109.000000	2.342391 
2108.000000	2.342319 
2107.000000	2.342295 
2106.000000	2.342367 
2105.000000	2.342557 
2104.000000	2.342772 
2103.000000	2.343130 
2102.000000	2.343559 
2101.000000	2.344036 
2100.000000	2.344560 
2099.000000	2.344989 
2098.000000	2.345347 
2097.000000	2.345538 
2096.000000	2.345609 
2095.000000	2.345561 
2094.000000	2.345418 
2093.000000	2.345228 
2092.000000	2.345061 
2091.000000	2.344965 
2090.000000	2.344965 
2089.000000	2.345132 
2088.000000	2.345490 
2087.000000	2.346038 
2086.000000	2.346754 
2085.000000	2.347660 
2084.000000	2.348661 
2083.000000	2.349781 
2082.000000	2.350926 
2081.000000	2.352070 
2080.000000	2.353215 
2079.000000	2.354335 
2078.000000	2.355408 
2077.000000	2.356481 
2076.000000	2.357530 
2075.000000	2.358675 
2074.000000	2.359914 
2073.000000	2.361297 
2072.000000	2.362847 
2071.000000	2.364587 
2070.000000	2.366495 
2069.000000	2.368545 
2068.000000	2.370667 
2067.000000	2.372860 
2066.000000	2.375030 
2065.000000	2.377152 
2064.000000	2.379250 
2063.000000	2.381348 
2062.000000	2.383399 
2061.000000	2.385425 
2060.000000	2.387475 
2059.000000	2.389597 
2058.000000	2.391743 
2057.000000	2.393937 
2056.000000	2.396178 
2055.000000	2.398419 
2054.000000	2.400708 
2053.000000	2.402997 
2052.000000	2.405238 
2051.000000	2.407455 
2050.000000	2.409648 
2049.000000	2.411770 
2048.000000	2.413821 
2047.000000	2.415823 
2046.000000	2.417755 
2045.000000	2.419614 
2044.000000	2.421450 
2043.000000	2.423238 
2042.000000	2.424979 
2041.000000	2.426648 
2040.000000	2.428245 
2039.000000	2.429747 
2038.000000	2.431130 
2037.000000	2.432465 
2036.000000	2.433729 
2035.000000	2.434945 
2034.000000	2.436137 
2033.000000	2.437376 
2032.000000	2.438640 
2031.000000	2.439975 
2030.000000	2.441358 
2029.000000	2.442765 
2028.000000	2.444171 
2027.000000	2.445507 
2026.000000	2.446746 
2025.000000	2.447843 
2024.000000	2.448844 
2023.000000	2.449679 
2022.000000	2.450370 
2021.000000	2.451038 
2020.000000	2.451610 
2019.000000	2.452230 
2018.000000	2.452874 
2017.000000	2.453589 
2016.000000	2.454376 
2015.000000	2.455282 
2014.000000	2.456164 
2013.000000	2.457070 
2012.000000	2.457904 
2011.000000	2.458620 
2010.000000	2.459192 
2009.000000	2.459621 
2008.000000	2.459907 
2007.000000	2.460050 
2006.000000	2.460122 
2005.000000	2.460169 
2004.000000	2.460217 
2003.000000	2.460312 
2002.000000	2.460408 
2001.000000	2.460575 
2000.000000	2.460741 
1999.000000	2.460885 
1998.000000	2.461004 
1997.000000	2.461075 
1996.000000	2.461099 
1995.000000	2.460980 
1994.000000	2.460741 
1993.000000	2.460336 
1992.000000	2.459764 
1991.000000	2.459073 
1990.000000	2.458262 
1989.000000	2.457451 
1988.000000	2.456617 
1987.000000	2.455878 
1986.000000	2.455210 
1985.000000	2.454686 
1984.000000	2.454257 
1983.000000	2.453899 
1982.000000	2.453541 
1981.000000	2.453136 
1980.000000	2.452659 
1979.000000	2.452063 
1978.000000	2.451276 
1977.000000	2.450442 
1976.000000	2.449536 
1975.000000	2.448558 
1974.000000	2.447605 
1973.000000	2.446675 
1972.000000	2.445721 
1971.000000	2.444887 
1970.000000	2.444052 
1969.000000	2.443170 
1968.000000	2.442288 
1967.000000	2.441406 
1966.000000	2.440500 
1965.000000	2.439546 
1964.000000	2.438569 
1963.000000	2.437591 
1962.000000	2.436590 
1961.000000	2.435564 
1960.000000	2.434515 
1959.000000	2.433514 
1958.000000	2.432513 
1957.000000	2.431488 
1956.000000	2.430534 
1955.000000	2.429580 
1954.000000	2.428698 
1953.000000	2.427887 
1952.000000	2.427101 
1951.000000	2.426433 
1950.000000	2.425765 
1949.000000	2.425146 
1948.000000	2.424526 
1947.000000	2.423930 
1946.000000	2.423357 
1945.000000	2.422761 
1944.000000	2.422189 
1943.000000	2.421569 
1942.000000	2.420973 
1941.000000	2.420330 
1940.000000	2.419638 
1939.000000	2.418851 
1938.000000	2.417969 
1937.000000	2.416992 
1936.000000	2.415966 
1935.000000	2.414894 
1934.000000	2.413773 
1933.000000	2.412652 
1932.000000	2.411580 
1931.000000	2.410507 
1930.000000	2.409458 
1929.000000	2.408361 
1928.000000	2.407193 
1927.000000	2.406001 
1926.000000	2.404713 
1925.000000	2.403354 
1924.000000	2.401947 
1923.000000	2.400565 
1922.000000	2.399182 
1921.000000	2.397894 
1920.000000	2.396726 
1919.000000	2.395701 
1918.000000	2.394795 
1917.000000	2.393984 
1916.000000	2.393269 
1915.000000	2.392554 
1914.000000	2.391815 
1913.000000	2.391004 
1912.000000	2.390098 
1911.000000	2.389049 
1910.000000	2.387881 
1909.000000	2.386689 
1908.000000	2.385401 
1907.000000	2.384114 
1906.000000	2.382898 
1905.000000	2.381777 
1904.000000	2.380728 
1903.000000	2.379846 
1902.000000	2.379059 
1901.000000	2.378392 
1900.000000	2.377820 
1899.000000	2.377319 
1898.000000	2.376842 
1897.000000	2.376389 
1896.000000	2.375936 
1895.000000	2.375483 
1894.000000	2.375030 
1893.000000	2.374601 
1892.000000	2.374196 
1891.000000	2.373862 
1890.000000	2.373671 
1889.000000	2.373623 
1888.000000	2.373743 
1887.000000	2.374076 
1886.000000	2.374601 
1885.000000	2.375292 
1884.000000	2.376127 
1883.000000	2.377033 
1882.000000	2.377939 
1881.000000	2.378797 
1880.000000	2.379560 
1879.000000	2.380156 
1878.000000	2.380585 
1877.000000	2.380824 
1876.000000	2.380919 
1875.000000	2.380895 
1874.000000	2.380752 
1873.000000	2.380537 
1872.000000	2.380347 
1871.000000	2.380299 
1870.000000	2.380442 
1869.000000	2.380776 
1868.000000	2.381420 
1867.000000	2.382326 
1866.000000	2.383494 
1865.000000	2.384853 
1864.000000	2.386307 
1863.000000	2.387785 
1862.000000	2.389192 
1861.000000	2.390456 
1860.000000	2.391600 
1859.000000	2.392625 
1858.000000	2.393507 
1857.000000	2.394223 
1856.000000	2.394890 
1855.000000	2.395462 
1854.000000	2.395939 
1853.000000	2.396249 
1852.000000	2.396392 
1851.000000	2.396345 
1850.000000	2.396106 
1849.000000	2.395772 
1848.000000	2.395391 
1847.000000	2.395105 
1846.000000	2.395033 
1845.000000	2.395319 
1844.000000	2.396059 
1843.000000	2.397227 
1842.000000	2.398800 
1841.000000	2.400732 
1840.000000	2.402758 
1839.000000	2.404785 
1838.000000	2.406644 
1837.000000	2.408218 
1836.000000	2.409434 
1835.000000	2.410316 
1834.000000	2.410888 
1833.000000	2.411246 
1832.000000	2.411508 
1831.000000	2.411794 
1830.000000	2.412199 
1829.000000	2.412748 
1828.000000	2.413487 
1827.000000	2.414441 
1826.000000	2.415585 
1825.000000	2.416849 
1824.000000	2.418231 
1823.000000	2.419662 
1822.000000	2.421069 
1821.000000	2.422451 
1820.000000	2.423763 
1819.000000	2.425003 
1818.000000	2.426195 
1817.000000	2.427244 
1816.000000	2.428269 
1815.000000	2.429246 
1814.000000	2.430152 
1813.000000	2.431082 
1812.000000	2.431941 
1811.000000	2.432799 
1810.000000	2.433562 
1809.000000	2.434253 
1808.000000	2.434802 
1807.000000	2.435255 
1806.000000	2.435517 
1805.000000	2.435660 
1804.000000	2.435708 
1803.000000	2.435636 
1802.000000	2.435469 
1801.000000	2.435231 
1800.000000	2.434897 
1799.000000	2.434444 
1798.000000	2.433872 
1797.000000	2.433228 
1796.000000	2.432584 
1795.000000	2.431964 
1794.000000	2.431488 
1793.000000	2.431249 
1792.000000	2.431297 
1791.000000	2.431631 
1790.000000	2.432203 
1789.000000	2.432918 
1788.000000	2.433633 
1787.000000	2.434301 
1786.000000	2.434730 
1785.000000	2.434873 
1784.000000	2.434706 
1783.000000	2.434229 
1782.000000	2.433395 
1781.000000	2.432203 
1780.000000	2.430701 
1779.000000	2.428865 
1778.000000	2.426743 
1777.000000	2.424407 
1776.000000	2.421998 
1775.000000	2.419638 
1774.000000	2.417588 
1773.000000	2.415943 
1772.000000	2.414798 
1771.000000	2.414202 
1770.000000	2.414107 
1769.000000	2.414393 
1768.000000	2.414846 
1767.000000	2.415299 
1766.000000	2.415609 
1765.000000	2.415704 
1764.000000	2.415537 
1763.000000	2.415060 
1762.000000	2.414298 
1761.000000	2.413225 
1760.000000	2.411794 
1759.000000	2.409982 
1758.000000	2.407717 
1757.000000	2.404952 
1756.000000	2.401781 
1755.000000	2.398252 
1754.000000	2.394533 
1753.000000	2.390766 
1752.000000	2.387166 
1751.000000	2.383828 
1750.000000	2.380776 
1749.000000	2.378034 
1748.000000	2.375531 
1747.000000	2.373027 
1746.000000	2.370405 
1745.000000	2.367544 
1744.000000	2.364230 
1743.000000	2.360439 
1742.000000	2.356100 
1741.000000	2.351307 
1740.000000	2.346158 
1739.000000	2.340888 
1738.000000	2.335762 
1737.000000	2.331089 
1736.000000	2.327156 
1735.000000	2.324223 
1734.000000	2.322459 
1733.000000	2.321815 
1732.000000	2.322244 
1731.000000	2.323436 
1730.000000	2.325081 
1729.000000	2.326750 
1728.000000	2.328085 
1727.000000	2.328777 
1726.000000	2.328562 
1725.000000	2.327394 
1724.000000	2.325248 
1723.000000	2.322340 
1722.000000	2.318882 
1721.000000	2.315211 
1720.000000	2.311635 
1719.000000	2.308464 
1718.000000	2.305936 
1717.000000	2.304172 
1716.000000	2.303147 
1715.000000	2.302742 
1714.000000	2.302718 
1713.000000	2.302718 
1712.000000	2.302479 
1711.000000	2.301692 
1710.000000	2.300143 
1709.000000	2.297782 
1708.000000	2.294516 
1707.000000	2.290415 
1706.000000	2.285599 
1705.000000	2.280259 
1704.000000	2.274632 
1703.000000	2.269005 
1702.000000	2.263712 
1701.000000	2.259087 
1700.000000	2.255463 
1699.000000	2.253031 
1698.000000	2.251935 
1697.000000	2.252030 
1696.000000	2.253174 
1695.000000	2.254939 
1694.000000	2.256798 
1693.000000	2.258324 
1692.000000	2.258992 
1691.000000	2.258563 
1690.000000	2.256965 
1689.000000	2.254390 
1688.000000	2.251172 
1687.000000	2.247810 
1686.000000	2.244734 
1685.000000	2.242374 
1684.000000	2.240848 
1683.000000	2.240228 
1682.000000	2.240276 
1681.000000	2.240681 
1680.000000	2.241039 
1679.000000	2.241039 
1678.000000	2.240395 
1677.000000	2.239155 
1676.000000	2.237296 
1675.000000	2.235102 
1674.000000	2.232718 
1673.000000	2.230453 
1672.000000	2.228403 
1671.000000	2.226662 
1670.000000	2.225160 
1669.000000	2.223873 
1668.000000	2.222704 
1667.000000	2.221536 
1666.000000	2.220344 
1665.000000	2.219033 
1664.000000	2.217459 
1663.000000	2.215456 
1662.000000	2.212786 
1661.000000	2.209258 
1660.000000	2.204728 
1659.000000	2.199125 
1658.000000	2.192592 
1657.000000	2.185511 
1656.000000	2.178287 
1655.000000	2.171540 
1654.000000	2.165770 
1653.000000	2.161335 
1652.000000	2.158474 
1651.000000	2.157211 
1650.000000	2.157282 
1649.000000	2.158451 
1648.000000	2.160191 
1647.000000	2.162170 
1646.000000	2.163934 
1645.000000	2.165102 
1644.000000	2.165484 
1643.000000	2.164840 
1642.000000	2.163195 
1641.000000	2.160596 
1640.000000	2.157211 
1639.000000	2.153301 
1638.000000	2.149200 
1637.000000	2.145314 
1636.000000	2.141904 
1635.000000	2.139115 
1634.000000	2.137017 
1633.000000	2.135419 
1632.000000	2.134156 
1631.000000	2.132821 
1630.000000	2.131175 
1629.000000	2.128934 
1628.000000	2.126002 
1627.000000	2.122235 
1626.000000	2.117705 
1625.000000	2.112412 
1624.000000	2.106404 
1623.000000	2.099609 
1622.000000	2.092194 
1621.000000	2.084112 
1620.000000	2.075505 
1619.000000	2.066421 
1618.000000	2.056932 
1617.000000	2.047204 
1616.000000	2.037310 
1615.000000	2.027416 
1614.000000	2.017617 
1613.000000	2.008080 
1612.000000	1.998996 
1611.000000	1.990675 
1610.000000	1.983428 
1609.000000	1.977586 
1608.000000	1.973462 
1607.000000	1.971244 
1606.000000	1.970958 
1605.000000	1.972508 
1604.000000	1.975584 
1603.000000	1.979851 
1602.000000	1.984810 
1601.000000	1.990079 
1600.000000	1.995253 
1599.000000	2.000069 
1598.000000	2.004337 
1597.000000	2.007985 
1596.000000	2.010965 
1595.000000	2.013349 
1594.000000	2.015066 
1593.000000	2.016186 
1592.000000	2.016758 
1591.000000	2.016806 
1590.000000	2.016425 
1589.000000	2.015662 
1588.000000	2.014517 
1587.000000	2.013111 
1586.000000	2.011370 
1585.000000	2.009320 
1584.000000	2.006888 
1583.000000	2.004075 
1582.000000	2.000999 
1581.000000	1.997733 
1580.000000	1.994371 
1579.000000	1.991224 
1578.000000	1.988458 
1577.000000	1.986217 
1576.000000	1.984524 
1575.000000	1.983428 
1574.000000	1.982760 
1573.000000	1.982355 
1572.000000	1.981997 
1571.000000	1.981401 
1570.000000	1.980352 
1569.000000	1.978540 
1568.000000	1.975774 
1567.000000	1.971960 
1566.000000	1.966905 
1565.000000	1.960778 
1564.000000	1.953792 
1563.000000	1.946401 
1562.000000	1.939177 
1561.000000	1.932716 
1560.000000	1.927685 
1559.000000	1.924633 
1558.000000	1.923775 
1557.000000	1.925158 
1556.000000	1.928472 
1555.000000	1.933240 
1554.000000	1.938796 
1553.000000	1.944470 
1552.000000	1.949667 
1551.000000	1.953935 
1550.000000	1.956963 
1549.000000	1.958751 
1548.000000	1.959347 
1547.000000	1.959156 
1546.000000	1.958608 
1545.000000	1.958346 
1544.000000	1.958942 
1543.000000	1.961064 
1542.000000	1.965212 
1541.000000	1.971697 
1540.000000	1.980566 
1539.000000	1.991581 
1538.000000	2.004384 
1537.000000	2.018308 
1536.000000	2.032685 
1535.000000	2.046799 
1534.000000	2.060127 
1533.000000	2.072143 
1532.000000	2.082562 
1531.000000	2.091264 
1530.000000	2.098274 
1529.000000	2.103567 
1528.000000	2.107310 
1527.000000	2.109694 
1526.000000	2.110886 
1525.000000	2.111124 
1524.000000	2.110648 
1523.000000	2.109718 
1522.000000	2.108550 
1521.000000	2.107334 
1520.000000	2.106165 
1519.000000	2.105045 
1518.000000	2.103900 
1517.000000	2.102684 
1516.000000	2.101159 
1515.000000	2.099108 
1514.000000	2.096414 
1513.000000	2.092933 
1512.000000	2.088594 
1511.000000	2.083349 
1510.000000	2.077126 
1509.000000	2.069711 
1508.000000	2.060747 
1507.000000	2.049541 
1506.000000	2.035355 
1505.000000	2.017211 
1504.000000	1.994228 
1503.000000	1.965808 
1502.000000	1.931977 
1501.000000	1.893353 
1500.000000	1.851391 
1499.000000	1.808357 
1498.000000	1.766943 
1497.000000	1.730012 
1496.000000	1.700329 
1495.000000	1.679968 
1494.000000	1.670145 
1493.000000	1.671075 
1492.000000	1.682138 
1491.000000	1.701664 
1490.000000	1.727628 
1489.000000	1.757645 
1488.000000	1.789617 
1487.000000	1.821446 
1486.000000	1.851630 
1485.000000	1.878929 
1484.000000	1.902842 
1483.000000	1.922941 
1482.000000	1.939225 
1481.000000	1.951885 
1480.000000	1.961159 
1479.000000	1.967620 
1478.000000	1.971769 
1477.000000	1.974105 
1476.000000	1.975035 
1475.000000	1.975131 
1474.000000	1.974654 
1473.000000	1.973772 
1472.000000	1.972508 
1471.000000	1.970934 
1470.000000	1.968884 
1469.000000	1.966142 
1468.000000	1.962471 
1467.000000	1.957750 
1466.000000	1.951718 
1465.000000	1.944088 
1464.000000	1.934719 
1463.000000	1.923394 
1462.000000	1.910138 
1461.000000	1.894927 
1460.000000	1.877856 
1459.000000	1.859426 
1458.000000	1.840233 
1457.000000	1.821160 
1456.000000	1.803159 
1455.000000	1.787185 
1454.000000	1.774215 
1453.000000	1.765179 
1452.000000	1.760506 
1451.000000	1.760339 
1450.000000	1.764512 
1449.000000	1.772475 
1448.000000	1.783227 
1447.000000	1.795673 
1446.000000	1.808691 
1445.000000	1.821184 
1444.000000	1.832294 
1443.000000	1.841497 
1442.000000	1.848626 
1441.000000	1.853775 
1440.000000	1.857280 
1439.000000	1.859736 
1438.000000	1.861476 
1437.000000	1.863002 
1436.000000	1.864528 
1435.000000	1.866102 
1434.000000	1.867675 
1433.000000	1.869106 
1432.000000	1.870298 
1431.000000	1.871109 
1430.000000	1.871395 
1429.000000	1.871228 
1428.000000	1.870656 
1427.000000	1.869654 
1426.000000	1.868343 
1425.000000	1.866722 
1424.000000	1.864910 
1423.000000	1.862955 
1422.000000	1.860809 
1421.000000	1.858568 
1420.000000	1.856255 
1419.000000	1.853871 
1418.000000	1.851272 
1417.000000	1.848340 
1416.000000	1.844763 
1415.000000	1.840257 
1414.000000	1.834440 
1413.000000	1.827096 
1412.000000	1.817989 
1411.000000	1.807284 
1410.000000	1.795148 
1409.000000	1.782107 
1408.000000	1.768827 
1407.000000	1.756072 
1406.000000	1.744580 
1405.000000	1.735162 
1404.000000	1.728320 
1403.000000	1.724433 
1402.000000	1.723551 
1401.000000	1.725554 
1400.000000	1.730060 
1399.000000	1.736593 
1398.000000	1.744508 
1397.000000	1.753187 
1396.000000	1.761913 
1395.000000	1.770114 
1394.000000	1.777219 
1393.000000	1.782870 
1392.000000	1.786804 
1391.000000	1.788997 
1390.000000	1.789617 
1389.000000	1.789045 
1388.000000	1.787757 
1387.000000	1.786231 
1386.000000	1.785016 
1385.000000	1.784610 
1384.000000	1.785159 
1383.000000	1.786708 
1382.000000	1.789212 
1381.000000	1.792311 
1380.000000	1.795721 
1379.000000	1.799035 
1378.000000	1.802134 
1377.000000	1.804804 
1376.000000	1.807045 
1375.000000	1.808905 
1374.000000	1.810455 
1373.000000	1.811790 
1372.000000	1.812934 
1371.000000	1.813983 
1370.000000	1.814842 
1369.000000	1.815462 
1368.000000	1.815891 
1367.000000	1.816058 
1366.000000	1.816034 
1365.000000	1.815867 
1364.000000	1.815700 
1363.000000	1.815557 
1362.000000	1.815557 
1361.000000	1.815676 
1360.000000	1.815962 
1359.000000	1.816344 
1358.000000	1.816749 
1357.000000	1.817083 
1356.000000	1.817345 
1355.000000	1.817440 
1354.000000	1.817393 
1353.000000	1.817226 
1352.000000	1.816940 
1351.000000	1.816582 
1350.000000	1.816201 
1349.000000	1.815819 
1348.000000	1.815414 
1347.000000	1.815032 
1346.000000	1.814675 
1345.000000	1.814389 
1344.000000	1.814246 
1343.000000	1.814341 
1342.000000	1.814746 
1341.000000	1.815581 
1340.000000	1.816868 
1339.000000	1.818656 
1338.000000	1.820898 
1337.000000	1.823496 
1336.000000	1.826333 
1335.000000	1.829290 
1334.000000	1.832199 
1333.000000	1.834964 
1332.000000	1.837563 
1331.000000	1.839876 
1330.000000	1.841950 
1329.000000	1.843786 
1328.000000	1.845407 
1327.000000	1.846885 
1326.000000	1.848268 
1325.000000	1.849532 
1324.000000	1.850748 
1323.000000	1.851892 
1322.000000	1.852941 
1321.000000	1.853942 
1320.000000	1.854801 
1319.000000	1.855516 
1318.000000	1.856088 
1317.000000	1.856517 
1316.000000	1.856756 
1315.000000	1.856875 
1314.000000	1.856899 
1313.000000	1.856827 
1312.000000	1.856684 
1311.000000	1.856565 
1310.000000	1.856398 
1309.000000	1.856231 
1308.000000	1.856064 
1307.000000	1.855897 
1306.000000	1.855707 
1305.000000	1.855540 
1304.000000	1.855397 
1303.000000	1.855301 
1302.000000	1.855278 
1301.000000	1.855325 
1300.000000	1.855397 
1299.000000	1.855516 
1298.000000	1.855707 
1297.000000	1.855826 
1296.000000	1.855921 
1295.000000	1.855993 
1294.000000	1.855993 
1293.000000	1.855921 
1292.000000	1.855778 
1291.000000	1.855564 
1290.000000	1.855301 
1289.000000	1.854991 
1288.000000	1.854562 
1287.000000	1.854085 
1286.000000	1.853537 
1285.000000	1.852846 
1284.000000	1.851987 
1283.000000	1.850891 
1282.000000	1.849579 
1281.000000	1.847958 
1280.000000	1.845955 
1279.000000	1.843476 
1278.000000	1.840496 
1277.000000	1.836872 
1276.000000	1.832485 
1275.000000	1.827239 
1274.000000	1.821017 
1273.000000	1.813721 
1272.000000	1.805257 
1271.000000	1.795601 
1270.000000	1.784944 
1269.000000	1.773500 
1268.000000	1.761674 
1267.000000	1.749968 
1266.000000	1.739025 
1265.000000	1.729488 
1264.000000	1.722049 
1263.000000	1.717185 
1262.000000	1.715278 
1261.000000	1.716470 
1260.000000	1.720619 
1259.000000	1.727390 
1258.000000	1.736259 
1257.000000	1.746511 
1256.000000	1.757550 
1255.000000	1.768708 
1254.000000	1.779413 
1253.000000	1.789331 
1252.000000	1.798200 
1251.000000	1.805949 
1250.000000	1.812529 
1249.000000	1.818037 
1248.000000	1.822566 
1247.000000	1.826214 
1246.000000	1.829147 
1245.000000	1.831364 
1244.000000	1.832985 
1243.000000	1.834034 
1242.000000	1.834654 
1241.000000	1.834869 
1240.000000	1.834774 
1239.000000	1.834440 
1238.000000	1.833891 
1237.000000	1.833152 
1236.000000	1.832294 
1235.000000	1.831316 
1234.000000	1.830220 
1233.000000	1.829028 
1232.000000	1.827740 
1231.000000	1.826357 
1230.000000	1.824927 
1229.000000	1.823377 
1228.000000	1.821732 
1227.000000	1.819920 
1226.000000	1.817893 
1225.000000	1.815676 
1224.000000	1.813173 
1223.000000	1.810312 
1222.000000	1.807093 
1221.000000	1.803517 
1220.000000	1.799440 
1219.000000	1.794981 
1218.000000	1.790165 
1217.000000	1.784992 
1216.000000	1.779675 
1215.000000	1.774287 
1214.000000	1.769018 
1213.000000	1.764035 
1212.000000	1.759457 
1211.000000	1.755428 
1210.000000	1.752018 
1209.000000	1.749253 
1208.000000	1.747107 
1207.000000	1.745581 
1206.000000	1.744580 
1205.000000	1.744008 
1204.000000	1.743793 
1203.000000	1.743888 
1202.000000	1.744222 
1201.000000	1.744675 
1200.000000	1.745176 
1199.000000	1.745653 
1198.000000	1.745986 
1197.000000	1.746106 
1196.000000	1.745915 
1195.000000	1.745295 
1194.000000	1.744294 
1193.000000	1.742863 
1192.000000	1.741099 
1191.000000	1.739001 
1190.000000	1.736712 
1189.000000	1.734256 
1188.000000	1.731705 
1187.000000	1.729083 
1186.000000	1.726436 
1185.000000	1.723766 
1184.000000	1.721096 
1183.000000	1.718354 
1182.000000	1.715588 
1181.000000	1.712751 
1180.000000	1.709842 
1179.000000	1.706886 
1178.000000	1.703858 
1177.000000	1.700711 
1176.000000	1.697468 
1175.000000	1.694107 
1174.000000	1.690602 
1173.000000	1.686930 
1172.000000	1.683092 
1171.000000	1.679015 
1170.000000	1.674747 
1169.000000	1.670336 
1168.000000	1.665782 
1167.000000	1.661038 
1166.000000	1.656198 
1165.000000	1.651239 
1164.000000	1.646232 
1163.000000	1.641321 
1162.000000	1.636528 
1161.000000	1.631951 
1160.000000	1.627779 
1159.000000	1.623988 
1158.000000	1.620650 
1157.000000	1.617813 
1156.000000	1.615405 
1155.000000	1.613378 
1154.000000	1.611685 
1153.000000	1.610231 
1152.000000	1.608896 
1151.000000	1.607632 
1150.000000	1.606321 
1149.000000	1.604938 
1148.000000	1.603436 
1147.000000	1.601815 
1146.000000	1.600050 
1145.000000	1.598167 
1144.000000	1.596164 
1143.000000	1.594042 
1142.000000	1.591777 
1141.000000	1.589345 
1140.000000	1.586747 
1139.000000	1.583933 
1138.000000	1.580882 
1137.000000	1.577544 
1136.000000	1.573991 
1135.000000	1.570153 
1134.000000	1.566076 
1133.000000	1.561784 
1132.000000	1.557302 
1131.000000	1.552677 
1130.000000	1.547932 
1129.000000	1.543092 
1128.000000	1.538181 
1127.000000	1.533222 
1126.000000	1.528215 
1125.000000	1.523184 
1124.000000	1.518154 
1123.000000	1.513099 
1122.000000	1.507997 
1121.000000	1.502895 
1120.000000	1.497817 
1119.000000	1.492738 
1118.000000	1.487636 
1117.000000	1.482534 
1116.000000	1.477456 
1115.000000	1.472425 
1114.000000	1.467442 
1113.000000	1.462602 
1112.000000	1.457905 
1111.000000	1.453375 
1110.000000	1.449084 
1109.000000	1.445102 
1108.000000	1.441502 
1107.000000	1.438236 
1106.000000	1.435399 
1105.000000	1.433014 
1104.000000	1.431012 
1103.000000	1.429390 
1102.000000	1.428079 
1101.000000	1.426959 
1100.000000	1.426029 
1099.000000	1.425242 
1098.000000	1.424527 
1097.000000	1.423907 
1096.000000	1.423430 
1095.000000	1.423096 
1094.000000	1.422953 
1093.000000	1.423025 
1092.000000	1.423335 
1091.000000	1.423859 
1090.000000	1.424527 
1089.000000	1.425313 
1088.000000	1.426076 
1087.000000	1.426792 
1086.000000	1.427435 
1085.000000	1.427841 
1084.000000	1.428079 
1083.000000	1.428151 
1082.000000	1.428103 
1081.000000	1.428031 
1080.000000	1.427984 
1079.000000	1.428055 
1078.000000	1.428341 
1077.000000	1.428866 
1076.000000	1.429629 
1075.000000	1.430559 
1074.000000	1.431584 
1073.000000	1.432657 
1072.000000	1.433658 
1071.000000	1.434564 
1070.000000	1.435208 
1069.000000	1.435685 
1068.000000	1.435923 
1067.000000	1.435923 
1066.000000	1.435589 
1065.000000	1.434946 
1064.000000	1.433753 
1063.000000	1.431751 
1062.000000	1.428604 
1061.000000	1.423931 
1060.000000	1.417279 
1059.000000	1.408314 
1058.000000	1.396989 
1057.000000	1.383423 
1056.000000	1.368165 
1055.000000	1.352095 
1054.000000	1.336264 
1053.000000	1.322031 
1052.000000	1.310610 
1051.000000	1.302933 
1050.000000	1.299619 
1049.000000	1.300740 
1048.000000	1.305937 
1047.000000	1.314330 
1046.000000	1.324844 
1045.000000	1.336240 
1044.000000	1.347494 
1043.000000	1.357698 
1042.000000	1.366281 
1041.000000	1.373004 
1040.000000	1.377868 
1039.000000	1.381111 
1038.000000	1.382970 
1037.000000	1.383709 
1036.000000	1.383638 
1035.000000	1.382970 
1034.000000	1.381826 
1033.000000	1.380300 
1032.000000	1.378536 
1031.000000	1.376557 
1030.000000	1.374363 
1029.000000	1.372098 
1028.000000	1.369762 
1027.000000	1.367473 
1026.000000	1.365327 
1025.000000	1.363348 
1024.000000	1.361680 
1023.000000	1.360440 
1022.000000	1.359653 
1021.000000	1.359415 
1020.000000	1.359701 
1019.000000	1.360511 
1018.000000	1.361799 
1017.000000	1.363420 
1016.000000	1.365327 
1015.000000	1.367425 
1014.000000	1.369714 
1013.000000	1.372146 
1012.000000	1.374673 
1011.000000	1.377248 
1010.000000	1.379847 
1009.000000	1.382517 
1008.000000	1.385140 
1007.000000	1.387691 
1006.000000	1.390099 
1005.000000	1.392292 
1004.000000	1.394224 
1003.000000	1.395845 
1002.000000	1.397156 
1001.000000	1.398205 
1000.000000	1.398921 
999.000000	 1.399374 
998.000000	 1.399564 
997.000000	 1.399517 
996.000000	 1.399254 
995.000000	 1.398754 
994.000000	 1.398086 
993.000000	 1.397156 
992.000000	 1.396083 
991.000000	 1.394820 
990.000000	 1.393413 
989.000000	 1.391887 
988.000000	 1.390218 
987.000000	 1.388478 
986.000000	 1.386690 
985.000000	 1.384806 
984.000000	 1.382875 
983.000000	 1.380896 
982.000000	 1.378870 
981.000000	 1.376795 
980.000000	 1.374673 
979.000000	 1.372528 
978.000000	 1.370334 
977.000000	 1.368093 
976.000000	 1.365756 
975.000000	 1.363372 
974.000000	 1.360845 
973.000000	 1.358151 
972.000000	 1.355385 
971.000000	 1.352429 
970.000000	 1.349377 
969.000000	 1.346158 
968.000000	 1.342868 
967.000000	 1.339507 
966.000000	 1.336097 
965.000000	 1.332616 
964.000000	 1.329159 
963.000000	 1.325631 
962.000000	 1.322102 
961.000000	 1.318550 
960.000000	 1.315021 
959.000000	 1.311421 
958.000000	 1.307749 
957.000000	 1.304054 
956.000000	 1.300358 
955.000000	 1.296615 
954.000000	 1.292920 
953.000000	 1.289296 
952.000000	 1.285815 
951.000000	 1.282501 
950.000000	 1.279401 
949.000000	 1.276564 
948.000000	 1.274013 
947.000000	 1.271653 
946.000000	 1.269531 
945.000000	 1.267576 
944.000000	 1.265764 
943.000000	 1.264095 
942.000000	 1.262521 
941.000000	 1.260995 
940.000000	 1.259493 
939.000000	 1.258063 
938.000000	 1.256585 
937.000000	 1.255035 
936.000000	 1.253366 
935.000000	 1.251554 
934.000000	 1.249575 
933.000000	 1.247429 
932.000000	 1.245069 
931.000000	 1.242613 
930.000000	 1.240038 
929.000000	 1.237440 
928.000000	 1.234817 
927.000000	 1.232194 
926.000000	 1.229667 
925.000000	 1.227188 
924.000000	 1.224780 
923.000000	 1.222372 
922.000000	 1.219868 
921.000000	 1.217269 
920.000000	 1.214528 
919.000000	 1.211571 
918.000000	 1.208305 
917.000000	 1.204800 
916.000000	 1.201081 
915.000000	 1.197195 
914.000000	 1.193165 
913.000000	 1.189136 
912.000000	 1.185202 
911.000000	 1.181411 
910.000000	 1.177811 
909.000000	 1.174449 
908.000000	 1.171350 
907.000000	 1.168537 
906.000000	 1.165938 
905.000000	 1.163601 
904.000000	 1.161527 
903.000000	 1.159620 
902.000000	 1.157903 
901.000000	 1.156353 
900.000000	 1.154923 
899.000000	 1.153540 
898.000000	 1.152133 
897.000000	 1.150703 
896.000000	 1.149082 
895.000000	 1.147294 
894.000000	 1.145124 
893.000000	 1.142573 
892.000000	 1.139521 
891.000000	 1.135849 
890.000000	 1.131439 
889.000000	 1.126241 
888.000000	 1.120162 
887.000000	 1.113224 
886.000000	 1.105403 
885.000000	 1.096868 
884.000000	 1.087737 
883.000000	 1.078271 
882.000000	 1.068782 
881.000000	 1.059579 
880.000000	 1.051020 
879.000000	 1.043486 
878.000000	 1.037287 
877.000000	 1.032686 
876.000000	 1.029849 
875.000000	 1.028919 
874.000000	 1.029849 
873.000000	 1.032471 
872.000000	 1.036596 
871.000000	 1.041936 
870.000000	 1.048040 
869.000000	 1.054596 
868.000000	 1.061248 
867.000000	 1.067662 
866.000000	 1.073551 
865.000000	 1.078772 
864.000000	 1.083230 
863.000000	 1.086950 
862.000000	 1.089859 
861.000000	 1.091980 
860.000000	 1.093435 
859.000000	 1.094293 
858.000000	 1.094627 
857.000000	 1.094508 
856.000000	 1.093959 
855.000000	 1.093077 
854.000000	 1.091980 
853.000000	 1.090645 
852.000000	 1.089119 
851.000000	 1.087498 
850.000000	 1.085782 
849.000000	 1.084017 
848.000000	 1.082205 
847.000000	 1.080346 
846.000000	 1.078462 
845.000000	 1.076412 
844.000000	 1.074171 
843.000000	 1.071596 
842.000000	 1.068520 
841.000000	 1.064753 
840.000000	 1.060056 
839.000000	 1.054143 
838.000000	 1.046776 
837.000000	 1.037645 
836.000000	 1.026582 
835.000000	 1.013398 
834.000000	 0.998091 
833.000000	 0.980806 
832.000000	 0.961804 
831.000000	 0.941705 
830.000000	 0.921201 
829.000000	 0.901293 
828.000000	 0.883007 
827.000000	 0.867390 
826.000000	 0.855350 
825.000000	 0.847601 
824.000000	 0.844407 
823.000000	 0.845742 
822.000000	 0.851178 
821.000000	 0.859928 
820.000000	 0.871014 
819.000000	 0.883388 
818.000000	 0.895953 
817.000000	 0.907802 
816.000000	 0.918364 
815.000000	 0.927233 
814.000000	 0.934243 
813.000000	 0.939416 
812.000000	 0.942993 
811.000000	 0.945234 
810.000000	 0.946474 
809.000000	 0.946903 
808.000000	 0.946831 
807.000000	 0.946378 
806.000000	 0.945782 
805.000000	 0.945115 
804.000000	 0.944495 
803.000000	 0.944089 
802.000000	 0.943922 
801.000000	 0.944089 
800.000000	 0.944709 
799.000000	 0.945758 
798.000000	 0.947213 
797.000000	 0.949048 
796.000000	 0.951147 
795.000000	 0.953555 
794.000000	 0.956153 
793.000000	 0.958800 
792.000000	 0.961422 
791.000000	 0.964021 
790.000000	 0.966501 
789.000000	 0.968861 
788.000000	 0.971031 
787.000000	 0.972986 
786.000000	 0.974702 
785.000000	 0.976181 
784.000000	 0.977373 
783.000000	 0.978231 
782.000000	 0.978779 
781.000000	 0.979018 
780.000000	 0.978970 
779.000000	 0.978684 
778.000000	 0.978183 
777.000000	 0.977540 
776.000000	 0.976753 
775.000000	 0.975871 
774.000000	 0.974893 
773.000000	 0.973939 
772.000000	 0.972890 
771.000000	 0.971817 
770.000000	 0.970792 
769.000000	 0.969767 
768.000000	 0.968766 
767.000000	 0.967812 
766.000000	 0.966978 
765.000000	 0.966167 
764.000000	 0.965404 
763.000000	 0.964760 
762.000000	 0.964140 
761.000000	 0.963521 
760.000000	 0.962901 
759.000000	 0.962281 
758.000000	 0.961542 
757.000000	 0.960707 
756.000000	 0.959730 
755.000000	 0.958657 
754.000000	 0.957393 
753.000000	 0.956010 
752.000000	 0.954461 
751.000000	 0.952816 
750.000000	 0.951099 
749.000000	 0.949358 
748.000000	 0.947594 
747.000000	 0.945878 
746.000000	 0.944137 
745.000000	 0.942397 
744.000000	 0.940656 
743.000000	 0.938892 
742.000000	 0.937104 
741.000000	 0.935244 
740.000000	 0.933313 
739.000000	 0.931286 
738.000000	 0.929117 
737.000000	 0.926804 
736.000000	 0.924372 
735.000000	 0.921821 
734.000000	 0.919079 
733.000000	 0.916266 
732.000000	 0.913405 
731.000000	 0.910449 
730.000000	 0.907492 
729.000000	 0.904560 
728.000000	 0.901579 
727.000000	 0.898647 
726.000000	 0.895619 
725.000000	 0.892591 
724.000000	 0.889563 
723.000000	 0.886440 
722.000000	 0.883340 
721.000000	 0.880217 
720.000000	 0.877189 
719.000000	 0.874257 
718.000000	 0.871443 
717.000000	 0.868749 
716.000000	 0.866150 
715.000000	 0.863623 
714.000000	 0.861096 
713.000000	 0.858521 
712.000000	 0.855851 
711.000000	 0.853061 
710.000000	 0.850152 
709.000000	 0.847077 
708.000000	 0.843906 
707.000000	 0.840616 
706.000000	 0.837206 
705.000000	 0.833654 
704.000000	 0.829982 
703.000000	 0.826168 
702.000000	 0.822138 
701.000000	 0.817847 
700.000000	 0.813341 
699.000000	 0.808429 
698.000000	 0.803089 
697.000000	 0.797200 
696.000000	 0.790786 
695.000000	 0.783801 
694.000000	 0.776267 
693.000000	 0.768446 
692.000000	 0.760626 
691.000000	 0.753092 
690.000000	 0.746226 
689.000000	 0.740361 
688.000000	 0.735735 
687.000000	 0.732493 
686.000000	 0.730586 
685.000000	 0.729870 
684.000000	 0.730013 
683.000000	 0.730776 
682.000000	 0.731706 
681.000000	 0.732612 
680.000000	 0.733208 
679.000000	 0.733423 
678.000000	 0.733184 
677.000000	 0.732469 
676.000000	 0.731372 
675.000000	 0.730013 
674.000000	 0.728416 
673.000000	 0.726628 
672.000000	 0.724697 
671.000000	 0.722718 
670.000000	 0.720643 
669.000000	 0.718522 
668.000000	 0.716328 
667.000000	 0.714087 
666.000000	 0.711774 
665.000000	 0.709390 
664.000000	 0.706982 
663.000000	 0.704479 
662.000000	 0.701880 
661.000000	 0.699234 
660.000000	 0.696563 
659.000000	 0.693845 
658.000000	 0.691151 
657.000000	 0.688481 
656.000000	 0.685930 
655.000000	 0.683426 
654.000000	 0.680994 
653.000000	 0.678634 
652.000000	 0.676250 
651.000000	 0.673890 
650.000000	 0.671482 
649.000000	 0.669050 
648.000000	 0.666499 
647.000000	 0.663876 
646.000000	 0.661230 
645.000000	 0.658512 
644.000000	 0.655770 
643.000000	 0.653028 
642.000000	 0.650310 
641.000000	 0.647568 
640.000000	 0.644826 
639.000000	 0.642085 
638.000000	 0.639319 
637.000000	 0.636553 
636.000000	 0.633788 
635.000000	 0.631046 
634.000000	 0.628376 
633.000000	 0.625753 
632.000000	 0.623178 
631.000000	 0.620651 
630.000000	 0.618147 
629.000000	 0.615668 
628.000000	 0.613188 
627.000000	 0.610685 
626.000000	 0.608134 
625.000000	 0.605487 
624.000000	 0.602722 
623.000000	 0.599884 
622.000000	 0.596952 
621.000000	 0.593876 
620.000000	 0.590658 
619.000000	 0.587248 
618.000000	 0.583672 
617.000000	 0.579905 
616.000000	 0.575876 
615.000000	 0.571608 
614.000000	 0.567078 
613.000000	 0.562286 
612.000000	 0.557255 
611.000000	 0.552058 
610.000000	 0.546836 
609.000000	 0.541782 
608.000000	 0.537037 
607.000000	 0.532793 
606.000000	 0.529193 
605.000000	 0.526380 
604.000000	 0.524449 
603.000000	 0.523257 
602.000000	 0.522780 
601.000000	 0.522828 
600.000000	 0.523138 
599.000000	 0.523495 
598.000000	 0.523781 
597.000000	 0.523805 
596.000000	 0.523447 
595.000000	 0.522756 
594.000000	 0.521707 
593.000000	 0.520348 
592.000000	 0.518870 
591.000000	 0.517296 
590.000000	 0.515747 
589.000000	 0.514292 
588.000000	 0.512981 
587.000000	 0.511860 
586.000000	 0.510883 
585.000000	 0.510048 
584.000000	 0.509309 
583.000000	 0.508666 
582.000000	 0.507998 
581.000000	 0.507307 
580.000000	 0.506591 
579.000000	 0.505828 
578.000000	 0.505042 
577.000000	 0.504159 
576.000000	 0.503230 
575.000000	 0.502300 
574.000000	 0.501346 
573.000000	 0.500345 
572.000000	 0.499343 
571.000000	 0.498342 
570.000000	 0.497245 
569.000000	 0.496125 
568.000000	 0.494861 
567.000000	 0.493478 
566.000000	 0.491976 
565.000000	 0.490283 
564.000000	 0.488495 
563.000000	 0.486588 
562.000000	 0.484657 
561.000000	 0.482702 
560.000000	 0.480771 
559.000000	 0.478839 
558.000000	 0.476980 
557.000000	 0.475144 
556.000000	 0.473308 
555.000000	 0.471496 
554.000000	 0.469684 
553.000000	 0.467801 
552.000000	 0.465917 
551.000000	 0.464010 
550.000000	 0.462102 
549.000000	 0.460171 
548.000000	 0.458288 
547.000000	 0.456500 
546.000000	 0.454735 
545.000000	 0.453042 
544.000000	 0.451445 
543.000000	 0.449895 
542.000000	 0.448393 
541.000000	 0.446867 
540.000000	 0.445294 
539.000000	 0.443673 
538.000000	 0.441908 
537.000000	 0.439977 
536.000000	 0.437903 
535.000000	 0.435709 
534.000000	 0.433349 
533.000000	 0.430893 
532.000000	 0.428438 
531.000000	 0.426006 
530.000000	 0.423645 
529.000000	 0.421333 
528.000000	 0.419044 
527.000000	 0.416827 
526.000000	 0.414681 
525.000000	 0.412464 
524.000000	 0.410199 
523.000000	 0.407886 
522.000000	 0.405502 
521.000000	 0.403022 
520.000000	 0.400471 
519.000000	 0.397849 
518.000000	 0.395202 
517.000000	 0.392556 
516.000000	 0.389933 
515.000000	 0.387406 
514.000000	 0.384902 
513.000000	 0.382447 
512.000000	 0.379991 
511.000000	 0.377535 
510.000000	 0.375008 
509.000000	 0.372385 
508.000000	 0.369715 
507.000000	 0.367021 
506.000000	 0.364303 
505.000000	 0.361633 
504.000000	 0.359010 
503.000000	 0.356411 
502.000000	 0.353813 
501.000000	 0.351214 
500.000000	 0.348496 
499.000000	 0.345587 
498.000000	 0.342535 
497.000000	 0.339341 
496.000000	 0.335884 
495.000000	 0.332283 
494.000000	 0.328540 
493.000000	 0.324678 
492.000000	 0.320816 
491.000000	 0.316977 
490.000000	 0.313210 
489.000000	 0.309514 
488.000000	 0.305938 
487.000000	 0.302433 
486.000000	 0.299000 
485.000000	 0.295615 
484.000000	 0.292253 
483.000000	 0.288915 
482.000000	 0.285530 
481.000000	 0.282144 
480.000000	 0.278735 
479.000000	 0.275325 
478.000000	 0.271940 
477.000000	 0.268602 
476.000000	 0.265312 
475.000000	 0.262117 
474.000000	 0.259041 
473.000000	 0.256085 
472.000000	 0.253272 
471.000000	 0.250530 
470.000000	 0.247836 
469.000000	 0.245094 
468.000000	 0.242257 
467.000000	 0.239324 
466.000000	 0.236225 
465.000000	 0.232934 
464.000000	 0.229406 
463.000000	 0.225687 
462.000000	 0.221824 
461.000000	 0.217819 
460.000000	 0.213718 
459.000000	 0.209498 
458.000000	 0.205230 
457.000000	 0.200963 
456.000000	 0.196647 
455.000000	 0.192379 
454.000000	 0.188136 
453.000000	 0.184011 
452.000000	 0.180029 
451.000000	 0.176239 
450.000000	 0.172781 
449.000000	 0.169682 
448.000000	 0.166964 
447.000000	 0.164651 
446.000000	 0.162649 
445.000000	 0.160861 
444.000000	 0.159096 
443.000000	 0.157237 
442.000000	 0.155186 
441.000000	 0.152850 
440.000000	 0.150179 
439.000000	 0.147294 
438.000000	 0.144171 
437.000000	 0.140976 
436.000000	 0.137758 
435.000000	 0.134587 
434.000000	 0.131511 
433.000000	 0.128531 
432.000000	 0.125527 
431.000000	 0.122547 
430.000000	 0.119471 
429.000000	 0.116252 
428.000000	 0.112915 
427.000000	 0.109410 
426.000000	 0.105762 
425.000000	 0.102043 
424.000000	 0.098299 
423.000000	 0.094580 
422.000000	 0.090909 
421.000000	 0.087332 
420.000000	 0.083875 
419.000000	 0.080513 
418.000000	 0.077271 
417.000000	 0.074172 
416.000000	 0.071215 
415.000000	 0.068354 
414.000000	 0.065660 
413.000000	 0.063109 
412.000000	 0.060701 
411.000000	 0.058507 
410.000000	 0.056481 
409.000000	 0.054693 
408.000000	 0.053024 
407.000000	 0.051522 
406.000000	 0.050139 
405.000000	 0.048780 
404.000000	 0.047373 
403.000000	 0.045943 
402.000000	 0.044393 
401.000000	 0.042724 
400.000000	 0.040960 
399.000000	 0.039052 
398.000000	 0.037121 
397.000000	 0.035095 
396.000000	 0.033116 
395.000000	 0.031232 
394.000000	 0.029492 
393.000000	 0.027966 
392.000000	 0.026702 
391.000000	 0.025677 
390.000000	 0.024890 
389.000000	 0.024271 
388.000000	 0.023746 
387.000000	 0.023269 
386.000000	 0.022745 
385.000000	 0.022125 
384.000000	 0.021314 
383.000000	 0.020408 
382.000000	 0.019407 
381.000000	 0.018382 
380.000000	 0.017404 
379.000000	 0.016522 
378.000000	 0.015807 
377.000000	 0.015211 
376.000000	 0.014734 
375.000000	 0.014305 
374.000000	 0.013828 
373.000000	 0.013160 
372.000000	 0.012373 
371.000000	 0.011324 
370.000000	 0.010108 

