PE IR       SPECTRUM    SPECTRUM    ASCII       PEDS        1.60        
  -1
BZ09FB~1.ASC
17/04/07
18:42:25.00
17/04/07
18:42:25.00
tln
$BZ1503107-1_e0125$<ebV0>[-23.3,12.1,10.0,0.0,27,1,0]
370.000000
64









2002,4.07    
MIRTGS : RIGHTBACK : INTERNAL 2
MIR : ON : INTERNAL 2
OPTKBR

0.200000
8
8.000000
FILLER
SINGLE
SPECTRUM
UNLOCKED 256

DOUBLE

COMBINED
1
0
0


1.000000
BACKG


1
0
TRUE
51149
0
LEFT NOT FITTED RIGHT NOT FITTED 0
NONE
NONE
15600
12.000000
4.427000
51148
TRUE
1 0 8 72 0 0 0 0 

15798.010000






#HDR
-1
-1
#GR
CM-1
EGY
0.00002384185791015625
0.0
5000.000000
-1.000000
4631
8
2.468705
0.006961
#DATA
5000.000000	0.774884 
4999.000000	0.774478 
4998.000000	0.774478 
4997.000000	0.774836 
4996.000000	0.775504 
4995.000000	0.776362 
4994.000000	0.777268 
4993.000000	0.778102 
4992.000000	0.778818 
4991.000000	0.779318 
4990.000000	0.779724 
4989.000000	0.780057 
4988.000000	0.780439 
4987.000000	0.780916 
4986.000000	0.781583 
4985.000000	0.782442 
4984.000000	0.783467 
4983.000000	0.784611 
4982.000000	0.785827 
4981.000000	0.787043 
4980.000000	0.788187 
4979.000000	0.789308 
4978.000000	0.790309 
4977.000000	0.791168 
4976.000000	0.791931 
4975.000000	0.792574 
4974.000000	0.793147 
4973.000000	0.793576 
4972.000000	0.793981 
4971.000000	0.794315 
4970.000000	0.794625 
4969.000000	0.794959 
4968.000000	0.795269 
4967.000000	0.795578 
4966.000000	0.795888 
4965.000000	0.796127 
4964.000000	0.796270 
4963.000000	0.796294 
4962.000000	0.796246 
4961.000000	0.796127 
4960.000000	0.795984 
4959.000000	0.795888 
4958.000000	0.795865 
4957.000000	0.796031 
4956.000000	0.796365 
4955.000000	0.796914 
4954.000000	0.797653 
4953.000000	0.798535 
4952.000000	0.799536 
4951.000000	0.800585 
4950.000000	0.801610 
4949.000000	0.802516 
4948.000000	0.803327 
4947.000000	0.804018 
4946.000000	0.804567 
4945.000000	0.804996 
4944.000000	0.805354 
4943.000000	0.805640 
4942.000000	0.805902 
4941.000000	0.806164 
4940.000000	0.806355 
4939.000000	0.806546 
4938.000000	0.806665 
4937.000000	0.806689 
4936.000000	0.806665 
4935.000000	0.806617 
4934.000000	0.806570 
4933.000000	0.806522 
4932.000000	0.806570 
4931.000000	0.806713 
4930.000000	0.806927 
4929.000000	0.807237 
4928.000000	0.807642 
4927.000000	0.808119 
4926.000000	0.808668 
4925.000000	0.809311 
4924.000000	0.809955 
4923.000000	0.810647 
4922.000000	0.811338 
4921.000000	0.811982 
4920.000000	0.812554 
4919.000000	0.812959 
4918.000000	0.813221 
4917.000000	0.813317 
4916.000000	0.813269 
4915.000000	0.813126 
4914.000000	0.812840 
4913.000000	0.812578 
4912.000000	0.812387 
4911.000000	0.812339 
4910.000000	0.812435 
4909.000000	0.812721 
4908.000000	0.813198 
4907.000000	0.813937 
4906.000000	0.814819 
4905.000000	0.815868 
4904.000000	0.817012 
4903.000000	0.818204 
4902.000000	0.819301 
4901.000000	0.820255 
4900.000000	0.821042 
4899.000000	0.821566 
4898.000000	0.821876 
4897.000000	0.821995 
4896.000000	0.821971 
4895.000000	0.821805 
4894.000000	0.821661 
4893.000000	0.821566 
4892.000000	0.821542 
4891.000000	0.821661 
4890.000000	0.821852 
4889.000000	0.822114 
4888.000000	0.822472 
4887.000000	0.822830 
4886.000000	0.823211 
4885.000000	0.823616 
4884.000000	0.824022 
4883.000000	0.824451 
4882.000000	0.824904 
4881.000000	0.825381 
4880.000000	0.825881 
4879.000000	0.826430 
4878.000000	0.826978 
4877.000000	0.827527 
4876.000000	0.828027 
4875.000000	0.828552 
4874.000000	0.829052 
4873.000000	0.829601 
4872.000000	0.830149 
4871.000000	0.830721 
4870.000000	0.831389 
4869.000000	0.832128 
4868.000000	0.832986 
4867.000000	0.833845 
4866.000000	0.834751 
4865.000000	0.835657 
4864.000000	0.836563 
4863.000000	0.837373 
4862.000000	0.838136 
4861.000000	0.838828 
4860.000000	0.839471 
4859.000000	0.840044 
4858.000000	0.840520 
4857.000000	0.841045 
4856.000000	0.841546 
4855.000000	0.842094 
4854.000000	0.842714 
4853.000000	0.843381 
4852.000000	0.844120 
4851.000000	0.844907 
4850.000000	0.845718 
4849.000000	0.846552 
4848.000000	0.847363 
4847.000000	0.848102 
4846.000000	0.848817 
4845.000000	0.849461 
4844.000000	0.850057 
4843.000000	0.850605 
4842.000000	0.851130 
4841.000000	0.851655 
4840.000000	0.852131 
4839.000000	0.852584 
4838.000000	0.852990 
4837.000000	0.853371 
4836.000000	0.853705 
4835.000000	0.854039 
4834.000000	0.854420 
4833.000000	0.854921 
4832.000000	0.855565 
4831.000000	0.856375 
4830.000000	0.857353 
4829.000000	0.858497 
4828.000000	0.859689 
4827.000000	0.860857 
4826.000000	0.861978 
4825.000000	0.862956 
4824.000000	0.863766 
4823.000000	0.864458 
4822.000000	0.864982 
4821.000000	0.865387 
4820.000000	0.865745 
4819.000000	0.866079 
4818.000000	0.866389 
4817.000000	0.866699 
4816.000000	0.867080 
4815.000000	0.867557 
4814.000000	0.868177 
4813.000000	0.868916 
4812.000000	0.869798 
4811.000000	0.870776 
4810.000000	0.871801 
4809.000000	0.872874 
4808.000000	0.873827 
4807.000000	0.874710 
4806.000000	0.875449 
4805.000000	0.876116 
4804.000000	0.876665 
4803.000000	0.877213 
4802.000000	0.877833 
4801.000000	0.878524 
4800.000000	0.879287 
4799.000000	0.880098 
4798.000000	0.880885 
4797.000000	0.881624 
4796.000000	0.882220 
4795.000000	0.882697 
4794.000000	0.883007 
4793.000000	0.883197 
4792.000000	0.883364 
4791.000000	0.883555 
4790.000000	0.883817 
4789.000000	0.884199 
4788.000000	0.884723 
4787.000000	0.885367 
4786.000000	0.886082 
4785.000000	0.886940 
4784.000000	0.887846 
4783.000000	0.888776 
4782.000000	0.889706 
4781.000000	0.890636 
4780.000000	0.891518 
4779.000000	0.892353 
4778.000000	0.893044 
4777.000000	0.893568 
4776.000000	0.893902 
4775.000000	0.894141 
4774.000000	0.894236 
4773.000000	0.894236 
4772.000000	0.894165 
4771.000000	0.894117 
4770.000000	0.894117 
4769.000000	0.894212 
4768.000000	0.894427 
4767.000000	0.894784 
4766.000000	0.895285 
4765.000000	0.895929 
4764.000000	0.896692 
4763.000000	0.897622 
4762.000000	0.898671 
4761.000000	0.899815 
4760.000000	0.901007 
4759.000000	0.902152 
4758.000000	0.903201 
4757.000000	0.904107 
4756.000000	0.904822 
4755.000000	0.905275 
4754.000000	0.905585 
4753.000000	0.905680 
4752.000000	0.905656 
4751.000000	0.905561 
4750.000000	0.905466 
4749.000000	0.905418 
4748.000000	0.905466 
4747.000000	0.905585 
4746.000000	0.905776 
4745.000000	0.906038 
4744.000000	0.906372 
4743.000000	0.906753 
4742.000000	0.907182 
4741.000000	0.907683 
4740.000000	0.908255 
4739.000000	0.908923 
4738.000000	0.909614 
4737.000000	0.910353 
4736.000000	0.911068 
4735.000000	0.911712 
4734.000000	0.912261 
4733.000000	0.912594 
4732.000000	0.912761 
4731.000000	0.912690 
4730.000000	0.912427 
4729.000000	0.912022 
4728.000000	0.911569 
4727.000000	0.911068 
4726.000000	0.910639 
4725.000000	0.910282 
4724.000000	0.910067 
4723.000000	0.909996 
4722.000000	0.910067 
4721.000000	0.910234 
4720.000000	0.910520 
4719.000000	0.910902 
4718.000000	0.911331 
4717.000000	0.911879 
4716.000000	0.912499 
4715.000000	0.913214 
4714.000000	0.914001 
4713.000000	0.914859 
4712.000000	0.915718 
4711.000000	0.916528 
4710.000000	0.917196 
4709.000000	0.917673 
4708.000000	0.917959 
4707.000000	0.918030 
4706.000000	0.917935 
4705.000000	0.917649 
4704.000000	0.917267 
4703.000000	0.916862 
4702.000000	0.916481 
4701.000000	0.916171 
4700.000000	0.915980 
4699.000000	0.915932 
4698.000000	0.915956 
4697.000000	0.916147 
4696.000000	0.916457 
4695.000000	0.916814 
4694.000000	0.917291 
4693.000000	0.917816 
4692.000000	0.918388 
4691.000000	0.918936 
4690.000000	0.919485 
4689.000000	0.920033 
4688.000000	0.920534 
4687.000000	0.921034 
4686.000000	0.921487 
4685.000000	0.921893 
4684.000000	0.922250 
4683.000000	0.922584 
4682.000000	0.922870 
4681.000000	0.923156 
4680.000000	0.923395 
4679.000000	0.923609 
4678.000000	0.923800 
4677.000000	0.923967 
4676.000000	0.924110 
4675.000000	0.924205 
4674.000000	0.924253 
4673.000000	0.924205 
4672.000000	0.924110 
4671.000000	0.923943 
4670.000000	0.923776 
4669.000000	0.923609 
4668.000000	0.923466 
4667.000000	0.923395 
4666.000000	0.923347 
4665.000000	0.923347 
4664.000000	0.923371 
4663.000000	0.923395 
4662.000000	0.923395 
4661.000000	0.923418 
4660.000000	0.923418 
4659.000000	0.923442 
4658.000000	0.923514 
4657.000000	0.923705 
4656.000000	0.924038 
4655.000000	0.924491 
4654.000000	0.925111 
4653.000000	0.925827 
4652.000000	0.926566 
4651.000000	0.927305 
4650.000000	0.927925 
4649.000000	0.928473 
4648.000000	0.928878 
4647.000000	0.929141 
4646.000000	0.929260 
4645.000000	0.929284 
4644.000000	0.929260 
4643.000000	0.929212 
4642.000000	0.929164 
4641.000000	0.929164 
4640.000000	0.929260 
4639.000000	0.929427 
4638.000000	0.929665 
4637.000000	0.929975 
4636.000000	0.930309 
4635.000000	0.930643 
4634.000000	0.930953 
4633.000000	0.931215 
4632.000000	0.931406 
4631.000000	0.931525 
4630.000000	0.931620 
4629.000000	0.931692 
4628.000000	0.931787 
4627.000000	0.931930 
4626.000000	0.932168 
4625.000000	0.932550 
4624.000000	0.933051 
4623.000000	0.933647 
4622.000000	0.934290 
4621.000000	0.934982 
4620.000000	0.935649 
4619.000000	0.936245 
4618.000000	0.936794 
4617.000000	0.937175 
4616.000000	0.937461 
4615.000000	0.937724 
4614.000000	0.937962 
4613.000000	0.938177 
4612.000000	0.938510 
4611.000000	0.938940 
4610.000000	0.939488 
4609.000000	0.940251 
4608.000000	0.941133 
4607.000000	0.942158 
4606.000000	0.943231 
4605.000000	0.944352 
4604.000000	0.945425 
4603.000000	0.946450 
4602.000000	0.947356 
4601.000000	0.948119 
4600.000000	0.948715 
4599.000000	0.949096 
4598.000000	0.949335 
4597.000000	0.949478 
4596.000000	0.949597 
4595.000000	0.949740 
4594.000000	0.950026 
4593.000000	0.950479 
4592.000000	0.951147 
4591.000000	0.952029 
4590.000000	0.953102 
4589.000000	0.954294 
4588.000000	0.955462 
4587.000000	0.956559 
4586.000000	0.957560 
4585.000000	0.958347 
4584.000000	0.958919 
4583.000000	0.959300 
4582.000000	0.959587 
4581.000000	0.959777 
4580.000000	0.959992 
4579.000000	0.960278 
4578.000000	0.960707 
4577.000000	0.961279 
4576.000000	0.962066 
4575.000000	0.962972 
4574.000000	0.964021 
4573.000000	0.965166 
4572.000000	0.966334 
4571.000000	0.967478 
4570.000000	0.968551 
4569.000000	0.969505 
4568.000000	0.970315 
4567.000000	0.971007 
4566.000000	0.971603 
4565.000000	0.972127 
4564.000000	0.972628 
4563.000000	0.973176 
4562.000000	0.973796 
4561.000000	0.974512 
4560.000000	0.975346 
4559.000000	0.976276 
4558.000000	0.977325 
4557.000000	0.978446 
4556.000000	0.979661 
4555.000000	0.980925 
4554.000000	0.982213 
4553.000000	0.983428 
4552.000000	0.984573 
4551.000000	0.985550 
4550.000000	0.986361 
4549.000000	0.987029 
4548.000000	0.987458 
4547.000000	0.987768 
4546.000000	0.988006 
4545.000000	0.988245 
4544.000000	0.988531 
4543.000000	0.988841 
4542.000000	0.989246 
4541.000000	0.989699 
4540.000000	0.990200 
4539.000000	0.990700 
4538.000000	0.991201 
4537.000000	0.991725 
4536.000000	0.992298 
4535.000000	0.992941 
4534.000000	0.993728 
4533.000000	0.994634 
4532.000000	0.995659 
4531.000000	0.996780 
4530.000000	0.997900 
4529.000000	0.998926 
4528.000000	0.999784 
4527.000000	1.000428 
4526.000000	1.000881 
4525.000000	1.001119 
4524.000000	1.001238 
4523.000000	1.001310 
4522.000000	1.001358 
4521.000000	1.001381 
4520.000000	1.001453 
4519.000000	1.001620 
4518.000000	1.001811 
4517.000000	1.002025 
4516.000000	1.002287 
4515.000000	1.002550 
4514.000000	1.002764 
4513.000000	1.002979 
4512.000000	1.003146 
4511.000000	1.003289 
4510.000000	1.003456 
4509.000000	1.003742 
4508.000000	1.004147 
4507.000000	1.004695 
4506.000000	1.005411 
4505.000000	1.006197 
4504.000000	1.007056 
4503.000000	1.007819 
4502.000000	1.008415 
4501.000000	1.008796 
4500.000000	1.008892 
4499.000000	1.008796 
4498.000000	1.008582 
4497.000000	1.008296 
4496.000000	1.008081 
4495.000000	1.007938 
4494.000000	1.007938 
4493.000000	1.008033 
4492.000000	1.008176 
4491.000000	1.008248 
4490.000000	1.008296 
4489.000000	1.008248 
4488.000000	1.008105 
4487.000000	1.007962 
4486.000000	1.007890 
4485.000000	1.007962 
4484.000000	1.008272 
4483.000000	1.008844 
4482.000000	1.009631 
4481.000000	1.010560 
4480.000000	1.011586 
4479.000000	1.012611 
4478.000000	1.013517 
4477.000000	1.014423 
4476.000000	1.015210 
4475.000000	1.015996 
4474.000000	1.016783 
4473.000000	1.017618 
4472.000000	1.018452 
4471.000000	1.019191 
4470.000000	1.019811 
4469.000000	1.020288 
4468.000000	1.020646 
4467.000000	1.020932 
4466.000000	1.021194 
4465.000000	1.021480 
4464.000000	1.021718 
4463.000000	1.021909 
4462.000000	1.022052 
4461.000000	1.022124 
4460.000000	1.022028 
4459.000000	1.021838 
4458.000000	1.021480 
4457.000000	1.021027 
4456.000000	1.020598 
4455.000000	1.020216 
4454.000000	1.019906 
4453.000000	1.019716 
4452.000000	1.019692 
4451.000000	1.019811 
4450.000000	1.020026 
4449.000000	1.020240 
4448.000000	1.020288 
4447.000000	1.020002 
4446.000000	1.019215 
4445.000000	1.017880 
4444.000000	1.016044 
4443.000000	1.013922 
4442.000000	1.011800 
4441.000000	1.010012 
4440.000000	1.008605 
4439.000000	1.007342 
4438.000000	1.005625 
4437.000000	1.002669 
4436.000000	0.997662 
4435.000000	0.990200 
4434.000000	0.980448 
4433.000000	0.969552 
4432.000000	0.959253 
4431.000000	0.951910 
4430.000000	0.949811 
4429.000000	0.954604 
4428.000000	0.966930 
4427.000000	0.985956 
4426.000000	1.009511 
4425.000000	1.034331 
4424.000000	1.056742 
4423.000000	1.073455 
4422.000000	1.082181 
4421.000000	1.081919 
4420.000000	1.073312 
4419.000000	1.058340 
4418.000000	1.039814 
4417.000000	1.020646 
4416.000000	1.003551 
4415.000000	0.990366 
4414.000000	0.982117 
4413.000000	0.978851 
4412.000000	0.980019 
4411.000000	0.984644 
4410.000000	0.991702 
4409.000000	1.000308 
4408.000000	1.009750 
4407.000000	1.019406 
4406.000000	1.028776 
4405.000000	1.037406 
4404.000000	1.044869 
4403.000000	1.050829 
4402.000000	1.055073 
4401.000000	1.057553 
4400.000000	1.058459 
4399.000000	1.058220 
4398.000000	1.057338 
4397.000000	1.056313 
4396.000000	1.055550 
4395.000000	1.055192 
4394.000000	1.055264 
4393.000000	1.055645 
4392.000000	1.056098 
4391.000000	1.056432 
4390.000000	1.056480 
4389.000000	1.056218 
4388.000000	1.055741 
4387.000000	1.055121 
4386.000000	1.054525 
4385.000000	1.053953 
4384.000000	1.053452 
4383.000000	1.053094 
4382.000000	1.052904 
4381.000000	1.052880 
4380.000000	1.053047 
4379.000000	1.053452 
4378.000000	1.054120 
4377.000000	1.054954 
4376.000000	1.055908 
4375.000000	1.056814 
4374.000000	1.057577 
4373.000000	1.058101 
4372.000000	1.058292 
4371.000000	1.058220 
4370.000000	1.057934 
4369.000000	1.057529 
4368.000000	1.057100 
4367.000000	1.056742 
4366.000000	1.056480 
4365.000000	1.056337 
4364.000000	1.056313 
4363.000000	1.056385 
4362.000000	1.056575 
4361.000000	1.056861 
4360.000000	1.057267 
4359.000000	1.057839 
4358.000000	1.058554 
4357.000000	1.059412 
4356.000000	1.060414 
4355.000000	1.061511 
4354.000000	1.062655 
4353.000000	1.063847 
4352.000000	1.065039 
4351.000000	1.066279 
4350.000000	1.067566 
4349.000000	1.068878 
4348.000000	1.070237 
4347.000000	1.071596 
4346.000000	1.072907 
4345.000000	1.074171 
4344.000000	1.075363 
4343.000000	1.076459 
4342.000000	1.077437 
4341.000000	1.078367 
4340.000000	1.079225 
4339.000000	1.080083 
4338.000000	1.080965 
4337.000000	1.081943 
4336.000000	1.083087 
4335.000000	1.084351 
4334.000000	1.085829 
4333.000000	1.087474 
4332.000000	1.089262 
4331.000000	1.091146 
4330.000000	1.092982 
4329.000000	1.094770 
4328.000000	1.096343 
4327.000000	1.097702 
4326.000000	1.098799 
4325.000000	1.099658 
4324.000000	1.100325 
4323.000000	1.100897 
4322.000000	1.101422 
4321.000000	1.102018 
4320.000000	1.102757 
4319.000000	1.103734 
4318.000000	1.104879 
4317.000000	1.106262 
4316.000000	1.107764 
4315.000000	1.109409 
4314.000000	1.111102 
4313.000000	1.112842 
4312.000000	1.114535 
4311.000000	1.116132 
4310.000000	1.117658 
4309.000000	1.119089 
4308.000000	1.120424 
4307.000000	1.121664 
4306.000000	1.122784 
4305.000000	1.123833 
4304.000000	1.124811 
4303.000000	1.125741 
4302.000000	1.126646 
4301.000000	1.127505 
4300.000000	1.128411 
4299.000000	1.129364 
4298.000000	1.130366 
4297.000000	1.131343 
4296.000000	1.132321 
4295.000000	1.133298 
4294.000000	1.134181 
4293.000000	1.135015 
4292.000000	1.135849 
4291.000000	1.136684 
4290.000000	1.137590 
4289.000000	1.138639 
4288.000000	1.139831 
4287.000000	1.141262 
4286.000000	1.142835 
4285.000000	1.144480 
4284.000000	1.146173 
4283.000000	1.147770 
4282.000000	1.149249 
4281.000000	1.150512 
4280.000000	1.151585 
4279.000000	1.152467 
4278.000000	1.153182 
4277.000000	1.153826 
4276.000000	1.154398 
4275.000000	1.154994 
4274.000000	1.155638 
4273.000000	1.156377 
4272.000000	1.157212 
4271.000000	1.158165 
4270.000000	1.159214 
4269.000000	1.160383 
4268.000000	1.161646 
4267.000000	1.162958 
4266.000000	1.164317 
4265.000000	1.165676 
4264.000000	1.166939 
4263.000000	1.168107 
4262.000000	1.169133 
4261.000000	1.169991 
4260.000000	1.170682 
4259.000000	1.171278 
4258.000000	1.171803 
4257.000000	1.172256 
4256.000000	1.172757 
4255.000000	1.173353 
4254.000000	1.173996 
4253.000000	1.174783 
4252.000000	1.175642 
4251.000000	1.176571 
4250.000000	1.177549 
4249.000000	1.178503 
4248.000000	1.179432 
4247.000000	1.180195 
4246.000000	1.180863 
4245.000000	1.181435 
4244.000000	1.181912 
4243.000000	1.182341 
4242.000000	1.182770 
4241.000000	1.183295 
4240.000000	1.183938 
4239.000000	1.184678 
4238.000000	1.185560 
4237.000000	1.186585 
4236.000000	1.187682 
4235.000000	1.188826 
4234.000000	1.189970 
4233.000000	1.191020 
4232.000000	1.192021 
4231.000000	1.192879 
4230.000000	1.193571 
4229.000000	1.194071 
4228.000000	1.194429 
4227.000000	1.194620 
4226.000000	1.194691 
4225.000000	1.194715 
4224.000000	1.194715 
4223.000000	1.194810 
4222.000000	1.195073 
4221.000000	1.195526 
4220.000000	1.196169 
4219.000000	1.197004 
4218.000000	1.197886 
4217.000000	1.198863 
4216.000000	1.199769 
4215.000000	1.200604 
4214.000000	1.201319 
4213.000000	1.201868 
4212.000000	1.202321 
4211.000000	1.202630 
4210.000000	1.202869 
4209.000000	1.203060 
4208.000000	1.203227 
4207.000000	1.203346 
4206.000000	1.203513 
4205.000000	1.203656 
4204.000000	1.203799 
4203.000000	1.204013 
4202.000000	1.204276 
4201.000000	1.204657 
4200.000000	1.205110 
4199.000000	1.205658 
4198.000000	1.206278 
4197.000000	1.207017 
4196.000000	1.207780 
4195.000000	1.208591 
4194.000000	1.209425 
4193.000000	1.210236 
4192.000000	1.211023 
4191.000000	1.211786 
4190.000000	1.212501 
4189.000000	1.213169 
4188.000000	1.213765 
4187.000000	1.214289 
4186.000000	1.214694 
4185.000000	1.215028 
4184.000000	1.215219 
4183.000000	1.215362 
4182.000000	1.215386 
4181.000000	1.215410 
4180.000000	1.215481 
4179.000000	1.215600 
4178.000000	1.215887 
4177.000000	1.216387 
4176.000000	1.217031 
4175.000000	1.217794 
4174.000000	1.218628 
4173.000000	1.219415 
4172.000000	1.220083 
4171.000000	1.220607 
4170.000000	1.220941 
4169.000000	1.221132 
4168.000000	1.221203 
4167.000000	1.221299 
4166.000000	1.221489 
4165.000000	1.221823 
4164.000000	1.222324 
4163.000000	1.222968 
4162.000000	1.223707 
4161.000000	1.224493 
4160.000000	1.225280 
4159.000000	1.226019 
4158.000000	1.226782 
4157.000000	1.227498 
4156.000000	1.228260 
4155.000000	1.229047 
4154.000000	1.229810 
4153.000000	1.230621 
4152.000000	1.231431 
4151.000000	1.232218 
4150.000000	1.232981 
4149.000000	1.233744 
4148.000000	1.234531 
4147.000000	1.235342 
4146.000000	1.236224 
4145.000000	1.237177 
4144.000000	1.238226 
4143.000000	1.239323 
4142.000000	1.240420 
4141.000000	1.241493 
4140.000000	1.242494 
4139.000000	1.243352 
4138.000000	1.244115 
4137.000000	1.244711 
4136.000000	1.245212 
4135.000000	1.245546 
4134.000000	1.245832 
4133.000000	1.246023 
4132.000000	1.246237 
4131.000000	1.246476 
4130.000000	1.246714 
4129.000000	1.247072 
4128.000000	1.247501 
4127.000000	1.248025 
4126.000000	1.248669 
4125.000000	1.249361 
4124.000000	1.250123 
4123.000000	1.250958 
4122.000000	1.251864 
4121.000000	1.252794 
4120.000000	1.253795 
4119.000000	1.254844 
4118.000000	1.255869 
4117.000000	1.256895 
4116.000000	1.257896 
4115.000000	1.258850 
4114.000000	1.259803 
4113.000000	1.260709 
4112.000000	1.261639 
4111.000000	1.262593 
4110.000000	1.263594 
4109.000000	1.264667 
4108.000000	1.265835 
4107.000000	1.267099 
4106.000000	1.268362 
4105.000000	1.269674 
4104.000000	1.270914 
4103.000000	1.272153 
4102.000000	1.273274 
4101.000000	1.274371 
4100.000000	1.275420 
4099.000000	1.276445 
4098.000000	1.277518 
4097.000000	1.278614 
4096.000000	1.279807 
4095.000000	1.281094 
4094.000000	1.282525 
4093.000000	1.284027 
4092.000000	1.285624 
4091.000000	1.287293 
4090.000000	1.288938 
4089.000000	1.290607 
4088.000000	1.292252 
4087.000000	1.293849 
4086.000000	1.295399 
4085.000000	1.296877 
4084.000000	1.298332 
4083.000000	1.299762 
4082.000000	1.301217 
4081.000000	1.302671 
4080.000000	1.304149 
4079.000000	1.305627 
4078.000000	1.307058 
4077.000000	1.308488 
4076.000000	1.309871 
4075.000000	1.311230 
4074.000000	1.312541 
4073.000000	1.313877 
4072.000000	1.315259 
4071.000000	1.316761 
4070.000000	1.318311 
4069.000000	1.319909 
4068.000000	1.321578 
4067.000000	1.323151 
4066.000000	1.324677 
4065.000000	1.326084 
4064.000000	1.327347 
4063.000000	1.328444 
4062.000000	1.329493 
4061.000000	1.330471 
4060.000000	1.331496 
4059.000000	1.332569 
4058.000000	1.333737 
4057.000000	1.334953 
4056.000000	1.336264 
4055.000000	1.337575 
4054.000000	1.338887 
4053.000000	1.340126 
4052.000000	1.341342 
4051.000000	1.342535 
4050.000000	1.343703 
4049.000000	1.344919 
4048.000000	1.346230 
4047.000000	1.347613 
4046.000000	1.349091 
4045.000000	1.350641 
4044.000000	1.352190 
4043.000000	1.353740 
4042.000000	1.355242 
4041.000000	1.356625 
4040.000000	1.357889 
4039.000000	1.359081 
4038.000000	1.360201 
4037.000000	1.361298 
4036.000000	1.362395 
4035.000000	1.363539 
4034.000000	1.364731 
4033.000000	1.365947 
4032.000000	1.367211 
4031.000000	1.368546 
4030.000000	1.369881 
4029.000000	1.371240 
4028.000000	1.372623 
4027.000000	1.373982 
4026.000000	1.375365 
4025.000000	1.376748 
4024.000000	1.378130 
4023.000000	1.379489 
4022.000000	1.380825 
4021.000000	1.382112 
4020.000000	1.383352 
4019.000000	1.384496 
4018.000000	1.385521 
4017.000000	1.386427 
4016.000000	1.387262 
4015.000000	1.387977 
4014.000000	1.388597 
4013.000000	1.389217 
4012.000000	1.389789 
4011.000000	1.390433 
4010.000000	1.391124 
4009.000000	1.391887 
4008.000000	1.392745 
4007.000000	1.393628 
4006.000000	1.394629 
4005.000000	1.395654 
4004.000000	1.396751 
4003.000000	1.397895 
4002.000000	1.399087 
4001.000000	1.400375 
4000.000000	1.401710 
3999.000000	1.403093 
3998.000000	1.404476 
3997.000000	1.405858 
3996.000000	1.407146 
3995.000000	1.408362 
3994.000000	1.409316 
3993.000000	1.410126 
3992.000000	1.410746 
3991.000000	1.411175 
3990.000000	1.411461 
3989.000000	1.411676 
3988.000000	1.411890 
3987.000000	1.412105 
3986.000000	1.412367 
3985.000000	1.412725 
3984.000000	1.413226 
3983.000000	1.413822 
3982.000000	1.414489 
3981.000000	1.415276 
3980.000000	1.416087 
3979.000000	1.416921 
3978.000000	1.417708 
3977.000000	1.418447 
3976.000000	1.419115 
3975.000000	1.419663 
3974.000000	1.420116 
3973.000000	1.420474 
3972.000000	1.420807 
3971.000000	1.421141 
3970.000000	1.421499 
3969.000000	1.421880 
3968.000000	1.422357 
3967.000000	1.422905 
3966.000000	1.423501 
3965.000000	1.424169 
3964.000000	1.424837 
3963.000000	1.425576 
3962.000000	1.426315 
3961.000000	1.427125 
3960.000000	1.427912 
3959.000000	1.428723 
3958.000000	1.429533 
3957.000000	1.430273 
3956.000000	1.430892 
3955.000000	1.431345 
3954.000000	1.431584 
3953.000000	1.431560 
3952.000000	1.431345 
3951.000000	1.430964 
3950.000000	1.430463 
3949.000000	1.429963 
3948.000000	1.429605 
3947.000000	1.429510 
3946.000000	1.429629 
3945.000000	1.430010 
3944.000000	1.430678 
3943.000000	1.431488 
3942.000000	1.432418 
3941.000000	1.433348 
3940.000000	1.434206 
3939.000000	1.434922 
3938.000000	1.435494 
3937.000000	1.435923 
3936.000000	1.436257 
3935.000000	1.436543 
3934.000000	1.436805 
3933.000000	1.437163 
3932.000000	1.437616 
3931.000000	1.438164 
3930.000000	1.438784 
3929.000000	1.439499 
3928.000000	1.440238 
3927.000000	1.440906 
3926.000000	1.441478 
3925.000000	1.441860 
3924.000000	1.442027 
3923.000000	1.442027 
3922.000000	1.441860 
3921.000000	1.441597 
3920.000000	1.441287 
3919.000000	1.440954 
3918.000000	1.440691 
3917.000000	1.440548 
3916.000000	1.440501 
3915.000000	1.440572 
3914.000000	1.440715 
3913.000000	1.440882 
3912.000000	1.441001 
3911.000000	1.440978 
3910.000000	1.440787 
3909.000000	1.440429 
3908.000000	1.439881 
3907.000000	1.439166 
3906.000000	1.438379 
3905.000000	1.437616 
3904.000000	1.436996 
3903.000000	1.436638 
3902.000000	1.436614 
3901.000000	1.436948 
3900.000000	1.437640 
3899.000000	1.438593 
3898.000000	1.439738 
3897.000000	1.440954 
3896.000000	1.442027 
3895.000000	1.442933 
3894.000000	1.443600 
3893.000000	1.444005 
3892.000000	1.444244 
3891.000000	1.444363 
3890.000000	1.444435 
3889.000000	1.444602 
3888.000000	1.444959 
3887.000000	1.445555 
3886.000000	1.446413 
3885.000000	1.447510 
3884.000000	1.448798 
3883.000000	1.450157 
3882.000000	1.451492 
3881.000000	1.452708 
3880.000000	1.453685 
3879.000000	1.454401 
3878.000000	1.454782 
3877.000000	1.454877 
3876.000000	1.454710 
3875.000000	1.454377 
3874.000000	1.453948 
3873.000000	1.453518 
3872.000000	1.453185 
3871.000000	1.452994 
3870.000000	1.453042 
3869.000000	1.453447 
3868.000000	1.454210 
3867.000000	1.455307 
3866.000000	1.456713 
3865.000000	1.458263 
3864.000000	1.459789 
3863.000000	1.461124 
3862.000000	1.462030 
3861.000000	1.462364 
3860.000000	1.462101 
3859.000000	1.461315 
3858.000000	1.460194 
3857.000000	1.459050 
3856.000000	1.458263 
3855.000000	1.458191 
3854.000000	1.459002 
3853.000000	1.460862 
3852.000000	1.463651 
3851.000000	1.467132 
3850.000000	1.470971 
3849.000000	1.474738 
3848.000000	1.478099 
3847.000000	1.480746 
3846.000000	1.482558 
3845.000000	1.483535 
3844.000000	1.483774 
3843.000000	1.483464 
3842.000000	1.482915 
3841.000000	1.482343 
3840.000000	1.482081 
3839.000000	1.482200 
3838.000000	1.482915 
3837.000000	1.484179 
3836.000000	1.486039 
3835.000000	1.488375 
3834.000000	1.490998 
3833.000000	1.493787 
3832.000000	1.496529 
3831.000000	1.499056 
3830.000000	1.501202 
3829.000000	1.502919 
3828.000000	1.504135 
3827.000000	1.504898 
3826.000000	1.505303 
3825.000000	1.505398 
3824.000000	1.505351 
3823.000000	1.505303 
3822.000000	1.505303 
3821.000000	1.505494 
3820.000000	1.505923 
3819.000000	1.506614 
3818.000000	1.507616 
3817.000000	1.508879 
3816.000000	1.510381 
3815.000000	1.512074 
3814.000000	1.513838 
3813.000000	1.515650 
3812.000000	1.517343 
3811.000000	1.518821 
3810.000000	1.520037 
3809.000000	1.520895 
3808.000000	1.521444 
3807.000000	1.521682 
3806.000000	1.521778 
3805.000000	1.521825 
3804.000000	1.522016 
3803.000000	1.522469 
3802.000000	1.523256 
3801.000000	1.524448 
3800.000000	1.526021 
3799.000000	1.527953 
3798.000000	1.530098 
3797.000000	1.532411 
3796.000000	1.534700 
3795.000000	1.536917 
3794.000000	1.538991 
3793.000000	1.540827 
3792.000000	1.542448 
3791.000000	1.543831 
3790.000000	1.545023 
3789.000000	1.546025 
3788.000000	1.546883 
3787.000000	1.547622 
3786.000000	1.548337 
3785.000000	1.549005 
3784.000000	1.549696 
3783.000000	1.550412 
3782.000000	1.551198 
3781.000000	1.552104 
3780.000000	1.553106 
3779.000000	1.554226 
3778.000000	1.555418 
3777.000000	1.556658 
3776.000000	1.557922 
3775.000000	1.559114 
3774.000000	1.560258 
3773.000000	1.561355 
3772.000000	1.562380 
3771.000000	1.563382 
3770.000000	1.564431 
3769.000000	1.565551 
3768.000000	1.566767 
3767.000000	1.568102 
3766.000000	1.569485 
3765.000000	1.570796 
3764.000000	1.571965 
3763.000000	1.572942 
3762.000000	1.573610 
3761.000000	1.573920 
3760.000000	1.573777 
3759.000000	1.573252 
3758.000000	1.572322 
3757.000000	1.571035 
3756.000000	1.569533 
3755.000000	1.567792 
3754.000000	1.565980 
3753.000000	1.564121 
3752.000000	1.562404 
3751.000000	1.560878 
3750.000000	1.559662 
3749.000000	1.558852 
3748.000000	1.558494 
3747.000000	1.558613 
3746.000000	1.559162 
3745.000000	1.560115 
3744.000000	1.561331 
3743.000000	1.562690 
3742.000000	1.564049 
3741.000000	1.565313 
3740.000000	1.566386 
3739.000000	1.567292 
3738.000000	1.568007 
3737.000000	1.568627 
3736.000000	1.569223 
3735.000000	1.569890 
3734.000000	1.570749 
3733.000000	1.571750 
3732.000000	1.572942 
3731.000000	1.574254 
3730.000000	1.575660 
3729.000000	1.577115 
3728.000000	1.578569 
3727.000000	1.579976 
3726.000000	1.581358 
3725.000000	1.582694 
3724.000000	1.583957 
3723.000000	1.585054 
3722.000000	1.585960 
3721.000000	1.586627 
3720.000000	1.586961 
3719.000000	1.586937 
3718.000000	1.586556 
3717.000000	1.585841 
3716.000000	1.584959 
3715.000000	1.584005 
3714.000000	1.583170 
3713.000000	1.582574 
3712.000000	1.582312 
3711.000000	1.582431 
3710.000000	1.582932 
3709.000000	1.583623 
3708.000000	1.584434 
3707.000000	1.585173 
3706.000000	1.585817 
3705.000000	1.586222 
3704.000000	1.586437 
3703.000000	1.586508 
3702.000000	1.586508 
3701.000000	1.586461 
3700.000000	1.586461 
3699.000000	1.586389 
3698.000000	1.586270 
3697.000000	1.585984 
3696.000000	1.585459 
3695.000000	1.584744 
3694.000000	1.583862 
3693.000000	1.582908 
3692.000000	1.582074 
3691.000000	1.581454 
3690.000000	1.581263 
3689.000000	1.581478 
3688.000000	1.582193 
3687.000000	1.583194 
3686.000000	1.584315 
3685.000000	1.585364 
3684.000000	1.586127 
3683.000000	1.586413 
3682.000000	1.586127 
3681.000000	1.585268 
3680.000000	1.583933 
3679.000000	1.582288 
3678.000000	1.580429 
3677.000000	1.578617 
3676.000000	1.576972 
3675.000000	1.575684 
3674.000000	1.574921 
3673.000000	1.574683 
3672.000000	1.575040 
3671.000000	1.575922 
3670.000000	1.577281 
3669.000000	1.578998 
3668.000000	1.580882 
3667.000000	1.582837 
3666.000000	1.584649 
3665.000000	1.586174 
3664.000000	1.587343 
3663.000000	1.588082 
3662.000000	1.588439 
3661.000000	1.588416 
3660.000000	1.588106 
3659.000000	1.587510 
3658.000000	1.586675 
3657.000000	1.585674 
3656.000000	1.584529 
3655.000000	1.583218 
3654.000000	1.581883 
3653.000000	1.580643 
3652.000000	1.579618 
3651.000000	1.579022 
3650.000000	1.578950 
3649.000000	1.579427 
3648.000000	1.580500 
3647.000000	1.582002 
3646.000000	1.583814 
3645.000000	1.585650 
3644.000000	1.587367 
3643.000000	1.588845 
3642.000000	1.589989 
3641.000000	1.590728 
3640.000000	1.591157 
3639.000000	1.591229 
3638.000000	1.591110 
3637.000000	1.590776 
3636.000000	1.590275 
3635.000000	1.589584 
3634.000000	1.588821 
3633.000000	1.588034 
3632.000000	1.587343 
3631.000000	1.586890 
3630.000000	1.586794 
3629.000000	1.587104 
3628.000000	1.587891 
3627.000000	1.588964 
3626.000000	1.590180 
3625.000000	1.591396 
3624.000000	1.592421 
3623.000000	1.593136 
3622.000000	1.593542 
3621.000000	1.593661 
3620.000000	1.593589 
3619.000000	1.593422 
3618.000000	1.593255 
3617.000000	1.593160 
3616.000000	1.593184 
3615.000000	1.593327 
3614.000000	1.593518 
3613.000000	1.593780 
3612.000000	1.594185 
3611.000000	1.594638 
3610.000000	1.595211 
3609.000000	1.595926 
3608.000000	1.596784 
3607.000000	1.597833 
3606.000000	1.598978 
3605.000000	1.600146 
3604.000000	1.601314 
3603.000000	1.602435 
3602.000000	1.603436 
3601.000000	1.604294 
3600.000000	1.604986 
3599.000000	1.605558 
3598.000000	1.606011 
3597.000000	1.606369 
3596.000000	1.606655 
3595.000000	1.606893 
3594.000000	1.607131 
3593.000000	1.607346 
3592.000000	1.607584 
3591.000000	1.607942 
3590.000000	1.608419 
3589.000000	1.609063 
3588.000000	1.609849 
3587.000000	1.610803 
3586.000000	1.611876 
3585.000000	1.613044 
3584.000000	1.614236 
3583.000000	1.615405 
3582.000000	1.616501 
3581.000000	1.617503 
3580.000000	1.618361 
3579.000000	1.619124 
3578.000000	1.619744 
3577.000000	1.620221 
3576.000000	1.620554 
3575.000000	1.620769 
3574.000000	1.620793 
3573.000000	1.620674 
3572.000000	1.620507 
3571.000000	1.620316 
3570.000000	1.620197 
3569.000000	1.620173 
3568.000000	1.620340 
3567.000000	1.620769 
3566.000000	1.621437 
3565.000000	1.622343 
3564.000000	1.623415 
3563.000000	1.624608 
3562.000000	1.625871 
3561.000000	1.627135 
3560.000000	1.628327 
3559.000000	1.629400 
3558.000000	1.630282 
3557.000000	1.630997 
3556.000000	1.631522 
3555.000000	1.631879 
3554.000000	1.632070 
3553.000000	1.632189 
3552.000000	1.632285 
3551.000000	1.632404 
3550.000000	1.632618 
3549.000000	1.632952 
3548.000000	1.633405 
3547.000000	1.633977 
3546.000000	1.634573 
3545.000000	1.635169 
3544.000000	1.635718 
3543.000000	1.636075 
3542.000000	1.636266 
3541.000000	1.636290 
3540.000000	1.636123 
3539.000000	1.635837 
3538.000000	1.635479 
3537.000000	1.635098 
3536.000000	1.634740 
3535.000000	1.634478 
3534.000000	1.634263 
3533.000000	1.634168 
3532.000000	1.634168 
3531.000000	1.634311 
3530.000000	1.634502 
3529.000000	1.634812 
3528.000000	1.635217 
3527.000000	1.635670 
3526.000000	1.636195 
3525.000000	1.636767 
3524.000000	1.637291 
3523.000000	1.637792 
3522.000000	1.638221 
3521.000000	1.638555 
3520.000000	1.638793 
3519.000000	1.638960 
3518.000000	1.639103 
3517.000000	1.639223 
3516.000000	1.639342 
3515.000000	1.639485 
3514.000000	1.639676 
3513.000000	1.639890 
3512.000000	1.640033 
3511.000000	1.640129 
3510.000000	1.640105 
3509.000000	1.639938 
3508.000000	1.639676 
3507.000000	1.639318 
3506.000000	1.638865 
3505.000000	1.638412 
3504.000000	1.637983 
3503.000000	1.637625 
3502.000000	1.637315 
3501.000000	1.637077 
3500.000000	1.636886 
3499.000000	1.636695 
3498.000000	1.636481 
3497.000000	1.636266 
3496.000000	1.635980 
3495.000000	1.635646 
3494.000000	1.635241 
3493.000000	1.634788 
3492.000000	1.634263 
3491.000000	1.633715 
3490.000000	1.633143 
3489.000000	1.632571 
3488.000000	1.631975 
3487.000000	1.631355 
3486.000000	1.630735 
3485.000000	1.630139 
3484.000000	1.629567 
3483.000000	1.628994 
3482.000000	1.628422 
3481.000000	1.627802 
3480.000000	1.627182 
3479.000000	1.626491 
3478.000000	1.625800 
3477.000000	1.625037 
3476.000000	1.624274 
3475.000000	1.623487 
3474.000000	1.622700 
3473.000000	1.621913 
3472.000000	1.621174 
3471.000000	1.620435 
3470.000000	1.619768 
3469.000000	1.619172 
3468.000000	1.618647 
3467.000000	1.618242 
3466.000000	1.617908 
3465.000000	1.617670 
3464.000000	1.617527 
3463.000000	1.617407 
3462.000000	1.617288 
3461.000000	1.617050 
3460.000000	1.616716 
3459.000000	1.616239 
3458.000000	1.615524 
3457.000000	1.614665 
3456.000000	1.613640 
3455.000000	1.612544 
3454.000000	1.611399 
3453.000000	1.610231 
3452.000000	1.609039 
3451.000000	1.607918 
3450.000000	1.606845 
3449.000000	1.605796 
3448.000000	1.604819 
3447.000000	1.603913 
3446.000000	1.603078 
3445.000000	1.602315 
3444.000000	1.601743 
3443.000000	1.601290 
3442.000000	1.600980 
3441.000000	1.600837 
3440.000000	1.600813 
3439.000000	1.600885 
3438.000000	1.601004 
3437.000000	1.601076 
3436.000000	1.601123 
3435.000000	1.601052 
3434.000000	1.600909 
3433.000000	1.600623 
3432.000000	1.600289 
3431.000000	1.599907 
3430.000000	1.599526 
3429.000000	1.599168 
3428.000000	1.598882 
3427.000000	1.598691 
3426.000000	1.598644 
3425.000000	1.598620 
3424.000000	1.598668 
3423.000000	1.598763 
3422.000000	1.598858 
3421.000000	1.599001 
3420.000000	1.599121 
3419.000000	1.599287 
3418.000000	1.599502 
3417.000000	1.599764 
3416.000000	1.600146 
3415.000000	1.600623 
3414.000000	1.601195 
3413.000000	1.601862 
3412.000000	1.602602 
3411.000000	1.603364 
3410.000000	1.604151 
3409.000000	1.604938 
3408.000000	1.605701 
3407.000000	1.606416 
3406.000000	1.607108 
3405.000000	1.607799 
3404.000000	1.608419 
3403.000000	1.608967 
3402.000000	1.609516 
3401.000000	1.610016 
3400.000000	1.610422 
3399.000000	1.610827 
3398.000000	1.611161 
3397.000000	1.611471 
3396.000000	1.611781 
3395.000000	1.612138 
3394.000000	1.612591 
3393.000000	1.613116 
3392.000000	1.613783 
3391.000000	1.614570 
3390.000000	1.615428 
3389.000000	1.616406 
3388.000000	1.617383 
3387.000000	1.618361 
3386.000000	1.619291 
3385.000000	1.620125 
3384.000000	1.620817 
3383.000000	1.621317 
3382.000000	1.621747 
3381.000000	1.621985 
3380.000000	1.622176 
3379.000000	1.622366 
3378.000000	1.622629 
3377.000000	1.623058 
3376.000000	1.623678 
3375.000000	1.624512 
3374.000000	1.625561 
3373.000000	1.626777 
3372.000000	1.628065 
3371.000000	1.629447 
3370.000000	1.630806 
3369.000000	1.632142 
3368.000000	1.633501 
3367.000000	1.634764 
3366.000000	1.636099 
3365.000000	1.637506 
3364.000000	1.638960 
3363.000000	1.640486 
3362.000000	1.641988 
3361.000000	1.643490 
3360.000000	1.644945 
3359.000000	1.646399 
3358.000000	1.647782 
3357.000000	1.649188 
3356.000000	1.650691 
3355.000000	1.652288 
3354.000000	1.654028 
3353.000000	1.655864 
3352.000000	1.657772 
3351.000000	1.659679 
3350.000000	1.661515 
3349.000000	1.663208 
3348.000000	1.664733 
3347.000000	1.666140 
3346.000000	1.667428 
3345.000000	1.668620 
3344.000000	1.669812 
3343.000000	1.671051 
3342.000000	1.672363 
3341.000000	1.673746 
3340.000000	1.675200 
3339.000000	1.676726 
3338.000000	1.678276 
3337.000000	1.679897 
3336.000000	1.681518 
3335.000000	1.683163 
3334.000000	1.684832 
3333.000000	1.686453 
3332.000000	1.688075 
3331.000000	1.689624 
3330.000000	1.691102 
3329.000000	1.692509 
3328.000000	1.693868 
3327.000000	1.695227 
3326.000000	1.696562 
3325.000000	1.698017 
3324.000000	1.699542 
3323.000000	1.701140 
3322.000000	1.702833 
3321.000000	1.704668 
3320.000000	1.706552 
3319.000000	1.708388 
3318.000000	1.710200 
3317.000000	1.711893 
3316.000000	1.713490 
3315.000000	1.714968 
3314.000000	1.716351 
3313.000000	1.717638 
3312.000000	1.718854 
3311.000000	1.720046 
3310.000000	1.721239 
3309.000000	1.722478 
3308.000000	1.723694 
3307.000000	1.724958 
3306.000000	1.726222 
3305.000000	1.727509 
3304.000000	1.728820 
3303.000000	1.730155 
3302.000000	1.731538 
3301.000000	1.732969 
3300.000000	1.734471 
3299.000000	1.736021 
3298.000000	1.737666 
3297.000000	1.739358 
3296.000000	1.741099 
3295.000000	1.742815 
3294.000000	1.744508 
3293.000000	1.746129 
3292.000000	1.747655 
3291.000000	1.749110 
3290.000000	1.750469 
3289.000000	1.751780 
3288.000000	1.753020 
3287.000000	1.754236 
3286.000000	1.755452 
3285.000000	1.756644 
3284.000000	1.757812 
3283.000000	1.758956 
3282.000000	1.760029 
3281.000000	1.761054 
3280.000000	1.762056 
3279.000000	1.763033 
3278.000000	1.764011 
3277.000000	1.765012 
3276.000000	1.766037 
3275.000000	1.767110 
3274.000000	1.768207 
3273.000000	1.769304 
3272.000000	1.770353 
3271.000000	1.771378 
3270.000000	1.772356 
3269.000000	1.773238 
3268.000000	1.774096 
3267.000000	1.774954 
3266.000000	1.775884 
3265.000000	1.776862 
3264.000000	1.777911 
3263.000000	1.779055 
3262.000000	1.780223 
3261.000000	1.781368 
3260.000000	1.782369 
3259.000000	1.783227 
3258.000000	1.783895 
3257.000000	1.784372 
3256.000000	1.784729 
3255.000000	1.785039 
3254.000000	1.785326 
3253.000000	1.785683 
3252.000000	1.786065 
3251.000000	1.786565 
3250.000000	1.787137 
3249.000000	1.787829 
3248.000000	1.788568 
3247.000000	1.789331 
3246.000000	1.790142 
3245.000000	1.791000 
3244.000000	1.791858 
3243.000000	1.792669 
3242.000000	1.793456 
3241.000000	1.794099 
3240.000000	1.794600 
3239.000000	1.794886 
3238.000000	1.795005 
3237.000000	1.794958 
3236.000000	1.794791 
3235.000000	1.794600 
3234.000000	1.794481 
3233.000000	1.794457 
3232.000000	1.794576 
3231.000000	1.794862 
3230.000000	1.795315 
3229.000000	1.795816 
3228.000000	1.796340 
3227.000000	1.796841 
3226.000000	1.797270 
3225.000000	1.797628 
3224.000000	1.797914 
3223.000000	1.798176 
3222.000000	1.798439 
3221.000000	1.798725 
3220.000000	1.799035 
3219.000000	1.799392 
3218.000000	1.799774 
3217.000000	1.800107 
3216.000000	1.800370 
3215.000000	1.800584 
3214.000000	1.800704 
3213.000000	1.800799 
3212.000000	1.800870 
3211.000000	1.800918 
3210.000000	1.801061 
3209.000000	1.801204 
3208.000000	1.801395 
3207.000000	1.801681 
3206.000000	1.802015 
3205.000000	1.802349 
3204.000000	1.802706 
3203.000000	1.803016 
3202.000000	1.803302 
3201.000000	1.803493 
3200.000000	1.803588 
3199.000000	1.803636 
3198.000000	1.803565 
3197.000000	1.803421 
3196.000000	1.803302 
3195.000000	1.803207 
3194.000000	1.803231 
3193.000000	1.803302 
3192.000000	1.803493 
3191.000000	1.803755 
3190.000000	1.804089 
3189.000000	1.804423 
3188.000000	1.804804 
3187.000000	1.805138 
3186.000000	1.805448 
3185.000000	1.805710 
3184.000000	1.805949 
3183.000000	1.806235 
3182.000000	1.806521 
3181.000000	1.806831 
3180.000000	1.807188 
3179.000000	1.807546 
3178.000000	1.807928 
3177.000000	1.808309 
3176.000000	1.808667 
3175.000000	1.809048 
3174.000000	1.809406 
3173.000000	1.809835 
3172.000000	1.810264 
3171.000000	1.810741 
3170.000000	1.811218 
3169.000000	1.811718 
3168.000000	1.812219 
3167.000000	1.812696 
3166.000000	1.813125 
3165.000000	1.813507 
3164.000000	1.813888 
3163.000000	1.814317 
3162.000000	1.814770 
3161.000000	1.815342 
3160.000000	1.815986 
3159.000000	1.816773 
3158.000000	1.817655 
3157.000000	1.818585 
3156.000000	1.819515 
3155.000000	1.820445 
3154.000000	1.821303 
3153.000000	1.821994 
3152.000000	1.822614 
3151.000000	1.823115 
3150.000000	1.823520 
3149.000000	1.823925 
3148.000000	1.824307 
3147.000000	1.824760 
3146.000000	1.825380 
3145.000000	1.826119 
3144.000000	1.827049 
3143.000000	1.828217 
3142.000000	1.829552 
3141.000000	1.831078 
3140.000000	1.832818 
3139.000000	1.834630 
3138.000000	1.836466 
3137.000000	1.838278 
3136.000000	1.840043 
3135.000000	1.841688 
3134.000000	1.843214 
3133.000000	1.844596 
3132.000000	1.845860 
3131.000000	1.847004 
3130.000000	1.848053 
3129.000000	1.849031 
3128.000000	1.849913 
3127.000000	1.850700 
3126.000000	1.851439 
3125.000000	1.852107 
3124.000000	1.852774 
3123.000000	1.853442 
3122.000000	1.854181 
3121.000000	1.855063 
3120.000000	1.856088 
3119.000000	1.857280 
3118.000000	1.858592 
3117.000000	1.860046 
3116.000000	1.861572 
3115.000000	1.863193 
3114.000000	1.864838 
3113.000000	1.866507 
3112.000000	1.868247 
3111.000000	1.870036 
3110.000000	1.871871 
3109.000000	1.873803 
3108.000000	1.875758 
3107.000000	1.877760 
3106.000000	1.879787 
3105.000000	1.881814 
3104.000000	1.883792 
3103.000000	1.885771 
3102.000000	1.887679 
3101.000000	1.889562 
3100.000000	1.891446 
3099.000000	1.893353 
3098.000000	1.895332 
3097.000000	1.897358 
3096.000000	1.899433 
3095.000000	1.901555 
3094.000000	1.903748 
3093.000000	1.905965 
3092.000000	1.908183 
3091.000000	1.910352 
3090.000000	1.912522 
3089.000000	1.914620 
3088.000000	1.916670 
3087.000000	1.918578 
3086.000000	1.920461 
3085.000000	1.922225 
3084.000000	1.923871 
3083.000000	1.925444 
3082.000000	1.926946 
3081.000000	1.928424 
3080.000000	1.929855 
3079.000000	1.931262 
3078.000000	1.932716 
3077.000000	1.934170 
3076.000000	1.935601 
3075.000000	1.937007 
3074.000000	1.938295 
3073.000000	1.939511 
3072.000000	1.940631 
3071.000000	1.941609 
3070.000000	1.942467 
3069.000000	1.943254 
3068.000000	1.943993 
3067.000000	1.944732 
3066.000000	1.945519 
3065.000000	1.946377 
3064.000000	1.947355 
3063.000000	1.948451 
3062.000000	1.949763 
3061.000000	1.951217 
3060.000000	1.952862 
3059.000000	1.954698 
3058.000000	1.956748 
3057.000000	1.958990 
3056.000000	1.961278 
3055.000000	1.963686 
3054.000000	1.966047 
3053.000000	1.968336 
3052.000000	1.970505 
3051.000000	1.972532 
3050.000000	1.974391 
3049.000000	1.976108 
3048.000000	1.977682 
3047.000000	1.979112 
3046.000000	1.980423 
3045.000000	1.981687 
3044.000000	1.982879 
3043.000000	1.984000 
3042.000000	1.985096 
3041.000000	1.986241 
3040.000000	1.987409 
3039.000000	1.988601 
3038.000000	1.989769 
3037.000000	1.990914 
3036.000000	1.991915 
3035.000000	1.992774 
3034.000000	1.993298 
3033.000000	1.993489 
3032.000000	1.993322 
3031.000000	1.992726 
3030.000000	1.991724 
3029.000000	1.990342 
3028.000000	1.988554 
3027.000000	1.986432 
3026.000000	1.984095 
3025.000000	1.981616 
3024.000000	1.979136 
3023.000000	1.976799 
3022.000000	1.974797 
3021.000000	1.973271 
3020.000000	1.972460 
3019.000000	1.972532 
3018.000000	1.973509 
3017.000000	1.975488 
3016.000000	1.978445 
3015.000000	1.982235 
3014.000000	1.986765 
3013.000000	1.991796 
3012.000000	1.997137 
3011.000000	2.002573 
3010.000000	2.007842 
3009.000000	2.012848 
3008.000000	2.017474 
3007.000000	2.021622 
3006.000000	2.025246 
3005.000000	2.028393 
3004.000000	2.031135 
3003.000000	2.033495 
3002.000000	2.035546 
3001.000000	2.037334 
3000.000000	2.038931 
2999.000000	2.040338 
2998.000000	2.041530 
2997.000000	2.042484 
2996.000000	2.043199 
2995.000000	2.043724 
2994.000000	2.044034 
2993.000000	2.044177 
2992.000000	2.044153 
2991.000000	2.044010 
2990.000000	2.043819 
2989.000000	2.043533 
2988.000000	2.043151 
2987.000000	2.042675 
2986.000000	2.041983 
2985.000000	2.041006 
2984.000000	2.039718 
2983.000000	2.038073 
2982.000000	2.036023 
2981.000000	2.033591 
2980.000000	2.030825 
2979.000000	2.027750 
2978.000000	2.024412 
2977.000000	2.020835 
2976.000000	2.016997 
2975.000000	2.012825 
2974.000000	2.008271 
2973.000000	2.003264 
2972.000000	1.997852 
2971.000000	1.991939 
2970.000000	1.985573 
2969.000000	1.978993 
2968.000000	1.972341 
2967.000000	1.965808 
2966.000000	1.959657 
2965.000000	1.954126 
2964.000000	1.949310 
2963.000000	1.945352 
2962.000000	1.942276 
2961.000000	1.940035 
2960.000000	1.938557 
2959.000000	1.937675 
2958.000000	1.937270 
2957.000000	1.937127 
2956.000000	1.937127 
2955.000000	1.937127 
2954.000000	1.936888 
2953.000000	1.936364 
2952.000000	1.935386 
2951.000000	1.933836 
2950.000000	1.931595 
2949.000000	1.928544 
2948.000000	1.924633 
2947.000000	1.919794 
2946.000000	1.913976 
2945.000000	1.907229 
2944.000000	1.899695 
2943.000000	1.891374 
2942.000000	1.882410 
2941.000000	1.873040 
2940.000000	1.863455 
2939.000000	1.853847 
2938.000000	1.844358 
2937.000000	1.835155 
2936.000000	1.826381 
2935.000000	1.818037 
2934.000000	1.810193 
2933.000000	1.802921 
2932.000000	1.796245 
2931.000000	1.790189 
2930.000000	1.784968 
2929.000000	1.780748 
2928.000000	1.777672 
2927.000000	1.776027 
2926.000000	1.776003 
2925.000000	1.777863 
2924.000000	1.781558 
2923.000000	1.787185 
2922.000000	1.794672 
2921.000000	1.803827 
2920.000000	1.814413 
2919.000000	1.826119 
2918.000000	1.838517 
2917.000000	1.851296 
2916.000000	1.864075 
2915.000000	1.876473 
2914.000000	1.888275 
2913.000000	1.899194 
2912.000000	1.909160 
2911.000000	1.918029 
2910.000000	1.925849 
2909.000000	1.932740 
2908.000000	1.938819 
2907.000000	1.944208 
2906.000000	1.949119 
2905.000000	1.953649 
2904.000000	1.957893 
2903.000000	1.961922 
2902.000000	1.965808 
2901.000000	1.969552 
2900.000000	1.973128 
2899.000000	1.976633 
2898.000000	1.979994 
2897.000000	1.983261 
2896.000000	1.986479 
2895.000000	1.989626 
2894.000000	1.992702 
2893.000000	1.995682 
2892.000000	1.998591 
2891.000000	2.001357 
2890.000000	2.003979 
2889.000000	2.006411 
2888.000000	2.008700 
2887.000000	2.010750 
2886.000000	2.012634 
2885.000000	2.014374 
2884.000000	2.015852 
2883.000000	2.017092 
2882.000000	2.018022 
2881.000000	2.018547 
2880.000000	2.018594 
2879.000000	2.018117 
2878.000000	2.017068 
2877.000000	2.015352 
2876.000000	2.012920 
2875.000000	2.009820 
2874.000000	2.005934 
2873.000000	2.001261 
2872.000000	1.995754 
2871.000000	1.989388 
2870.000000	1.982164 
2869.000000	1.974129 
2868.000000	1.965427 
2867.000000	1.956415 
2866.000000	1.947355 
2865.000000	1.938796 
2864.000000	1.931118 
2863.000000	1.924920 
2862.000000	1.920509 
2861.000000	1.918315 
2860.000000	1.918339 
2859.000000	1.920676 
2858.000000	1.925086 
2857.000000	1.931381 
2856.000000	1.939201 
2855.000000	1.948189 
2854.000000	1.957988 
2853.000000	1.968336 
2852.000000	1.978969 
2851.000000	1.989698 
2850.000000	2.000308 
2849.000000	2.010750 
2848.000000	2.020859 
2847.000000	2.030587 
2846.000000	2.039790 
2845.000000	2.048444 
2844.000000	2.056527 
2843.000000	2.064061 
2842.000000	2.070999 
2841.000000	2.077388 
2840.000000	2.083373 
2839.000000	2.088952 
2838.000000	2.094125 
2837.000000	2.099013 
2836.000000	2.103638 
2835.000000	2.108073 
2834.000000	2.112269 
2833.000000	2.116274 
2832.000000	2.120089 
2831.000000	2.123689 
2830.000000	2.127051 
2829.000000	2.130246 
2828.000000	2.133274 
2827.000000	2.136135 
2826.000000	2.138876 
2825.000000	2.141499 
2824.000000	2.144002 
2823.000000	2.146482 
2822.000000	2.148890 
2821.000000	2.151179 
2820.000000	2.153396 
2819.000000	2.155566 
2818.000000	2.157688 
2817.000000	2.159762 
2816.000000	2.161812 
2815.000000	2.163815 
2814.000000	2.165865 
2813.000000	2.167916 
2812.000000	2.170038 
2811.000000	2.172207 
2810.000000	2.174448 
2809.000000	2.176690 
2808.000000	2.178955 
2807.000000	2.181220 
2806.000000	2.183461 
2805.000000	2.185630 
2804.000000	2.187776 
2803.000000	2.189826 
2802.000000	2.191877 
2801.000000	2.193880 
2800.000000	2.195835 
2799.000000	2.197790 
2798.000000	2.199721 
2797.000000	2.201581 
2796.000000	2.203345 
2795.000000	2.205061 
2794.000000	2.206683 
2793.000000	2.208232 
2792.000000	2.209734 
2791.000000	2.211213 
2790.000000	2.212715 
2789.000000	2.214241 
2788.000000	2.215838 
2787.000000	2.217602 
2786.000000	2.219414 
2785.000000	2.221298 
2784.000000	2.223205 
2783.000000	2.225160 
2782.000000	2.227067 
2781.000000	2.228975 
2780.000000	2.230834 
2779.000000	2.232694 
2778.000000	2.234554 
2777.000000	2.236318 
2776.000000	2.238059 
2775.000000	2.239823 
2774.000000	2.241468 
2773.000000	2.243041 
2772.000000	2.244520 
2771.000000	2.245855 
2770.000000	2.247047 
2769.000000	2.248096 
2768.000000	2.249050 
2767.000000	2.249860 
2766.000000	2.250552 
2765.000000	2.251219 
2764.000000	2.251863 
2763.000000	2.252531 
2762.000000	2.253246 
2761.000000	2.254056 
2760.000000	2.254962 
2759.000000	2.255964 
2758.000000	2.257037 
2757.000000	2.258086 
2756.000000	2.259159 
2755.000000	2.260136 
2754.000000	2.261066 
2753.000000	2.261877 
2752.000000	2.262663 
2751.000000	2.263355 
2750.000000	2.264022 
2749.000000	2.264666 
2748.000000	2.265286 
2747.000000	2.265858 
2746.000000	2.266359 
2745.000000	2.266764 
2744.000000	2.267003 
2743.000000	2.267146 
2742.000000	2.267169 
2741.000000	2.267098 
2740.000000	2.267026 
2739.000000	2.266955 
2738.000000	2.266907 
2737.000000	2.266979 
2736.000000	2.267146 
2735.000000	2.267408 
2734.000000	2.267670 
2733.000000	2.268004 
2732.000000	2.268266 
2731.000000	2.268528 
2730.000000	2.268719 
2729.000000	2.268791 
2728.000000	2.268767 
2727.000000	2.268648 
2726.000000	2.268457 
2725.000000	2.268242 
2724.000000	2.267956 
2723.000000	2.267718 
2722.000000	2.267503 
2721.000000	2.267313 
2720.000000	2.267146 
2719.000000	2.266955 
2718.000000	2.266764 
2717.000000	2.266502 
2716.000000	2.266216 
2715.000000	2.265810 
2714.000000	2.265334 
2713.000000	2.264785 
2712.000000	2.264165 
2711.000000	2.263522 
2710.000000	2.262830 
2709.000000	2.262139 
2708.000000	2.261471 
2707.000000	2.260828 
2706.000000	2.260208 
2705.000000	2.259635 
2704.000000	2.259159 
2703.000000	2.258753 
2702.000000	2.258372 
2701.000000	2.258062 
2700.000000	2.257728 
2699.000000	2.257418 
2698.000000	2.257156 
2697.000000	2.256822 
2696.000000	2.256464 
2695.000000	2.256083 
2694.000000	2.255606 
2693.000000	2.255034 
2692.000000	2.254366 
2691.000000	2.253627 
2690.000000	2.252769 
2689.000000	2.251863 
2688.000000	2.250862 
2687.000000	2.249884 
2686.000000	2.248954 
2685.000000	2.248024 
2684.000000	2.247214 
2683.000000	2.246475 
2682.000000	2.245855 
2681.000000	2.245378 
2680.000000	2.244997 
2679.000000	2.244639 
2678.000000	2.244281 
2677.000000	2.243924 
2676.000000	2.243566 
2675.000000	2.243137 
2674.000000	2.242636 
2673.000000	2.242064 
2672.000000	2.241468 
2671.000000	2.240872 
2670.000000	2.240347 
2669.000000	2.239847 
2668.000000	2.239418 
2667.000000	2.239036 
2666.000000	2.238631 
2665.000000	2.238249 
2664.000000	2.237796 
2663.000000	2.237272 
2662.000000	2.236676 
2661.000000	2.236008 
2660.000000	2.235269 
2659.000000	2.234554 
2658.000000	2.233839 
2657.000000	2.233123 
2656.000000	2.232527 
2655.000000	2.232027 
2654.000000	2.231550 
2653.000000	2.231192 
2652.000000	2.230882 
2651.000000	2.230668 
2650.000000	2.230548 
2649.000000	2.230453 
2648.000000	2.230405 
2647.000000	2.230381 
2646.000000	2.230334 
2645.000000	2.230262 
2644.000000	2.230191 
2643.000000	2.230048 
2642.000000	2.229905 
2641.000000	2.229762 
2640.000000	2.229642 
2639.000000	2.229595 
2638.000000	2.229619 
2637.000000	2.229714 
2636.000000	2.229857 
2635.000000	2.230024 
2634.000000	2.230191 
2633.000000	2.230262 
2632.000000	2.230286 
2631.000000	2.230167 
2630.000000	2.230000 
2629.000000	2.229762 
2628.000000	2.229547 
2627.000000	2.229356 
2626.000000	2.229213 
2625.000000	2.229189 
2624.000000	2.229261 
2623.000000	2.229452 
2622.000000	2.229714 
2621.000000	2.230072 
2620.000000	2.230453 
2619.000000	2.230882 
2618.000000	2.231311 
2617.000000	2.231788 
2616.000000	2.232289 
2615.000000	2.232789 
2614.000000	2.233314 
2613.000000	2.233839 
2612.000000	2.234339 
2611.000000	2.234864 
2610.000000	2.235364 
2609.000000	2.235841 
2608.000000	2.236318 
2607.000000	2.236747 
2606.000000	2.237129 
2605.000000	2.237510 
2604.000000	2.237868 
2603.000000	2.238249 
2602.000000	2.238583 
2601.000000	2.238917 
2600.000000	2.239251 
2599.000000	2.239561 
2598.000000	2.239823 
2597.000000	2.240014 
2596.000000	2.240157 
2595.000000	2.240300 
2594.000000	2.240419 
2593.000000	2.240681 
2592.000000	2.241110 
2591.000000	2.241802 
2590.000000	2.242827 
2589.000000	2.244138 
2588.000000	2.245736 
2587.000000	2.247476 
2586.000000	2.249336 
2585.000000	2.251172 
2584.000000	2.252912 
2583.000000	2.254557 
2582.000000	2.255988 
2581.000000	2.257299 
2580.000000	2.258539 
2579.000000	2.259755 
2578.000000	2.260994 
2577.000000	2.262258 
2576.000000	2.263665 
2575.000000	2.265191 
2574.000000	2.266812 
2573.000000	2.268528 
2572.000000	2.270340 
2571.000000	2.272200 
2570.000000	2.274036 
2569.000000	2.275824 
2568.000000	2.277565 
2567.000000	2.279210 
2566.000000	2.280735 
2565.000000	2.282190 
2564.000000	2.283549 
2563.000000	2.284860 
2562.000000	2.286148 
2561.000000	2.287435 
2560.000000	2.288794 
2559.000000	2.290177 
2558.000000	2.291607 
2557.000000	2.293086 
2556.000000	2.294564 
2555.000000	2.295994 
2554.000000	2.297353 
2553.000000	2.298641 
2552.000000	2.299833 
2551.000000	2.300906 
2550.000000	2.301907 
2549.000000	2.302861 
2548.000000	2.303791 
2547.000000	2.304697 
2546.000000	2.305674 
2545.000000	2.306652 
2544.000000	2.307677 
2543.000000	2.308750 
2542.000000	2.309870 
2541.000000	2.311038 
2540.000000	2.312207 
2539.000000	2.313351 
2538.000000	2.314519 
2537.000000	2.315664 
2536.000000	2.316737 
2535.000000	2.317738 
2534.000000	2.318716 
2533.000000	2.319622 
2532.000000	2.320551 
2531.000000	2.321434 
2530.000000	2.322292 
2529.000000	2.323174 
2528.000000	2.323985 
2527.000000	2.324771 
2526.000000	2.325534 
2525.000000	2.326226 
2524.000000	2.326893 
2523.000000	2.327513 
2522.000000	2.328157 
2521.000000	2.328848 
2520.000000	2.329564 
2519.000000	2.330374 
2518.000000	2.331256 
2517.000000	2.332210 
2516.000000	2.333164 
2515.000000	2.334094 
2514.000000	2.335000 
2513.000000	2.335762 
2512.000000	2.336454 
2511.000000	2.336978 
2510.000000	2.337336 
2509.000000	2.337551 
2508.000000	2.337598 
2507.000000	2.337574 
2506.000000	2.337479 
2505.000000	2.337336 
2504.000000	2.337241 
2503.000000	2.337193 
2502.000000	2.337193 
2501.000000	2.337288 
2500.000000	2.337408 
2499.000000	2.337551 
2498.000000	2.337765 
2497.000000	2.337932 
2496.000000	2.338051 
2495.000000	2.338123 
2494.000000	2.338171 
2493.000000	2.338171 
2492.000000	2.338123 
2491.000000	2.338027 
2490.000000	2.337908 
2489.000000	2.337765 
2488.000000	2.337527 
2487.000000	2.337241 
2486.000000	2.336907 
2485.000000	2.336525 
2484.000000	2.336096 
2483.000000	2.335643 
2482.000000	2.335166 
2481.000000	2.334618 
2480.000000	2.334094 
2479.000000	2.333545 
2478.000000	2.332997 
2477.000000	2.332496 
2476.000000	2.332019 
2475.000000	2.331519 
2474.000000	2.331018 
2473.000000	2.330493 
2472.000000	2.329897 
2471.000000	2.329206 
2470.000000	2.328443 
2469.000000	2.327609 
2468.000000	2.326750 
2467.000000	2.325868 
2466.000000	2.324986 
2465.000000	2.324151 
2464.000000	2.323317 
2463.000000	2.322459 
2462.000000	2.321553 
2461.000000	2.320551 
2460.000000	2.319455 
2459.000000	2.318310 
2458.000000	2.317118 
2457.000000	2.315902 
2456.000000	2.314758 
2455.000000	2.313685 
2454.000000	2.312707 
2453.000000	2.311778 
2452.000000	2.310872 
2451.000000	2.309942 
2450.000000	2.308964 
2449.000000	2.307891 
2448.000000	2.306818 
2447.000000	2.305722 
2446.000000	2.304673 
2445.000000	2.303719 
2444.000000	2.302861 
2443.000000	2.302122 
2442.000000	2.301406 
2441.000000	2.300715 
2440.000000	2.299928 
2439.000000	2.299046 
2438.000000	2.297973 
2437.000000	2.296757 
2436.000000	2.295422 
2435.000000	2.293992 
2434.000000	2.292513 
2433.000000	2.291035 
2432.000000	2.289652 
2431.000000	2.288341 
2430.000000	2.287125 
2429.000000	2.286076 
2428.000000	2.285099 
2427.000000	2.284240 
2426.000000	2.283430 
2425.000000	2.282667 
2424.000000	2.281856 
2423.000000	2.281045 
2422.000000	2.280163 
2421.000000	2.279233 
2420.000000	2.278232 
2419.000000	2.277231 
2418.000000	2.276206 
2417.000000	2.275228 
2416.000000	2.274274 
2415.000000	2.273368 
2414.000000	2.272534 
2413.000000	2.271795 
2412.000000	2.271151 
2411.000000	2.270531 
2410.000000	2.269983 
2409.000000	2.269458 
2408.000000	2.268934 
2407.000000	2.268362 
2406.000000	2.267765 
2405.000000	2.267074 
2404.000000	2.266383 
2403.000000	2.265644 
2402.000000	2.264952 
2401.000000	2.264332 
2400.000000	2.263855 
2399.000000	2.263545 
2398.000000	2.263379 
2397.000000	2.263307 
2396.000000	2.263331 
2395.000000	2.263402 
2394.000000	2.263402 
2393.000000	2.263307 
2392.000000	2.263116 
2391.000000	2.262735 
2390.000000	2.262258 
2389.000000	2.261662 
2388.000000	2.261018 
2387.000000	2.260327 
2386.000000	2.259683 
2385.000000	2.259039 
2384.000000	2.258443 
2383.000000	2.257871 
2382.000000	2.257299 
2381.000000	2.256679 
2380.000000	2.255988 
2379.000000	2.255201 
2378.000000	2.254271 
2377.000000	2.253222 
2376.000000	2.252078 
2375.000000	2.250838 
2374.000000	2.249574 
2373.000000	2.248334 
2372.000000	2.247190 
2371.000000	2.246141 
2370.000000	2.245306 
2369.000000	2.244639 
2368.000000	2.244186 
2367.000000	2.243924 
2366.000000	2.243804 
2365.000000	2.243876 
2364.000000	2.244114 
2363.000000	2.244544 
2362.000000	2.245163 
2361.000000	2.245998 
2360.000000	2.247095 
2359.000000	2.248573 
2358.000000	2.250337 
2357.000000	2.252483 
2356.000000	2.254891 
2355.000000	2.257466 
2354.000000	2.260136 
2353.000000	2.262783 
2352.000000	2.265238 
2351.000000	2.267456 
2350.000000	2.269339 
2349.000000	2.270889 
2348.000000	2.272081 
2347.000000	2.272987 
2346.000000	2.273631 
2345.000000	2.274060 
2344.000000	2.274394 
2343.000000	2.274656 
2342.000000	2.274918 
2341.000000	2.275204 
2340.000000	2.275586 
2339.000000	2.276015 
2338.000000	2.276611 
2337.000000	2.277350 
2336.000000	2.278280 
2335.000000	2.279424 
2334.000000	2.280807 
2333.000000	2.282428 
2332.000000	2.284312 
2331.000000	2.286458 
2330.000000	2.288842 
2329.000000	2.291393 
2328.000000	2.294039 
2327.000000	2.296710 
2326.000000	2.299308 
2325.000000	2.301788 
2324.000000	2.304124 
2323.000000	2.306270 
2322.000000	2.308368 
2321.000000	2.310371 
2320.000000	2.312302 
2319.000000	2.314233 
2318.000000	2.316141 
2317.000000	2.318096 
2316.000000	2.320027 
2315.000000	2.321958 
2314.000000	2.323865 
2313.000000	2.325701 
2312.000000	2.327513 
2311.000000	2.329277 
2310.000000	2.331018 
2309.000000	2.332735 
2308.000000	2.334475 
2307.000000	2.336239 
2306.000000	2.338027 
2305.000000	2.339911 
2304.000000	2.341890 
2303.000000	2.343964 
2302.000000	2.346110 
2301.000000	2.348279 
2300.000000	2.350449 
2299.000000	2.352571 
2298.000000	2.354526 
2297.000000	2.356314 
2296.000000	2.357888 
2295.000000	2.359247 
2294.000000	2.360415 
2293.000000	2.361392 
2292.000000	2.362346 
2291.000000	2.363228 
2290.000000	2.364158 
2289.000000	2.365159 
2288.000000	2.366232 
2287.000000	2.367353 
2286.000000	2.368474 
2285.000000	2.369618 
2284.000000	2.370643 
2283.000000	2.371597 
2282.000000	2.372407 
2281.000000	2.373099 
2280.000000	2.373647 
2279.000000	2.374172 
2278.000000	2.374625 
2277.000000	2.375078 
2276.000000	2.375626 
2275.000000	2.376270 
2274.000000	2.377057 
2273.000000	2.377915 
2272.000000	2.378821 
2271.000000	2.379727 
2270.000000	2.380633 
2269.000000	2.381443 
2268.000000	2.382183 
2267.000000	2.382826 
2266.000000	2.383351 
2265.000000	2.383828 
2264.000000	2.384257 
2263.000000	2.384638 
2262.000000	2.385044 
2261.000000	2.385473 
2260.000000	2.385854 
2259.000000	2.386283 
2258.000000	2.386713 
2257.000000	2.387118 
2256.000000	2.387523 
2255.000000	2.387928 
2254.000000	2.388334 
2253.000000	2.388787 
2252.000000	2.389216 
2251.000000	2.389693 
2250.000000	2.390146 
2249.000000	2.390646 
2248.000000	2.391099 
2247.000000	2.391529 
2246.000000	2.391910 
2245.000000	2.392220 
2244.000000	2.392482 
2243.000000	2.392697 
2242.000000	2.392840 
2241.000000	2.392911 
2240.000000	2.392935 
2239.000000	2.392911 
2238.000000	2.392768 
2237.000000	2.392530 
2236.000000	2.392172 
2235.000000	2.391695 
2234.000000	2.391052 
2233.000000	2.390289 
2232.000000	2.389430 
2231.000000	2.388477 
2230.000000	2.387475 
2229.000000	2.386546 
2228.000000	2.385711 
2227.000000	2.384996 
2226.000000	2.384448 
2225.000000	2.384042 
2224.000000	2.383780 
2223.000000	2.383613 
2222.000000	2.383494 
2221.000000	2.383351 
2220.000000	2.383136 
2219.000000	2.382779 
2218.000000	2.382326 
2217.000000	2.381753 
2216.000000	2.381086 
2215.000000	2.380323 
2214.000000	2.379536 
2213.000000	2.378678 
2212.000000	2.377843 
2211.000000	2.377033 
2210.000000	2.376222 
2209.000000	2.375483 
2208.000000	2.374792 
2207.000000	2.374172 
2206.000000	2.373576 
2205.000000	2.373075 
2204.000000	2.372598 
2203.000000	2.372169 
2202.000000	2.371716 
2201.000000	2.371215 
2200.000000	2.370619 
2199.000000	2.369976 
2198.000000	2.369189 
2197.000000	2.368307 
2196.000000	2.367353 
2195.000000	2.366304 
2194.000000	2.365231 
2193.000000	2.364110 
2192.000000	2.362990 
2191.000000	2.361869 
2190.000000	2.360749 
2189.000000	2.359652 
2188.000000	2.358603 
2187.000000	2.357625 
2186.000000	2.356696 
2185.000000	2.355861 
2184.000000	2.355146 
2183.000000	2.354478 
2182.000000	2.353906 
2181.000000	2.353405 
2180.000000	2.352905 
2179.000000	2.352476 
2178.000000	2.352046 
2177.000000	2.351665 
2176.000000	2.351284 
2175.000000	2.350902 
2174.000000	2.350497 
2173.000000	2.350020 
2172.000000	2.349519 
2171.000000	2.348947 
2170.000000	2.348256 
2169.000000	2.347493 
2168.000000	2.346706 
2167.000000	2.345895 
2166.000000	2.345156 
2165.000000	2.344536 
2164.000000	2.344107 
2163.000000	2.343821 
2162.000000	2.343678 
2161.000000	2.343678 
2160.000000	2.343678 
2159.000000	2.343702 
2158.000000	2.343654 
2157.000000	2.343535 
2156.000000	2.343368 
2155.000000	2.343130 
2154.000000	2.342915 
2153.000000	2.342772 
2152.000000	2.342724 
2151.000000	2.342748 
2150.000000	2.342891 
2149.000000	2.343082 
2148.000000	2.343249 
2147.000000	2.343416 
2146.000000	2.343487 
2145.000000	2.343487 
2144.000000	2.343440 
2143.000000	2.343344 
2142.000000	2.343225 
2141.000000	2.343130 
2140.000000	2.343058 
2139.000000	2.342987 
2138.000000	2.342963 
2137.000000	2.342915 
2136.000000	2.342844 
2135.000000	2.342748 
2134.000000	2.342605 
2133.000000	2.342438 
2132.000000	2.342271 
2131.000000	2.342176 
2130.000000	2.342104 
2129.000000	2.342104 
2128.000000	2.342247 
2127.000000	2.342510 
2126.000000	2.342891 
2125.000000	2.343440 
2124.000000	2.344036 
2123.000000	2.344679 
2122.000000	2.345371 
2121.000000	2.345991 
2120.000000	2.346563 
2119.000000	2.347016 
2118.000000	2.347350 
2117.000000	2.347517 
2116.000000	2.347588 
2115.000000	2.347540 
2114.000000	2.347373 
2113.000000	2.347207 
2112.000000	2.347040 
2111.000000	2.346920 
2110.000000	2.346801 
2109.000000	2.346801 
2108.000000	2.346849 
2107.000000	2.346968 
2106.000000	2.347159 
2105.000000	2.347421 
2104.000000	2.347707 
2103.000000	2.348017 
2102.000000	2.348279 
2101.000000	2.348470 
2100.000000	2.348589 
2099.000000	2.348589 
2098.000000	2.348518 
2097.000000	2.348351 
2096.000000	2.348089 
2095.000000	2.347826 
2094.000000	2.347612 
2093.000000	2.347445 
2092.000000	2.347445 
2091.000000	2.347564 
2090.000000	2.347826 
2089.000000	2.348279 
2088.000000	2.348875 
2087.000000	2.349567 
2086.000000	2.350401 
2085.000000	2.351307 
2084.000000	2.352261 
2083.000000	2.353239 
2082.000000	2.354192 
2081.000000	2.355146 
2080.000000	2.356147 
2079.000000	2.357149 
2078.000000	2.358222 
2077.000000	2.359390 
2076.000000	2.360677 
2075.000000	2.362108 
2074.000000	2.363729 
2073.000000	2.365493 
2072.000000	2.367401 
2071.000000	2.369427 
2070.000000	2.371525 
2069.000000	2.373647 
2068.000000	2.375841 
2067.000000	2.378058 
2066.000000	2.380347 
2065.000000	2.382612 
2064.000000	2.384948 
2063.000000	2.387285 
2062.000000	2.389597 
2061.000000	2.391910 
2060.000000	2.394151 
2059.000000	2.396273 
2058.000000	2.398324 
2057.000000	2.400302 
2056.000000	2.402257 
2055.000000	2.404212 
2054.000000	2.406239 
2053.000000	2.408313 
2052.000000	2.410483 
2051.000000	2.412676 
2050.000000	2.414917 
2049.000000	2.417135 
2048.000000	2.419304 
2047.000000	2.421402 
2046.000000	2.423381 
2045.000000	2.425289 
2044.000000	2.427124 
2043.000000	2.428913 
2042.000000	2.430629 
2041.000000	2.432274 
2040.000000	2.433872 
2039.000000	2.435374 
2038.000000	2.436852 
2037.000000	2.438259 
2036.000000	2.439618 
2035.000000	2.440977 
2034.000000	2.442288 
2033.000000	2.443599 
2032.000000	2.444887 
2031.000000	2.446126 
2030.000000	2.447271 
2029.000000	2.448320 
2028.000000	2.449226 
2027.000000	2.450060 
2026.000000	2.450728 
2025.000000	2.451300 
2024.000000	2.451777 
2023.000000	2.452206 
2022.000000	2.452611 
2021.000000	2.453064 
2020.000000	2.453613 
2019.000000	2.454280 
2018.000000	2.455043 
2017.000000	2.455949 
2016.000000	2.456927 
2015.000000	2.458024 
2014.000000	2.459120 
2013.000000	2.460217 
2012.000000	2.461242 
2011.000000	2.462220 
2010.000000	2.463054 
2009.000000	2.463746 
2008.000000	2.464342 
2007.000000	2.464818 
2006.000000	2.465271 
2005.000000	2.465677 
2004.000000	2.466082 
2003.000000	2.466511 
2002.000000	2.466964 
2001.000000	2.467417 
2000.000000	2.467823 
1999.000000	2.468180 
1998.000000	2.468466 
1997.000000	2.468609 
1996.000000	2.468705 
1995.000000	2.468633 
1994.000000	2.468514 
1993.000000	2.468276 
1992.000000	2.467989 
1991.000000	2.467608 
1990.000000	2.467179 
1989.000000	2.466630 
1988.000000	2.465987 
1987.000000	2.465224 
1986.000000	2.464342 
1985.000000	2.463340 
1984.000000	2.462267 
1983.000000	2.461171 
1982.000000	2.460074 
1981.000000	2.459001 
1980.000000	2.457976 
1979.000000	2.457070 
1978.000000	2.456235 
1977.000000	2.455496 
1976.000000	2.454805 
1975.000000	2.454066 
1974.000000	2.453327 
1973.000000	2.452540 
1972.000000	2.451705 
1971.000000	2.450823 
1970.000000	2.449870 
1969.000000	2.448844 
1968.000000	2.447795 
1967.000000	2.446651 
1966.000000	2.445507 
1965.000000	2.444386 
1964.000000	2.443289 
1963.000000	2.442216 
1962.000000	2.441191 
1961.000000	2.440214 
1960.000000	2.439260 
1959.000000	2.438330 
1958.000000	2.437424 
1957.000000	2.436542 
1956.000000	2.435684 
1955.000000	2.434945 
1954.000000	2.434229 
1953.000000	2.433609 
1952.000000	2.433037 
1951.000000	2.432489 
1950.000000	2.431917 
1949.000000	2.431273 
1948.000000	2.430534 
1947.000000	2.429723 
1946.000000	2.428793 
1945.000000	2.427792 
1944.000000	2.426791 
1943.000000	2.425789 
1942.000000	2.424860 
1941.000000	2.423977 
1940.000000	2.423238 
1939.000000	2.422523 
1938.000000	2.421832 
1937.000000	2.421140 
1936.000000	2.420425 
1935.000000	2.419710 
1934.000000	2.418947 
1933.000000	2.418112 
1932.000000	2.417182 
1931.000000	2.416229 
1930.000000	2.415227 
1929.000000	2.414155 
1928.000000	2.413034 
1927.000000	2.411842 
1926.000000	2.410578 
1925.000000	2.409243 
1924.000000	2.407884 
1923.000000	2.406525 
1922.000000	2.405142 
1921.000000	2.403783 
1920.000000	2.402472 
1919.000000	2.401256 
1918.000000	2.400088 
1917.000000	2.398991 
1916.000000	2.397942 
1915.000000	2.396917 
1914.000000	2.395892 
1913.000000	2.394890 
1912.000000	2.393889 
1911.000000	2.392911 
1910.000000	2.391910 
1909.000000	2.390933 
1908.000000	2.389931 
1907.000000	2.388978 
1906.000000	2.388048 
1905.000000	2.387142 
1904.000000	2.386307 
1903.000000	2.385544 
1902.000000	2.384901 
1901.000000	2.384257 
1900.000000	2.383756 
1899.000000	2.383279 
1898.000000	2.382779 
1897.000000	2.382278 
1896.000000	2.381706 
1895.000000	2.381062 
1894.000000	2.380347 
1893.000000	2.379679 
1892.000000	2.379059 
1891.000000	2.378606 
1890.000000	2.378392 
1889.000000	2.378392 
1888.000000	2.378749 
1887.000000	2.379298 
1886.000000	2.379989 
1885.000000	2.380776 
1884.000000	2.381491 
1883.000000	2.382159 
1882.000000	2.382683 
1881.000000	2.383112 
1880.000000	2.383446 
1879.000000	2.383732 
1878.000000	2.383995 
1877.000000	2.384185 
1876.000000	2.384352 
1875.000000	2.384495 
1874.000000	2.384591 
1873.000000	2.384686 
1872.000000	2.384781 
1871.000000	2.385020 
1870.000000	2.385377 
1869.000000	2.385950 
1868.000000	2.386736 
1867.000000	2.387809 
1866.000000	2.389025 
1865.000000	2.390384 
1864.000000	2.391767 
1863.000000	2.393126 
1862.000000	2.394366 
1861.000000	2.395486 
1860.000000	2.396464 
1859.000000	2.397322 
1858.000000	2.398037 
1857.000000	2.398753 
1856.000000	2.399373 
1855.000000	2.399945 
1854.000000	2.400398 
1853.000000	2.400732 
1852.000000	2.400946 
1851.000000	2.401018 
1850.000000	2.400994 
1849.000000	2.400946 
1848.000000	2.401018 
1847.000000	2.401280 
1846.000000	2.401804 
1845.000000	2.402663 
1844.000000	2.403855 
1843.000000	2.405405 
1842.000000	2.407193 
1841.000000	2.409052 
1840.000000	2.410936 
1839.000000	2.412652 
1838.000000	2.414131 
1837.000000	2.415323 
1836.000000	2.416133 
1835.000000	2.416634 
1834.000000	2.416896 
1833.000000	2.416944 
1832.000000	2.416968 
1831.000000	2.417063 
1830.000000	2.417325 
1829.000000	2.417826 
1828.000000	2.418637 
1827.000000	2.419734 
1826.000000	2.421140 
1825.000000	2.422714 
1824.000000	2.424407 
1823.000000	2.426075 
1822.000000	2.427625 
1821.000000	2.429008 
1820.000000	2.430129 
1819.000000	2.430987 
1818.000000	2.431631 
1817.000000	2.432155 
1816.000000	2.432656 
1815.000000	2.433109 
1814.000000	2.433657 
1813.000000	2.434325 
1812.000000	2.435088 
1811.000000	2.435922 
1810.000000	2.436804 
1809.000000	2.437686 
1808.000000	2.438449 
1807.000000	2.439045 
1806.000000	2.439475 
1805.000000	2.439761 
1804.000000	2.439880 
1803.000000	2.439832 
1802.000000	2.439665 
1801.000000	2.439332 
1800.000000	2.438902 
1799.000000	2.438330 
1798.000000	2.437639 
1797.000000	2.436876 
1796.000000	2.436113 
1795.000000	2.435421 
1794.000000	2.434921 
1793.000000	2.434659 
1792.000000	2.434706 
1791.000000	2.435040 
1790.000000	2.435636 
1789.000000	2.436351 
1788.000000	2.437090 
1787.000000	2.437758 
1786.000000	2.438187 
1785.000000	2.438402 
1784.000000	2.438354 
1783.000000	2.438020 
1782.000000	2.437376 
1781.000000	2.436447 
1780.000000	2.435207 
1779.000000	2.433633 
1778.000000	2.431774 
1777.000000	2.429604 
1776.000000	2.427291 
1775.000000	2.424955 
1774.000000	2.422809 
1773.000000	2.420997 
1772.000000	2.419686 
1771.000000	2.418875 
1770.000000	2.418613 
1769.000000	2.418732 
1768.000000	2.419066 
1767.000000	2.419400 
1766.000000	2.419567 
1765.000000	2.419471 
1764.000000	2.419018 
1763.000000	2.418208 
1762.000000	2.417087 
1761.000000	2.415752 
1760.000000	2.414178 
1759.000000	2.412462 
1758.000000	2.410602 
1757.000000	2.408576 
1756.000000	2.406382 
1755.000000	2.403974 
1754.000000	2.401399 
1753.000000	2.398657 
1752.000000	2.395820 
1751.000000	2.392911 
1750.000000	2.389979 
1749.000000	2.387022 
1748.000000	2.384018 
1747.000000	2.380943 
1746.000000	2.377700 
1745.000000	2.374315 
1744.000000	2.370667 
1743.000000	2.366781 
1742.000000	2.362561 
1741.000000	2.358055 
1740.000000	2.353382 
1739.000000	2.348709 
1738.000000	2.344179 
1737.000000	2.339982 
1736.000000	2.336406 
1735.000000	2.333617 
1734.000000	2.331709 
1733.000000	2.330708 
1732.000000	2.330493 
1731.000000	2.330946 
1730.000000	2.331829 
1729.000000	2.332854 
1728.000000	2.333664 
1727.000000	2.334022 
1726.000000	2.333736 
1725.000000	2.332711 
1724.000000	2.330803 
1723.000000	2.328109 
1722.000000	2.324795 
1721.000000	2.321100 
1720.000000	2.317333 
1719.000000	2.313780 
1718.000000	2.310800 
1717.000000	2.308535 
1716.000000	2.307057 
1715.000000	2.306342 
1714.000000	2.306175 
1713.000000	2.306318 
1712.000000	2.306365 
1711.000000	2.306032 
1710.000000	2.305078 
1709.000000	2.303290 
1708.000000	2.300667 
1707.000000	2.297163 
1706.000000	2.292919 
1705.000000	2.288055 
1704.000000	2.282786 
1703.000000	2.277421 
1702.000000	2.272200 
1701.000000	2.267527 
1700.000000	2.263641 
1699.000000	2.260851 
1698.000000	2.259230 
1697.000000	2.258801 
1696.000000	2.259421 
1695.000000	2.260661 
1694.000000	2.262163 
1693.000000	2.263355 
1692.000000	2.263879 
1691.000000	2.263355 
1690.000000	2.261805 
1689.000000	2.259302 
1688.000000	2.256250 
1687.000000	2.253031 
1686.000000	2.250146 
1685.000000	2.247881 
1684.000000	2.246475 
1683.000000	2.245855 
1682.000000	2.245903 
1681.000000	2.246260 
1680.000000	2.246546 
1679.000000	2.246499 
1678.000000	2.245926 
1677.000000	2.244782 
1676.000000	2.243161 
1675.000000	2.241230 
1674.000000	2.239155 
1673.000000	2.237081 
1672.000000	2.235102 
1671.000000	2.233314 
1670.000000	2.231597 
1669.000000	2.230000 
1668.000000	2.228474 
1667.000000	2.226996 
1666.000000	2.225518 
1665.000000	2.223944 
1664.000000	2.222228 
1663.000000	2.220177 
1662.000000	2.217626 
1661.000000	2.214360 
1660.000000	2.210283 
1659.000000	2.205348 
1658.000000	2.199769 
1657.000000	2.193760 
1656.000000	2.187728 
1655.000000	2.182173 
1654.000000	2.177405 
1653.000000	2.173733 
1652.000000	2.171182 
1651.000000	2.169752 
1650.000000	2.169227 
1649.000000	2.169370 
1648.000000	2.169823 
1647.000000	2.170348 
1646.000000	2.170705 
1645.000000	2.170681 
1644.000000	2.170133 
1643.000000	2.169013 
1642.000000	2.167272 
1641.000000	2.165007 
1640.000000	2.162241 
1639.000000	2.159166 
1638.000000	2.155995 
1637.000000	2.152919 
1636.000000	2.150106 
1635.000000	2.147603 
1634.000000	2.145409 
1633.000000	2.143359 
1632.000000	2.141284 
1631.000000	2.138972 
1630.000000	2.136254 
1629.000000	2.133011 
1628.000000	2.129220 
1627.000000	2.124857 
1626.000000	2.120018 
1625.000000	2.114677 
1624.000000	2.108883 
1623.000000	2.102589 
1622.000000	2.095770 
1621.000000	2.088332 
1620.000000	2.080321 
1619.000000	2.071690 
1618.000000	2.062535 
1617.000000	2.052903 
1616.000000	2.042937 
1615.000000	2.032876 
1614.000000	2.022862 
1613.000000	2.013182 
1612.000000	2.004098 
1611.000000	1.995921 
1610.000000	1.988983 
1609.000000	1.983571 
1608.000000	1.979875 
1607.000000	1.978015 
1606.000000	1.977944 
1605.000000	1.979446 
1604.000000	1.982235 
1603.000000	1.986002 
1602.000000	1.990389 
1601.000000	1.995015 
1600.000000	1.999640 
1599.000000	2.004075 
1598.000000	2.008271 
1597.000000	2.012133 
1596.000000	2.015590 
1595.000000	2.018570 
1594.000000	2.021050 
1593.000000	2.022862 
1592.000000	2.023959 
1591.000000	2.024316 
1590.000000	2.023935 
1589.000000	2.022910 
1588.000000	2.021265 
1587.000000	2.019214 
1586.000000	2.016806 
1585.000000	2.014207 
1584.000000	2.011394 
1583.000000	2.008485 
1582.000000	2.005481 
1581.000000	2.002501 
1580.000000	1.999592 
1579.000000	1.996874 
1578.000000	1.994466 
1577.000000	1.992416 
1576.000000	1.990771 
1575.000000	1.989555 
1574.000000	1.988697 
1573.000000	1.988077 
1572.000000	1.987528 
1571.000000	1.986908 
1570.000000	1.986002 
1569.000000	1.984453 
1568.000000	1.982140 
1567.000000	1.978754 
1566.000000	1.974320 
1565.000000	1.968765 
1564.000000	1.962327 
1563.000000	1.955485 
1562.000000	1.948738 
1561.000000	1.942753 
1560.000000	1.938080 
1559.000000	1.935315 
1558.000000	1.934623 
1557.000000	1.936006 
1556.000000	1.939225 
1555.000000	1.943731 
1554.000000	1.948904 
1553.000000	1.954054 
1552.000000	1.958608 
1551.000000	1.962184 
1550.000000	1.964497 
1549.000000	1.965475 
1548.000000	1.965355 
1547.000000	1.964402 
1546.000000	1.963210 
1545.000000	1.962351 
1544.000000	1.962518 
1543.000000	1.964306 
1542.000000	1.968264 
1541.000000	1.974630 
1540.000000	1.983475 
1539.000000	1.994681 
1538.000000	2.007722 
1537.000000	2.021980 
1536.000000	2.036738 
1535.000000	2.051329 
1534.000000	2.065062 
1533.000000	2.077460 
1532.000000	2.088189 
1531.000000	2.097201 
1530.000000	2.104449 
1529.000000	2.109956 
1528.000000	2.113890 
1527.000000	2.116465 
1526.000000	2.117967 
1525.000000	2.118587 
1524.000000	2.118492 
1523.000000	2.117896 
1522.000000	2.117037 
1521.000000	2.115964 
1520.000000	2.114748 
1519.000000	2.113413 
1518.000000	2.111887 
1517.000000	2.110171 
1516.000000	2.108192 
1515.000000	2.105736 
1514.000000	2.102756 
1513.000000	2.099132 
1512.000000	2.094841 
1511.000000	2.089691 
1510.000000	2.083611 
1509.000000	2.076268 
1508.000000	2.067279 
1507.000000	2.055954 
1506.000000	2.041530 
1505.000000	2.023077 
1504.000000	1.999902 
1503.000000	1.971435 
1502.000000	1.937699 
1501.000000	1.899385 
1500.000000	1.857972 
1499.000000	1.815557 
1498.000000	1.774764 
1497.000000	1.738381 
1496.000000	1.709103 
1495.000000	1.688861 
1494.000000	1.678967 
1493.000000	1.679587 
1492.000000	1.690149 
1491.000000	1.709055 
1490.000000	1.734328 
1489.000000	1.763677 
1488.000000	1.795005 
1487.000000	1.826214 
1486.000000	1.855826 
1485.000000	1.882696 
1484.000000	1.906180 
1483.000000	1.925921 
1482.000000	1.941967 
1481.000000	1.954507 
1480.000000	1.963806 
1479.000000	1.970410 
1478.000000	1.974844 
1477.000000	1.977562 
1476.000000	1.978969 
1475.000000	1.979613 
1474.000000	1.979660 
1473.000000	1.979279 
1472.000000	1.978445 
1471.000000	1.977229 
1470.000000	1.975488 
1469.000000	1.972985 
1468.000000	1.969528 
1467.000000	1.964974 
1466.000000	1.959085 
1465.000000	1.951575 
1464.000000	1.942253 
1463.000000	1.930952 
1462.000000	1.917576 
1461.000000	1.902127 
1460.000000	1.884841 
1459.000000	1.866054 
1458.000000	1.846504 
1457.000000	1.827049 
1456.000000	1.808595 
1455.000000	1.792192 
1454.000000	1.778793 
1453.000000	1.769399 
1452.000000	1.764416 
1451.000000	1.764130 
1450.000000	1.768279 
1449.000000	1.776313 
1448.000000	1.787257 
1447.000000	1.799964 
1446.000000	1.813268 
1445.000000	1.826071 
1444.000000	1.837468 
1443.000000	1.846933 
1442.000000	1.854300 
1441.000000	1.859593 
1440.000000	1.863193 
1439.000000	1.865553 
1438.000000	1.867103 
1437.000000	1.868271 
1436.000000	1.869225 
1435.000000	1.870131 
1434.000000	1.870918 
1433.000000	1.871681 
1432.000000	1.872253 
1431.000000	1.872587 
1430.000000	1.872611 
1429.000000	1.872301 
1428.000000	1.871728 
1427.000000	1.870822 
1426.000000	1.869583 
1425.000000	1.868081 
1424.000000	1.866412 
1423.000000	1.864552 
1422.000000	1.862525 
1421.000000	1.860427 
1420.000000	1.858258 
1419.000000	1.855969 
1418.000000	1.853489 
1417.000000	1.850628 
1416.000000	1.847147 
1415.000000	1.842713 
1414.000000	1.837038 
1413.000000	1.829862 
1412.000000	1.821064 
1411.000000	1.810693 
1410.000000	1.798915 
1409.000000	1.786255 
1408.000000	1.773262 
1407.000000	1.760745 
1406.000000	1.749515 
1405.000000	1.740264 
1404.000000	1.733589 
1403.000000	1.729846 
1402.000000	1.729130 
1401.000000	1.731324 
1400.000000	1.735877 
1399.000000	1.742386 
1398.000000	1.750135 
1397.000000	1.758503 
1396.000000	1.766824 
1395.000000	1.774573 
1394.000000	1.781249 
1393.000000	1.786541 
1392.000000	1.790285 
1391.000000	1.792430 
1390.000000	1.793146 
1389.000000	1.792740 
1388.000000	1.791596 
1387.000000	1.790261 
1386.000000	1.789236 
1385.000000	1.788973 
1384.000000	1.789665 
1383.000000	1.791429 
1382.000000	1.794147 
1381.000000	1.797556 
1380.000000	1.801300 
1379.000000	1.804971 
1378.000000	1.808357 
1377.000000	1.811242 
1376.000000	1.813530 
1375.000000	1.815223 
1374.000000	1.816487 
1373.000000	1.817369 
1372.000000	1.818108 
1371.000000	1.818728 
1370.000000	1.819324 
1369.000000	1.819944 
1368.000000	1.820540 
1367.000000	1.821112 
1366.000000	1.821637 
1365.000000	1.822090 
1364.000000	1.822495 
1363.000000	1.822805 
1362.000000	1.823043 
1361.000000	1.823139 
1360.000000	1.823186 
1359.000000	1.823115 
1358.000000	1.822924 
1357.000000	1.822638 
1356.000000	1.822233 
1355.000000	1.821804 
1354.000000	1.821279 
1353.000000	1.820707 
1352.000000	1.820158 
1351.000000	1.819610 
1350.000000	1.819109 
1349.000000	1.818609 
1348.000000	1.818180 
1347.000000	1.817822 
1346.000000	1.817512 
1345.000000	1.817321 
1344.000000	1.817297 
1343.000000	1.817488 
1342.000000	1.817870 
1341.000000	1.818609 
1340.000000	1.819729 
1339.000000	1.821255 
1338.000000	1.823210 
1337.000000	1.825547 
1336.000000	1.828217 
1335.000000	1.831126 
1334.000000	1.834106 
1333.000000	1.837086 
1332.000000	1.839900 
1331.000000	1.842427 
1330.000000	1.844620 
1329.000000	1.846385 
1328.000000	1.847815 
1327.000000	1.848912 
1326.000000	1.849818 
1325.000000	1.850557 
1324.000000	1.851296 
1323.000000	1.852059 
1322.000000	1.852917 
1321.000000	1.853895 
1320.000000	1.854944 
1319.000000	1.855993 
1318.000000	1.857042 
1317.000000	1.857948 
1316.000000	1.858711 
1315.000000	1.859259 
1314.000000	1.859593 
1313.000000	1.859688 
1312.000000	1.859617 
1311.000000	1.859426 
1310.000000	1.859188 
1309.000000	1.858925 
1308.000000	1.858687 
1307.000000	1.858496 
1306.000000	1.858353 
1305.000000	1.858234 
1304.000000	1.858139 
1303.000000	1.858162 
1302.000000	1.858210 
1301.000000	1.858329 
1300.000000	1.858544 
1299.000000	1.858878 
1298.000000	1.859235 
1297.000000	1.859617 
1296.000000	1.859951 
1295.000000	1.860213 
1294.000000	1.860356 
1293.000000	1.860308 
1292.000000	1.860117 
1291.000000	1.859831 
1290.000000	1.859450 
1289.000000	1.859021 
1288.000000	1.858615 
1287.000000	1.858186 
1286.000000	1.857757 
1285.000000	1.857280 
1284.000000	1.856660 
1283.000000	1.855826 
1282.000000	1.854729 
1281.000000	1.853299 
1280.000000	1.851439 
1279.000000	1.849102 
1278.000000	1.846146 
1277.000000	1.842522 
1276.000000	1.838088 
1275.000000	1.832723 
1274.000000	1.826286 
1273.000000	1.818704 
1272.000000	1.809906 
1271.000000	1.799964 
1270.000000	1.789021 
1269.000000	1.777386 
1268.000000	1.765465 
1267.000000	1.753735 
1266.000000	1.742839 
1265.000000	1.733398 
1264.000000	1.725983 
1263.000000	1.721119 
1262.000000	1.719141 
1261.000000	1.720142 
1260.000000	1.724076 
1259.000000	1.730585 
1258.000000	1.739168 
1257.000000	1.749229 
1256.000000	1.760125 
1255.000000	1.771187 
1254.000000	1.781916 
1253.000000	1.791882 
1252.000000	1.800870 
1251.000000	1.808691 
1250.000000	1.815366 
1249.000000	1.820945 
1248.000000	1.825499 
1247.000000	1.829195 
1246.000000	1.832151 
1245.000000	1.834416 
1244.000000	1.836156 
1243.000000	1.837444 
1242.000000	1.838326 
1241.000000	1.838827 
1240.000000	1.839017 
1239.000000	1.838970 
1238.000000	1.838707 
1237.000000	1.838207 
1236.000000	1.837563 
1235.000000	1.836705 
1234.000000	1.835680 
1233.000000	1.834464 
1232.000000	1.833057 
1231.000000	1.831483 
1230.000000	1.829719 
1229.000000	1.827764 
1228.000000	1.825666 
1227.000000	1.823353 
1226.000000	1.820898 
1225.000000	1.818275 
1224.000000	1.815462 
1223.000000	1.812481 
1222.000000	1.809263 
1221.000000	1.805806 
1220.000000	1.801991 
1219.000000	1.797890 
1218.000000	1.793479 
1217.000000	1.788735 
1216.000000	1.783776 
1215.000000	1.778721 
1214.000000	1.773643 
1213.000000	1.768803 
1212.000000	1.764249 
1211.000000	1.760172 
1210.000000	1.756596 
1209.000000	1.753687 
1208.000000	1.751351 
1207.000000	1.749587 
1206.000000	1.748371 
1205.000000	1.747560 
1204.000000	1.747107 
1203.000000	1.746869 
1202.000000	1.746773 
1201.000000	1.746726 
1200.000000	1.746654 
1199.000000	1.746439 
1198.000000	1.746201 
1197.000000	1.745820 
1196.000000	1.745343 
1195.000000	1.744723 
1194.000000	1.744031 
1193.000000	1.743221 
1192.000000	1.742291 
1191.000000	1.741123 
1190.000000	1.739716 
1189.000000	1.737999 
1188.000000	1.735997 
1187.000000	1.733660 
1186.000000	1.731061 
1185.000000	1.728272 
1184.000000	1.725339 
1183.000000	1.722407 
1182.000000	1.719498 
1181.000000	1.716637 
1180.000000	1.713871 
1179.000000	1.711082 
1178.000000	1.708269 
1177.000000	1.705360 
1176.000000	1.702332 
1175.000000	1.699113 
1174.000000	1.695680 
1173.000000	1.691985 
1172.000000	1.688075 
1171.000000	1.683950 
1170.000000	1.679611 
1169.000000	1.675152 
1168.000000	1.670527 
1167.000000	1.665711 
1166.000000	1.660823 
1165.000000	1.655840 
1164.000000	1.650834 
1163.000000	1.645874 
1162.000000	1.641035 
1161.000000	1.636433 
1160.000000	1.632189 
1159.000000	1.628351 
1158.000000	1.624965 
1157.000000	1.622056 
1156.000000	1.619577 
1155.000000	1.617503 
1154.000000	1.615762 
1153.000000	1.614260 
1152.000000	1.612901 
1151.000000	1.611590 
1150.000000	1.610231 
1149.000000	1.608729 
1148.000000	1.607084 
1147.000000	1.605272 
1146.000000	1.603293 
1145.000000	1.601195 
1144.000000	1.598954 
1143.000000	1.596570 
1142.000000	1.594066 
1141.000000	1.591348 
1140.000000	1.588535 
1139.000000	1.585531 
1138.000000	1.582407 
1137.000000	1.579141 
1136.000000	1.575779 
1135.000000	1.572275 
1134.000000	1.568627 
1133.000000	1.564812 
1132.000000	1.560878 
1131.000000	1.556754 
1130.000000	1.552391 
1129.000000	1.547789 
1128.000000	1.542997 
1127.000000	1.537990 
1126.000000	1.532769 
1125.000000	1.527380 
1124.000000	1.521921 
1123.000000	1.516389 
1122.000000	1.510930 
1121.000000	1.505494 
1120.000000	1.500129 
1119.000000	1.494836 
1118.000000	1.489567 
1117.000000	1.484346 
1116.000000	1.479148 
1115.000000	1.474022 
1114.000000	1.468992 
1113.000000	1.464080 
1112.000000	1.459383 
1111.000000	1.454877 
1110.000000	1.450705 
1109.000000	1.446890 
1108.000000	1.443481 
1107.000000	1.440525 
1106.000000	1.437997 
1105.000000	1.435899 
1104.000000	1.434159 
1103.000000	1.432752 
1102.000000	1.431608 
1101.000000	1.430606 
1100.000000	1.429748 
1099.000000	1.429009 
1098.000000	1.428294 
1097.000000	1.427698 
1096.000000	1.427221 
1095.000000	1.426887 
1094.000000	1.426720 
1093.000000	1.426768 
1092.000000	1.426982 
1091.000000	1.427316 
1090.000000	1.427793 
1089.000000	1.428294 
1088.000000	1.428818 
1087.000000	1.429295 
1086.000000	1.429748 
1085.000000	1.429963 
1084.000000	1.430106 
1083.000000	1.430106 
1082.000000	1.429939 
1081.000000	1.429700 
1080.000000	1.429462 
1079.000000	1.429224 
1078.000000	1.429104 
1077.000000	1.429176 
1076.000000	1.429414 
1075.000000	1.429939 
1074.000000	1.430678 
1073.000000	1.431632 
1072.000000	1.432704 
1071.000000	1.433777 
1070.000000	1.434826 
1069.000000	1.435732 
1068.000000	1.436471 
1067.000000	1.436948 
1066.000000	1.437139 
1065.000000	1.436877 
1064.000000	1.435995 
1063.000000	1.434302 
1062.000000	1.431369 
1061.000000	1.426863 
1060.000000	1.420354 
1059.000000	1.411414 
1058.000000	1.399993 
1057.000000	1.386260 
1056.000000	1.370787 
1055.000000	1.354336 
1054.000000	1.338171 
1053.000000	1.323556 
1052.000000	1.311826 
1051.000000	1.303887 
1050.000000	1.300454 
1049.000000	1.301574 
1048.000000	1.306891 
1047.000000	1.315498 
1046.000000	1.326322 
1045.000000	1.338100 
1044.000000	1.349759 
1043.000000	1.360368 
1042.000000	1.369357 
1041.000000	1.376414 
1040.000000	1.381516 
1039.000000	1.384878 
1038.000000	1.386761 
1037.000000	1.387405 
1036.000000	1.387119 
1035.000000	1.386117 
1034.000000	1.384544 
1033.000000	1.382541 
1032.000000	1.380276 
1031.000000	1.377892 
1030.000000	1.375436 
1029.000000	1.373052 
1028.000000	1.370811 
1027.000000	1.368808 
1026.000000	1.367020 
1025.000000	1.365518 
1024.000000	1.364302 
1023.000000	1.363444 
1022.000000	1.362943 
1021.000000	1.362824 
1020.000000	1.363158 
1019.000000	1.363968 
1018.000000	1.365232 
1017.000000	1.366949 
1016.000000	1.369023 
1015.000000	1.371431 
1014.000000	1.374101 
1013.000000	1.376843 
1012.000000	1.379585 
1011.000000	1.382207 
1010.000000	1.384639 
1009.000000	1.386904 
1008.000000	1.388955 
1007.000000	1.390814 
1006.000000	1.392507 
1005.000000	1.394081 
1004.000000	1.395535 
1003.000000	1.396894 
1002.000000	1.398134 
1001.000000	1.399254 
1000.000000	1.400184 
999.000000	 1.400923 
998.000000	 1.401424 
997.000000	 1.401591 
996.000000	 1.401472 
995.000000	 1.401019 
994.000000	 1.400303 
993.000000	 1.399302 
992.000000	 1.398086 
991.000000	 1.396703 
990.000000	 1.395130 
989.000000	 1.393389 
988.000000	 1.391530 
987.000000	 1.389551 
986.000000	 1.387476 
985.000000	 1.385283 
984.000000	 1.383066 
983.000000	 1.380801 
982.000000	 1.378560 
981.000000	 1.376414 
980.000000	 1.374268 
979.000000	 1.372265 
978.000000	 1.370334 
977.000000	 1.368451 
976.000000	 1.366567 
975.000000	 1.364612 
974.000000	 1.362490 
973.000000	 1.360177 
972.000000	 1.357579 
971.000000	 1.354718 
970.000000	 1.351594 
969.000000	 1.348233 
968.000000	 1.344680 
967.000000	 1.341009 
966.000000	 1.337218 
965.000000	 1.333451 
964.000000	 1.329660 
963.000000	 1.325917 
962.000000	 1.322197 
961.000000	 1.318502 
960.000000	 1.314878 
959.000000	 1.311254 
958.000000	 1.307702 
957.000000	 1.304149 
956.000000	 1.300716 
955.000000	 1.297378 
954.000000	 1.294207 
953.000000	 1.291179 
952.000000	 1.288342 
951.000000	 1.285552 
950.000000	 1.282858 
949.000000	 1.280283 
948.000000	 1.277732 
947.000000	 1.275229 
946.000000	 1.272749 
945.000000	 1.270318 
944.000000	 1.268005 
943.000000	 1.265811 
942.000000	 1.263809 
941.000000	 1.261949 
940.000000	 1.260232 
939.000000	 1.258635 
938.000000	 1.257061 
937.000000	 1.255440 
936.000000	 1.253724 
935.000000	 1.251792 
934.000000	 1.249647 
933.000000	 1.247310 
932.000000	 1.244807 
931.000000	 1.242208 
930.000000	 1.239538 
929.000000	 1.236844 
928.000000	 1.234245 
927.000000	 1.231765 
926.000000	 1.229453 
925.000000	 1.227259 
924.000000	 1.225161 
923.000000	 1.223134 
922.000000	 1.221060 
921.000000	 1.218867 
920.000000	 1.216411 
919.000000	 1.213622 
918.000000	 1.210498 
917.000000	 1.206946 
916.000000	 1.203060 
915.000000	 1.198911 
914.000000	 1.194620 
913.000000	 1.190328 
912.000000	 1.186180 
911.000000	 1.182222 
910.000000	 1.178550 
909.000000	 1.175212 
908.000000	 1.172184 
907.000000	 1.169419 
906.000000	 1.166915 
905.000000	 1.164674 
904.000000	 1.162624 
903.000000	 1.160836 
902.000000	 1.159286 
901.000000	 1.157951 
900.000000	 1.156759 
899.000000	 1.155662 
898.000000	 1.154541 
897.000000	 1.153349 
896.000000	 1.151919 
895.000000	 1.150131 
894.000000	 1.147866 
893.000000	 1.145029 
892.000000	 1.141548 
891.000000	 1.137351 
890.000000	 1.132369 
889.000000	 1.126551 
888.000000	 1.119875 
887.000000	 1.112461 
886.000000	 1.104283 
885.000000	 1.095557 
884.000000	 1.086449 
883.000000	 1.077151 
882.000000	 1.067948 
881.000000	 1.059126 
880.000000	 1.050972 
879.000000	 1.043772 
878.000000	 1.037788 
877.000000	 1.033234 
876.000000	 1.030302 
875.000000	 1.029133 
874.000000	 1.029682 
873.000000	 1.031947 
872.000000	 1.035737 
871.000000	 1.040840 
870.000000	 1.046919 
869.000000	 1.053595 
868.000000	 1.060533 
867.000000	 1.067399 
866.000000	 1.073884 
865.000000	 1.079678 
864.000000	 1.084637 
863.000000	 1.088643 
862.000000	 1.091718 
861.000000	 1.093840 
860.000000	 1.095151 
859.000000	 1.095724 
858.000000	 1.095747 
857.000000	 1.095271 
856.000000	 1.094508 
855.000000	 1.093506 
854.000000	 1.092338 
853.000000	 1.091074 
852.000000	 1.089715 
851.000000	 1.088237 
850.000000	 1.086711 
849.000000	 1.085138 
848.000000	 1.083445 
847.000000	 1.081657 
846.000000	 1.079750 
845.000000	 1.077675 
844.000000	 1.075291 
843.000000	 1.072525 
842.000000	 1.069259 
841.000000	 1.065325 
840.000000	 1.060461 
839.000000	 1.054501 
838.000000	 1.047134 
837.000000	 1.038169 
836.000000	 1.027369 
835.000000	 1.014518 
834.000000	 0.999569 
833.000000	 0.982618 
832.000000	 0.963950 
831.000000	 0.944066 
830.000000	 0.923705 
829.000000	 0.903773 
828.000000	 0.885367 
827.000000	 0.869512 
826.000000	 0.857138 
825.000000	 0.848984 
824.000000	 0.845408 
823.000000	 0.846385 
822.000000	 0.851511 
821.000000	 0.860023 
820.000000	 0.871014 
819.000000	 0.883412 
818.000000	 0.896167 
817.000000	 0.908350 
816.000000	 0.919294 
815.000000	 0.928640 
814.000000	 0.936174 
813.000000	 0.941872 
812.000000	 0.945901 
811.000000	 0.948572 
810.000000	 0.950050 
809.000000	 0.950646 
808.000000	 0.950551 
807.000000	 0.950050 
806.000000	 0.949287 
805.000000	 0.948405 
804.000000	 0.947618 
803.000000	 0.947046 
802.000000	 0.946736 
801.000000	 0.946760 
800.000000	 0.947213 
799.000000	 0.948119 
798.000000	 0.949430 
797.000000	 0.951075 
796.000000	 0.953030 
795.000000	 0.955224 
794.000000	 0.957655 
793.000000	 0.960206 
792.000000	 0.962781 
791.000000	 0.965380 
790.000000	 0.967955 
789.000000	 0.970435 
788.000000	 0.972723 
787.000000	 0.974798 
786.000000	 0.976586 
785.000000	 0.978016 
784.000000	 0.979089 
783.000000	 0.979733 
782.000000	 0.979995 
781.000000	 0.979852 
780.000000	 0.979447 
779.000000	 0.978827 
778.000000	 0.978088 
777.000000	 0.977373 
776.000000	 0.976729 
775.000000	 0.976181 
774.000000	 0.975704 
773.000000	 0.975275 
772.000000	 0.974917 
771.000000	 0.974535 
770.000000	 0.974130 
769.000000	 0.973629 
768.000000	 0.973057 
767.000000	 0.972437 
766.000000	 0.971746 
765.000000	 0.971007 
764.000000	 0.970196 
763.000000	 0.969338 
762.000000	 0.968408 
761.000000	 0.967383 
760.000000	 0.966286 
759.000000	 0.965142 
758.000000	 0.963902 
757.000000	 0.962638 
756.000000	 0.961303 
755.000000	 0.959992 
754.000000	 0.958633 
753.000000	 0.957298 
752.000000	 0.955915 
751.000000	 0.954508 
750.000000	 0.953125 
749.000000	 0.951695 
748.000000	 0.950241 
747.000000	 0.948762 
746.000000	 0.947237 
745.000000	 0.945663 
744.000000	 0.943970 
743.000000	 0.942206 
742.000000	 0.940346 
741.000000	 0.938367 
740.000000	 0.936293 
739.000000	 0.934076 
738.000000	 0.931811 
737.000000	 0.929450 
736.000000	 0.927066 
735.000000	 0.924587 
734.000000	 0.922060 
733.000000	 0.919461 
732.000000	 0.916838 
731.000000	 0.914168 
730.000000	 0.911450 
729.000000	 0.908660 
728.000000	 0.905799 
727.000000	 0.902938 
726.000000	 0.900030 
725.000000	 0.897097 
724.000000	 0.894117 
723.000000	 0.891160 
722.000000	 0.888156 
721.000000	 0.885105 
720.000000	 0.881981 
719.000000	 0.878834 
718.000000	 0.875592 
717.000000	 0.872373 
716.000000	 0.869107 
715.000000	 0.865888 
714.000000	 0.862741 
713.000000	 0.859689 
712.000000	 0.856804 
711.000000	 0.854063 
710.000000	 0.851440 
709.000000	 0.848865 
708.000000	 0.846314 
707.000000	 0.843667 
706.000000	 0.840830 
705.000000	 0.837707 
704.000000	 0.834250 
703.000000	 0.830483 
702.000000	 0.826382 
701.000000	 0.821924 
700.000000	 0.817131 
699.000000	 0.811958 
698.000000	 0.806379 
697.000000	 0.800251 
696.000000	 0.793528 
695.000000	 0.786161 
694.000000	 0.778245 
693.000000	 0.769925 
692.000000	 0.761485 
691.000000	 0.753307 
690.000000	 0.745797 
689.000000	 0.739359 
688.000000	 0.734257 
687.000000	 0.730681 
686.000000	 0.728535 
685.000000	 0.727653 
684.000000	 0.727748 
683.000000	 0.728392 
682.000000	 0.729203 
681.000000	 0.729918 
680.000000	 0.730323 
679.000000	 0.730323 
678.000000	 0.729918 
677.000000	 0.729107 
676.000000	 0.728034 
675.000000	 0.726771 
674.000000	 0.725388 
673.000000	 0.723981 
672.000000	 0.722575 
671.000000	 0.721216 
670.000000	 0.719904 
669.000000	 0.718569 
668.000000	 0.717186 
667.000000	 0.715637 
666.000000	 0.713825 
665.000000	 0.711727 
664.000000	 0.709271 
663.000000	 0.706529 
662.000000	 0.703549 
661.000000	 0.700473 
660.000000	 0.697422 
659.000000	 0.694513 
658.000000	 0.691843 
657.000000	 0.689411 
656.000000	 0.687241 
655.000000	 0.685191 
654.000000	 0.683164 
653.000000	 0.681090 
652.000000	 0.678849 
651.000000	 0.676465 
650.000000	 0.673913 
649.000000	 0.671243 
648.000000	 0.668478 
647.000000	 0.665712 
646.000000	 0.662994 
645.000000	 0.660395 
644.000000	 0.657987 
643.000000	 0.655770 
642.000000	 0.653696 
641.000000	 0.651693 
640.000000	 0.649762 
639.000000	 0.647735 
638.000000	 0.645565 
637.000000	 0.643110 
636.000000	 0.640392 
635.000000	 0.637364 
634.000000	 0.634098 
633.000000	 0.630712 
632.000000	 0.627303 
631.000000	 0.624036 
630.000000	 0.621008 
629.000000	 0.618267 
628.000000	 0.615763 
627.000000	 0.613451 
626.000000	 0.611305 
625.000000	 0.609111 
624.000000	 0.606799 
623.000000	 0.604176 
622.000000	 0.601243 
621.000000	 0.597953 
620.000000	 0.594282 
619.000000	 0.590276 
618.000000	 0.585937 
617.000000	 0.581336 
616.000000	 0.576424 
615.000000	 0.571322 
614.000000	 0.565981 
613.000000	 0.560426 
612.000000	 0.554776 
611.000000	 0.549125 
610.000000	 0.543618 
609.000000	 0.538444 
608.000000	 0.533723 
607.000000	 0.529599 
606.000000	 0.526213 
605.000000	 0.523662 
604.000000	 0.521945 
603.000000	 0.521016 
602.000000	 0.520825 
601.000000	 0.521183 
600.000000	 0.521874 
599.000000	 0.522756 
598.000000	 0.523662 
597.000000	 0.524353 
596.000000	 0.524687 
595.000000	 0.524663 
594.000000	 0.524258 
593.000000	 0.523447 
592.000000	 0.522327 
591.000000	 0.520968 
590.000000	 0.519466 
589.000000	 0.517892 
588.000000	 0.516247 
587.000000	 0.514650 
586.000000	 0.513100 
585.000000	 0.511527 
584.000000	 0.509977 
583.000000	 0.508451 
582.000000	 0.506973 
581.000000	 0.505542 
580.000000	 0.504159 
579.000000	 0.502848 
578.000000	 0.501608 
577.000000	 0.500488 
576.000000	 0.499439 
575.000000	 0.498414 
574.000000	 0.497460 
573.000000	 0.496530 
572.000000	 0.495600 
571.000000	 0.494694 
570.000000	 0.493741 
569.000000	 0.492763 
568.000000	 0.491690 
567.000000	 0.490546 
566.000000	 0.489282 
565.000000	 0.487923 
564.000000	 0.486469 
563.000000	 0.484919 
562.000000	 0.483274 
561.000000	 0.481581 
560.000000	 0.479865 
559.000000	 0.478076 
558.000000	 0.476264 
557.000000	 0.474524 
556.000000	 0.472736 
555.000000	 0.470948 
554.000000	 0.469136 
553.000000	 0.467324 
552.000000	 0.465536 
551.000000	 0.463771 
550.000000	 0.461983 
549.000000	 0.460195 
548.000000	 0.458455 
547.000000	 0.456714 
546.000000	 0.454974 
545.000000	 0.453209 
544.000000	 0.451469 
543.000000	 0.449705 
542.000000	 0.447988 
541.000000	 0.446271 
540.000000	 0.444531 
539.000000	 0.442814 
538.000000	 0.441074 
537.000000	 0.439262 
536.000000	 0.437426 
535.000000	 0.435495 
534.000000	 0.433468 
533.000000	 0.431346 
532.000000	 0.429177 
531.000000	 0.426912 
530.000000	 0.424599 
529.000000	 0.422191 
528.000000	 0.419712 
527.000000	 0.417160 
526.000000	 0.414562 
525.000000	 0.411915 
524.000000	 0.409269 
523.000000	 0.406646 
522.000000	 0.404071 
521.000000	 0.401568 
520.000000	 0.399160 
519.000000	 0.396871 
518.000000	 0.394630 
517.000000	 0.392436 
516.000000	 0.390291 
515.000000	 0.388121 
514.000000	 0.385928 
513.000000	 0.383710 
512.000000	 0.381493 
511.000000	 0.379228 
510.000000	 0.376939 
509.000000	 0.374555 
508.000000	 0.372123 
507.000000	 0.369620 
506.000000	 0.367021 
505.000000	 0.364327 
504.000000	 0.361514 
503.000000	 0.358557 
502.000000	 0.355458 
501.000000	 0.352168 
500.000000	 0.348734 
499.000000	 0.345158 
498.000000	 0.341415 
497.000000	 0.337553 
496.000000	 0.333642 
495.000000	 0.329709 
494.000000	 0.325798 
493.000000	 0.322008 
492.000000	 0.318264 
491.000000	 0.314593 
490.000000	 0.310969 
489.000000	 0.307393 
488.000000	 0.303816 
487.000000	 0.300216 
486.000000	 0.296592 
485.000000	 0.292944 
484.000000	 0.289320 
483.000000	 0.285720 
482.000000	 0.282168 
481.000000	 0.278687 
480.000000	 0.275349 
479.000000	 0.272154 
478.000000	 0.269126 
477.000000	 0.266218 
476.000000	 0.263428 
475.000000	 0.260710 
474.000000	 0.258040 
473.000000	 0.255393 
472.000000	 0.252723 
471.000000	 0.249981 
470.000000	 0.247144 
469.000000	 0.244164 
468.000000	 0.241017 
467.000000	 0.237703 
466.000000	 0.234222 
465.000000	 0.230622 
464.000000	 0.226879 
463.000000	 0.223064 
462.000000	 0.219225 
461.000000	 0.215339 
460.000000	 0.211477 
459.000000	 0.207638 
458.000000	 0.203824 
457.000000	 0.200080 
456.000000	 0.196361 
455.000000	 0.192689 
454.000000	 0.189065 
453.000000	 0.185585 
452.000000	 0.182199 
451.000000	 0.178909 
450.000000	 0.175809 
449.000000	 0.172924 
448.000000	 0.170183 
447.000000	 0.167608 
446.000000	 0.165176 
445.000000	 0.162792 
444.000000	 0.160431 
443.000000	 0.158047 
442.000000	 0.155544 
441.000000	 0.152897 
440.000000	 0.150132 
439.000000	 0.147247 
438.000000	 0.144243 
437.000000	 0.141215 
436.000000	 0.138139 
435.000000	 0.135087 
434.000000	 0.132036 
433.000000	 0.129008 
432.000000	 0.125885 
431.000000	 0.122690 
430.000000	 0.119400 
429.000000	 0.116014 
428.000000	 0.112509 
427.000000	 0.108933 
426.000000	 0.105357 
425.000000	 0.101804 
424.000000	 0.098395 
423.000000	 0.095105 
422.000000	 0.091981 
421.000000	 0.089001 
420.000000	 0.086164 
419.000000	 0.083398 
418.000000	 0.080704 
417.000000	 0.078034 
416.000000	 0.075340 
415.000000	 0.072669 
414.000000	 0.069975 
413.000000	 0.067305 
412.000000	 0.064659 
411.000000	 0.062108 
410.000000	 0.059652 
409.000000	 0.057268 
408.000000	 0.055003 
407.000000	 0.052833 
406.000000	 0.050783 
405.000000	 0.048875 
404.000000	 0.047039 
403.000000	 0.045251 
402.000000	 0.043535 
401.000000	 0.041818 
400.000000	 0.040102 
399.000000	 0.038385 
398.000000	 0.036668 
397.000000	 0.034904 
396.000000	 0.033211 
395.000000	 0.031566 
394.000000	 0.029969 
393.000000	 0.028491 
392.000000	 0.027084 
391.000000	 0.025749 
390.000000	 0.024485 
389.000000	 0.023245 
388.000000	 0.022053 
387.000000	 0.020885 
386.000000	 0.019764 
385.000000	 0.018692 
384.000000	 0.017666 
383.000000	 0.016713 
382.000000	 0.015807 
381.000000	 0.014972 
380.000000	 0.014209 
379.000000	 0.013494 
378.000000	 0.012779 
377.000000	 0.012063 
376.000000	 0.011301 
375.000000	 0.010538 
374.000000	 0.009751 
373.000000	 0.008988 
372.000000	 0.008273 
371.000000	 0.007581 
370.000000	 0.006961 

