PE IR       SPECTRUM    SPECTRUM    ASCII       PEDS        1.60        
  -1
BZ0979~1.ASC
17/04/07
20:31:16.00
17/04/07
20:31:16.00
tln
$BZ1503107-1_e0126$<ebV0>[-23.3,12.1,10.0,0.0,27,1,0]
370.000000
64









2002,4.07    
MIRTGS : RIGHTBACK : INTERNAL 2
MIR : ON : INTERNAL 2
OPTKBR

0.200000
8
8.000000
FILLER
SINGLE
SPECTRUM
UNLOCKED 256

DOUBLE

COMBINED
1
0
0


1.000000
BACKG


1
0
TRUE
51149
0
LEFT NOT FITTED RIGHT NOT FITTED 0
NONE
NONE
15600
12.000000
4.427000
51148
TRUE
1 0 8 72 0 0 0 0 

15798.010000






#HDR
-1
-1
#GR
CM-1
EGY
0.00002384185791015625
0.0
5000.000000
-1.000000
4631
8
2.464175
0.007677
#DATA
5000.000000	0.780081 
4999.000000	0.780534 
4998.000000	0.781011 
4997.000000	0.781559 
4996.000000	0.782275 
4995.000000	0.783133 
4994.000000	0.784158 
4993.000000	0.785303 
4992.000000	0.786542 
4991.000000	0.787782 
4990.000000	0.788927 
4989.000000	0.789833 
4988.000000	0.790548 
4987.000000	0.791096 
4986.000000	0.791549 
4985.000000	0.792050 
4984.000000	0.792717 
4983.000000	0.793695 
4982.000000	0.794982 
4981.000000	0.796484 
4980.000000	0.798034 
4979.000000	0.799489 
4978.000000	0.800585 
4977.000000	0.801253 
4976.000000	0.801420 
4975.000000	0.801134 
4974.000000	0.800561 
4973.000000	0.799918 
4972.000000	0.799322 
4971.000000	0.798916 
4970.000000	0.798773 
4969.000000	0.798797 
4968.000000	0.798869 
4967.000000	0.798892 
4966.000000	0.798845 
4965.000000	0.798678 
4964.000000	0.798463 
4963.000000	0.798225 
4962.000000	0.798034 
4961.000000	0.797939 
4960.000000	0.797820 
4959.000000	0.797533 
4958.000000	0.796818 
4957.000000	0.795507 
4956.000000	0.793457 
4955.000000	0.790619 
4954.000000	0.787162 
4953.000000	0.783467 
4952.000000	0.780010 
4951.000000	0.777316 
4950.000000	0.775837 
4949.000000	0.775933 
4948.000000	0.777745 
4947.000000	0.781106 
4946.000000	0.785589 
4945.000000	0.790619 
4944.000000	0.795602 
4943.000000	0.799894 
4942.000000	0.803089 
4941.000000	0.804996 
4940.000000	0.805664 
4939.000000	0.805401 
4938.000000	0.804662 
4937.000000	0.803875 
4936.000000	0.803446 
4935.000000	0.803565 
4934.000000	0.804281 
4933.000000	0.805377 
4932.000000	0.806570 
4931.000000	0.807595 
4930.000000	0.808191 
4929.000000	0.808286 
4928.000000	0.807881 
4927.000000	0.807189 
4926.000000	0.806427 
4925.000000	0.805783 
4924.000000	0.805473 
4923.000000	0.805664 
4922.000000	0.806260 
4921.000000	0.807309 
4920.000000	0.808691 
4919.000000	0.810289 
4918.000000	0.811958 
4917.000000	0.813508 
4916.000000	0.814747 
4915.000000	0.815534 
4914.000000	0.815653 
4913.000000	0.815129 
4912.000000	0.813889 
4911.000000	0.812125 
4910.000000	0.810217 
4909.000000	0.808405 
4908.000000	0.807166 
4907.000000	0.806760 
4906.000000	0.807332 
4905.000000	0.808906 
4904.000000	0.811266 
4903.000000	0.814080 
4902.000000	0.816988 
4901.000000	0.819540 
4900.000000	0.821518 
4899.000000	0.822758 
4898.000000	0.823307 
4897.000000	0.823330 
4896.000000	0.823068 
4895.000000	0.822734 
4894.000000	0.822520 
4893.000000	0.822591 
4892.000000	0.822925 
4891.000000	0.823354 
4890.000000	0.823855 
4889.000000	0.824308 
4888.000000	0.824570 
4887.000000	0.824689 
4886.000000	0.824570 
4885.000000	0.824308 
4884.000000	0.824022 
4883.000000	0.823831 
4882.000000	0.823783 
4881.000000	0.823998 
4880.000000	0.824475 
4879.000000	0.825238 
4878.000000	0.826144 
4877.000000	0.827169 
4876.000000	0.828242 
4875.000000	0.829219 
4874.000000	0.830125 
4873.000000	0.830936 
4872.000000	0.831627 
4871.000000	0.832271 
4870.000000	0.832891 
4869.000000	0.833511 
4868.000000	0.834131 
4867.000000	0.834751 
4866.000000	0.835418 
4865.000000	0.836086 
4864.000000	0.836682 
4863.000000	0.837254 
4862.000000	0.837731 
4861.000000	0.838160 
4860.000000	0.838470 
4859.000000	0.838756 
4858.000000	0.839090 
4857.000000	0.839495 
4856.000000	0.840020 
4855.000000	0.840711 
4854.000000	0.841617 
4853.000000	0.842714 
4852.000000	0.843954 
4851.000000	0.845265 
4850.000000	0.846600 
4849.000000	0.847768 
4848.000000	0.848674 
4847.000000	0.849366 
4846.000000	0.849771 
4845.000000	0.849962 
4844.000000	0.849986 
4843.000000	0.849962 
4842.000000	0.849938 
4841.000000	0.850033 
4840.000000	0.850248 
4839.000000	0.850629 
4838.000000	0.851130 
4837.000000	0.851702 
4836.000000	0.852370 
4835.000000	0.853061 
4834.000000	0.853776 
4833.000000	0.854563 
4832.000000	0.855326 
4831.000000	0.856018 
4830.000000	0.856709 
4829.000000	0.857353 
4828.000000	0.857925 
4827.000000	0.858426 
4826.000000	0.858902 
4825.000000	0.859332 
4824.000000	0.859713 
4823.000000	0.860047 
4822.000000	0.860285 
4821.000000	0.860476 
4820.000000	0.860595 
4819.000000	0.860667 
4818.000000	0.860762 
4817.000000	0.861001 
4816.000000	0.861358 
4815.000000	0.861930 
4814.000000	0.862717 
4813.000000	0.863695 
4812.000000	0.864839 
4811.000000	0.866007 
4810.000000	0.867152 
4809.000000	0.868225 
4808.000000	0.869154 
4807.000000	0.869965 
4806.000000	0.870609 
4805.000000	0.871157 
4804.000000	0.871658 
4803.000000	0.872135 
4802.000000	0.872635 
4801.000000	0.873160 
4800.000000	0.873780 
4799.000000	0.874447 
4798.000000	0.875163 
4797.000000	0.875902 
4796.000000	0.876617 
4795.000000	0.877261 
4794.000000	0.877833 
4793.000000	0.878310 
4792.000000	0.878739 
4791.000000	0.879168 
4790.000000	0.879645 
4789.000000	0.880169 
4788.000000	0.880765 
4787.000000	0.881481 
4786.000000	0.882220 
4785.000000	0.882983 
4784.000000	0.883698 
4783.000000	0.884366 
4782.000000	0.884985 
4781.000000	0.885558 
4780.000000	0.886130 
4779.000000	0.886702 
4778.000000	0.887346 
4777.000000	0.888109 
4776.000000	0.888967 
4775.000000	0.889897 
4774.000000	0.890874 
4773.000000	0.891852 
4772.000000	0.892758 
4771.000000	0.893592 
4770.000000	0.894355 
4769.000000	0.894904 
4768.000000	0.895380 
4767.000000	0.895738 
4766.000000	0.895953 
4765.000000	0.896120 
4764.000000	0.896239 
4763.000000	0.896406 
4762.000000	0.896668 
4761.000000	0.897073 
4760.000000	0.897645 
4759.000000	0.898385 
4758.000000	0.899338 
4757.000000	0.900387 
4756.000000	0.901412 
4755.000000	0.902390 
4754.000000	0.903153 
4753.000000	0.903701 
4752.000000	0.904035 
4751.000000	0.904107 
4750.000000	0.904083 
4749.000000	0.903964 
4748.000000	0.903820 
4747.000000	0.903773 
4746.000000	0.903868 
4745.000000	0.904083 
4744.000000	0.904417 
4743.000000	0.904822 
4742.000000	0.905299 
4741.000000	0.905752 
4740.000000	0.906181 
4739.000000	0.906610 
4738.000000	0.907015 
4737.000000	0.907444 
4736.000000	0.907874 
4735.000000	0.908327 
4734.000000	0.908803 
4733.000000	0.909304 
4732.000000	0.909781 
4731.000000	0.910210 
4730.000000	0.910615 
4729.000000	0.910925 
4728.000000	0.911164 
4727.000000	0.911307 
4726.000000	0.911378 
4725.000000	0.911426 
4724.000000	0.911450 
4723.000000	0.911450 
4722.000000	0.911474 
4721.000000	0.911569 
4720.000000	0.911688 
4719.000000	0.911855 
4718.000000	0.912070 
4717.000000	0.912284 
4716.000000	0.912499 
4715.000000	0.912690 
4714.000000	0.912857 
4713.000000	0.913047 
4712.000000	0.913190 
4711.000000	0.913310 
4710.000000	0.913453 
4709.000000	0.913596 
4708.000000	0.913858 
4707.000000	0.914144 
4706.000000	0.914478 
4705.000000	0.914835 
4704.000000	0.915241 
4703.000000	0.915598 
4702.000000	0.915956 
4701.000000	0.916242 
4700.000000	0.916457 
4699.000000	0.916624 
4698.000000	0.916790 
4697.000000	0.916957 
4696.000000	0.917124 
4695.000000	0.917267 
4694.000000	0.917410 
4693.000000	0.917482 
4692.000000	0.917482 
4691.000000	0.917387 
4690.000000	0.917100 
4689.000000	0.916767 
4688.000000	0.916361 
4687.000000	0.915908 
4686.000000	0.915431 
4685.000000	0.914978 
4684.000000	0.914597 
4683.000000	0.914335 
4682.000000	0.914168 
4681.000000	0.914120 
4680.000000	0.914168 
4679.000000	0.914335 
4678.000000	0.914597 
4677.000000	0.914859 
4676.000000	0.915169 
4675.000000	0.915360 
4674.000000	0.915551 
4673.000000	0.915646 
4672.000000	0.915694 
4671.000000	0.915741 
4670.000000	0.915813 
4669.000000	0.915932 
4668.000000	0.916123 
4667.000000	0.916337 
4666.000000	0.916624 
4665.000000	0.916957 
4664.000000	0.917315 
4663.000000	0.917649 
4662.000000	0.917959 
4661.000000	0.918269 
4660.000000	0.918555 
4659.000000	0.918841 
4658.000000	0.919103 
4657.000000	0.919365 
4656.000000	0.919628 
4655.000000	0.919890 
4654.000000	0.920176 
4653.000000	0.920462 
4652.000000	0.920796 
4651.000000	0.921154 
4650.000000	0.921559 
4649.000000	0.922012 
4648.000000	0.922465 
4647.000000	0.922918 
4646.000000	0.923395 
4645.000000	0.923871 
4644.000000	0.924324 
4643.000000	0.924777 
4642.000000	0.925183 
4641.000000	0.925588 
4640.000000	0.925922 
4639.000000	0.926232 
4638.000000	0.926518 
4637.000000	0.926756 
4636.000000	0.926899 
4635.000000	0.926995 
4634.000000	0.927066 
4633.000000	0.927138 
4632.000000	0.927281 
4631.000000	0.927519 
4630.000000	0.927901 
4629.000000	0.928378 
4628.000000	0.928997 
4627.000000	0.929713 
4626.000000	0.930476 
4625.000000	0.931215 
4624.000000	0.931930 
4623.000000	0.932574 
4622.000000	0.933194 
4621.000000	0.933766 
4620.000000	0.934362 
4619.000000	0.935029 
4618.000000	0.935769 
4617.000000	0.936651 
4616.000000	0.937557 
4615.000000	0.938534 
4614.000000	0.939536 
4613.000000	0.940513 
4612.000000	0.941419 
4611.000000	0.942277 
4610.000000	0.943017 
4609.000000	0.943684 
4608.000000	0.944280 
4607.000000	0.944852 
4606.000000	0.945401 
4605.000000	0.945973 
4604.000000	0.946545 
4603.000000	0.947117 
4602.000000	0.947690 
4601.000000	0.948238 
4600.000000	0.948739 
4599.000000	0.949215 
4598.000000	0.949668 
4597.000000	0.950145 
4596.000000	0.950670 
4595.000000	0.951266 
4594.000000	0.952029 
4593.000000	0.952887 
4592.000000	0.953865 
4591.000000	0.954914 
4590.000000	0.955986 
4589.000000	0.957036 
4588.000000	0.957942 
4587.000000	0.958800 
4586.000000	0.959491 
4585.000000	0.960087 
4584.000000	0.960659 
4583.000000	0.961184 
4582.000000	0.961756 
4581.000000	0.962400 
4580.000000	0.963115 
4579.000000	0.963973 
4578.000000	0.964927 
4577.000000	0.965905 
4576.000000	0.966882 
4575.000000	0.967836 
4574.000000	0.968718 
4573.000000	0.969505 
4572.000000	0.970172 
4571.000000	0.970721 
4570.000000	0.971245 
4569.000000	0.971746 
4568.000000	0.972318 
4567.000000	0.972962 
4566.000000	0.973749 
4565.000000	0.974631 
4564.000000	0.975656 
4563.000000	0.976777 
4562.000000	0.977921 
4561.000000	0.979185 
4560.000000	0.980424 
4559.000000	0.981640 
4558.000000	0.982785 
4557.000000	0.983881 
4556.000000	0.984835 
4555.000000	0.985693 
4554.000000	0.986456 
4553.000000	0.987124 
4552.000000	0.987744 
4551.000000	0.988388 
4550.000000	0.989031 
4549.000000	0.989770 
4548.000000	0.990557 
4547.000000	0.991344 
4546.000000	0.992107 
4545.000000	0.992798 
4544.000000	0.993347 
4543.000000	0.993728 
4542.000000	0.994014 
4541.000000	0.994253 
4540.000000	0.994491 
4539.000000	0.994849 
4538.000000	0.995302 
4537.000000	0.995922 
4536.000000	0.996637 
4535.000000	0.997447 
4534.000000	0.998210 
4533.000000	0.998902 
4532.000000	0.999474 
4531.000000	0.999927 
4530.000000	1.000285 
4529.000000	1.000595 
4528.000000	1.000857 
4527.000000	1.001214 
4526.000000	1.001620 
4525.000000	1.002168 
4524.000000	1.002860 
4523.000000	1.003599 
4522.000000	1.004457 
4521.000000	1.005315 
4520.000000	1.006221 
4519.000000	1.007103 
4518.000000	1.007962 
4517.000000	1.008844 
4516.000000	1.009750 
4515.000000	1.010680 
4514.000000	1.011610 
4513.000000	1.012492 
4512.000000	1.013374 
4511.000000	1.014113 
4510.000000	1.014685 
4509.000000	1.015043 
4508.000000	1.015138 
4507.000000	1.015043 
4506.000000	1.014828 
4505.000000	1.014566 
4504.000000	1.014328 
4503.000000	1.014208 
4502.000000	1.014256 
4501.000000	1.014494 
4500.000000	1.014924 
4499.000000	1.015496 
4498.000000	1.016235 
4497.000000	1.017045 
4496.000000	1.017975 
4495.000000	1.019024 
4494.000000	1.020216 
4493.000000	1.021528 
4492.000000	1.022887 
4491.000000	1.024246 
4490.000000	1.025485 
4489.000000	1.026511 
4488.000000	1.027250 
4487.000000	1.027631 
4486.000000	1.027679 
4485.000000	1.027417 
4484.000000	1.026868 
4483.000000	1.026153 
4482.000000	1.025390 
4481.000000	1.024723 
4480.000000	1.024270 
4479.000000	1.024007 
4478.000000	1.024055 
4477.000000	1.024341 
4476.000000	1.024675 
4475.000000	1.024889 
4474.000000	1.024889 
4473.000000	1.024651 
4472.000000	1.024317 
4471.000000	1.023912 
4470.000000	1.023530 
4469.000000	1.023221 
4468.000000	1.023054 
4467.000000	1.022911 
4466.000000	1.022553 
4465.000000	1.021814 
4464.000000	1.020550 
4463.000000	1.018738 
4462.000000	1.016402 
4461.000000	1.013779 
4460.000000	1.011109 
4459.000000	1.008605 
4458.000000	1.006293 
4457.000000	1.004195 
4456.000000	1.001811 
4455.000000	0.998616 
4454.000000	0.993728 
4453.000000	0.986218 
4452.000000	0.975131 
4451.000000	0.959539 
4450.000000	0.938963 
4449.000000	0.913381 
4448.000000	0.883817 
4447.000000	0.852155 
4446.000000	0.821352 
4445.000000	0.794863 
4444.000000	0.776386 
4443.000000	0.769019 
4442.000000	0.774621 
4441.000000	0.793457 
4440.000000	0.823879 
4439.000000	0.862693 
4438.000000	0.905632 
4437.000000	0.948095 
4436.000000	0.986003 
4435.000000	1.016473 
4434.000000	1.038074 
4433.000000	1.051115 
4432.000000	1.056933 
4431.000000	1.057553 
4430.000000	1.055216 
4429.000000	1.051688 
4428.000000	1.048254 
4427.000000	1.045441 
4426.000000	1.043558 
4425.000000	1.042342 
4424.000000	1.041626 
4423.000000	1.041078 
4422.000000	1.040649 
4421.000000	1.040291 
4420.000000	1.040005 
4419.000000	1.039791 
4418.000000	1.039695 
4417.000000	1.039671 
4416.000000	1.039600 
4415.000000	1.039552 
4414.000000	1.039600 
4413.000000	1.039767 
4412.000000	1.040101 
4411.000000	1.040601 
4410.000000	1.041221 
4409.000000	1.041865 
4408.000000	1.042485 
4407.000000	1.042985 
4406.000000	1.043224 
4405.000000	1.043272 
4404.000000	1.043295 
4403.000000	1.043319 
4402.000000	1.043438 
4401.000000	1.043725 
4400.000000	1.044249 
4399.000000	1.044988 
4398.000000	1.045989 
4397.000000	1.047182 
4396.000000	1.048493 
4395.000000	1.049900 
4394.000000	1.051282 
4393.000000	1.052618 
4392.000000	1.053786 
4391.000000	1.054763 
4390.000000	1.055455 
4389.000000	1.055860 
4388.000000	1.056027 
4387.000000	1.056051 
4386.000000	1.055979 
4385.000000	1.055932 
4384.000000	1.055979 
4383.000000	1.056194 
4382.000000	1.056599 
4381.000000	1.057100 
4380.000000	1.057672 
4379.000000	1.058244 
4378.000000	1.058650 
4377.000000	1.058936 
4376.000000	1.059007 
4375.000000	1.058959 
4374.000000	1.058769 
4373.000000	1.058602 
4372.000000	1.058459 
4371.000000	1.058435 
4370.000000	1.058506 
4369.000000	1.058697 
4368.000000	1.058983 
4367.000000	1.059341 
4366.000000	1.059746 
4365.000000	1.060199 
4364.000000	1.060700 
4363.000000	1.061248 
4362.000000	1.061868 
4361.000000	1.062607 
4360.000000	1.063442 
4359.000000	1.064372 
4358.000000	1.065373 
4357.000000	1.066493 
4356.000000	1.067638 
4355.000000	1.068806 
4354.000000	1.069903 
4353.000000	1.070952 
4352.000000	1.071953 
4351.000000	1.072835 
4350.000000	1.073741 
4349.000000	1.074647 
4348.000000	1.075625 
4347.000000	1.076674 
4346.000000	1.077866 
4345.000000	1.079154 
4344.000000	1.080489 
4343.000000	1.081895 
4342.000000	1.083302 
4341.000000	1.084685 
4340.000000	1.085996 
4339.000000	1.087236 
4338.000000	1.088404 
4337.000000	1.089549 
4336.000000	1.090645 
4335.000000	1.091647 
4334.000000	1.092672 
4333.000000	1.093649 
4332.000000	1.094627 
4331.000000	1.095509 
4330.000000	1.096391 
4329.000000	1.097202 
4328.000000	1.097989 
4327.000000	1.098728 
4326.000000	1.099491 
4325.000000	1.100254 
4324.000000	1.101064 
4323.000000	1.101970 
4322.000000	1.102972 
4321.000000	1.104140 
4320.000000	1.105427 
4319.000000	1.106882 
4318.000000	1.108479 
4317.000000	1.110148 
4316.000000	1.111865 
4315.000000	1.113605 
4314.000000	1.115226 
4313.000000	1.116776 
4312.000000	1.118230 
4311.000000	1.119637 
4310.000000	1.120972 
4309.000000	1.122260 
4308.000000	1.123547 
4307.000000	1.124858 
4306.000000	1.126122 
4305.000000	1.127362 
4304.000000	1.128530 
4303.000000	1.129555 
4302.000000	1.130461 
4301.000000	1.131296 
4300.000000	1.132082 
4299.000000	1.132845 
4298.000000	1.133608 
4297.000000	1.134371 
4296.000000	1.135182 
4295.000000	1.135969 
4294.000000	1.136803 
4293.000000	1.137590 
4292.000000	1.138353 
4291.000000	1.139163 
4290.000000	1.139974 
4289.000000	1.140880 
4288.000000	1.141905 
4287.000000	1.143050 
4286.000000	1.144361 
4285.000000	1.145792 
4284.000000	1.147270 
4283.000000	1.148796 
4282.000000	1.150274 
4281.000000	1.151657 
4280.000000	1.152896 
4279.000000	1.153969 
4278.000000	1.154875 
4277.000000	1.155710 
4276.000000	1.156497 
4275.000000	1.157331 
4274.000000	1.158261 
4273.000000	1.159334 
4272.000000	1.160573 
4271.000000	1.161956 
4270.000000	1.163411 
4269.000000	1.164937 
4268.000000	1.166391 
4267.000000	1.167702 
4266.000000	1.168799 
4265.000000	1.169633 
4264.000000	1.170301 
4263.000000	1.170778 
4262.000000	1.171064 
4261.000000	1.171278 
4260.000000	1.171398 
4259.000000	1.171541 
4258.000000	1.171684 
4257.000000	1.171898 
4256.000000	1.172137 
4255.000000	1.172471 
4254.000000	1.172924 
4253.000000	1.173448 
4252.000000	1.174068 
4251.000000	1.174807 
4250.000000	1.175689 
4249.000000	1.176595 
4248.000000	1.177549 
4247.000000	1.178503 
4246.000000	1.179480 
4245.000000	1.180386 
4244.000000	1.181316 
4243.000000	1.182174 
4242.000000	1.183080 
4241.000000	1.184010 
4240.000000	1.184988 
4239.000000	1.185989 
4238.000000	1.186990 
4237.000000	1.188015 
4236.000000	1.188945 
4235.000000	1.189780 
4234.000000	1.190519 
4233.000000	1.191091 
4232.000000	1.191592 
4231.000000	1.192021 
4230.000000	1.192450 
4229.000000	1.192951 
4228.000000	1.193523 
4227.000000	1.194214 
4226.000000	1.195001 
4225.000000	1.195883 
4224.000000	1.196813 
4223.000000	1.197719 
4222.000000	1.198506 
4221.000000	1.199126 
4220.000000	1.199555 
4219.000000	1.199817 
4218.000000	1.199865 
4217.000000	1.199769 
4216.000000	1.199579 
4215.000000	1.199316 
4214.000000	1.199126 
4213.000000	1.198983 
4212.000000	1.198887 
4211.000000	1.198887 
4210.000000	1.198983 
4209.000000	1.199126 
4208.000000	1.199340 
4207.000000	1.199650 
4206.000000	1.200032 
4205.000000	1.200509 
4204.000000	1.201128 
4203.000000	1.201844 
4202.000000	1.202654 
4201.000000	1.203536 
4200.000000	1.204490 
4199.000000	1.205372 
4198.000000	1.206207 
4197.000000	1.206994 
4196.000000	1.207685 
4195.000000	1.208233 
4194.000000	1.208686 
4193.000000	1.209044 
4192.000000	1.209330 
4191.000000	1.209545 
4190.000000	1.209664 
4189.000000	1.209783 
4188.000000	1.209807 
4187.000000	1.209807 
4186.000000	1.209783 
4185.000000	1.209807 
4184.000000	1.209878 
4183.000000	1.210021 
4182.000000	1.210236 
4181.000000	1.210546 
4180.000000	1.210927 
4179.000000	1.211333 
4178.000000	1.211762 
4177.000000	1.212167 
4176.000000	1.212549 
4175.000000	1.212882 
4174.000000	1.213240 
4173.000000	1.213622 
4172.000000	1.214051 
4171.000000	1.214599 
4170.000000	1.215219 
4169.000000	1.215982 
4168.000000	1.216816 
4167.000000	1.217675 
4166.000000	1.218533 
4165.000000	1.219367 
4164.000000	1.220107 
4163.000000	1.220750 
4162.000000	1.221299 
4161.000000	1.221799 
4160.000000	1.222276 
4159.000000	1.222753 
4158.000000	1.223158 
4157.000000	1.223611 
4156.000000	1.224088 
4155.000000	1.224589 
4154.000000	1.225113 
4153.000000	1.225686 
4152.000000	1.226353 
4151.000000	1.227164 
4150.000000	1.228070 
4149.000000	1.229166 
4148.000000	1.230382 
4147.000000	1.231718 
4146.000000	1.233100 
4145.000000	1.234459 
4144.000000	1.235771 
4143.000000	1.236915 
4142.000000	1.237916 
4141.000000	1.238727 
4140.000000	1.239347 
4139.000000	1.239776 
4138.000000	1.240038 
4137.000000	1.240229 
4136.000000	1.240372 
4135.000000	1.240539 
4134.000000	1.240825 
4133.000000	1.241159 
4132.000000	1.241683 
4131.000000	1.242375 
4130.000000	1.243209 
4129.000000	1.244211 
4128.000000	1.245331 
4127.000000	1.246523 
4126.000000	1.247763 
4125.000000	1.249027 
4124.000000	1.250219 
4123.000000	1.251387 
4122.000000	1.252460 
4121.000000	1.253485 
4120.000000	1.254391 
4119.000000	1.255202 
4118.000000	1.255917 
4117.000000	1.256585 
4116.000000	1.257157 
4115.000000	1.257705 
4114.000000	1.258254 
4113.000000	1.258850 
4112.000000	1.259541 
4111.000000	1.260399 
4110.000000	1.261425 
4109.000000	1.262593 
4108.000000	1.263904 
4107.000000	1.265287 
4106.000000	1.266741 
4105.000000	1.268148 
4104.000000	1.269507 
4103.000000	1.270747 
4102.000000	1.271867 
4101.000000	1.272892 
4100.000000	1.273846 
4099.000000	1.274776 
4098.000000	1.275706 
4097.000000	1.276659 
4096.000000	1.277709 
4095.000000	1.278853 
4094.000000	1.280117 
4093.000000	1.281476 
4092.000000	1.282930 
4091.000000	1.284480 
4090.000000	1.286101 
4089.000000	1.287722 
4088.000000	1.289319 
4087.000000	1.290917 
4086.000000	1.292467 
4085.000000	1.293945 
4084.000000	1.295351 
4083.000000	1.296710 
4082.000000	1.297998 
4081.000000	1.299238 
4080.000000	1.300454 
4079.000000	1.301622 
4078.000000	1.302814 
4077.000000	1.303982 
4076.000000	1.305222 
4075.000000	1.306509 
4074.000000	1.307868 
4073.000000	1.309370 
4072.000000	1.310992 
4071.000000	1.312732 
4070.000000	1.314520 
4069.000000	1.316308 
4068.000000	1.318049 
4067.000000	1.319670 
4066.000000	1.321196 
4065.000000	1.322579 
4064.000000	1.323890 
4063.000000	1.325154 
4062.000000	1.326441 
4061.000000	1.327824 
4060.000000	1.329326 
4059.000000	1.330971 
4058.000000	1.332712 
4057.000000	1.334452 
4056.000000	1.336216 
4055.000000	1.337909 
4054.000000	1.339530 
4053.000000	1.341056 
4052.000000	1.342558 
4051.000000	1.344013 
4050.000000	1.345467 
4049.000000	1.346921 
4048.000000	1.348376 
4047.000000	1.349782 
4046.000000	1.351094 
4045.000000	1.352262 
4044.000000	1.353335 
4043.000000	1.354217 
4042.000000	1.355004 
4041.000000	1.355743 
4040.000000	1.356506 
4039.000000	1.357316 
4038.000000	1.358222 
4037.000000	1.359272 
4036.000000	1.360416 
4035.000000	1.361560 
4034.000000	1.362729 
4033.000000	1.363849 
4032.000000	1.364946 
4031.000000	1.366019 
4030.000000	1.367115 
4029.000000	1.368308 
4028.000000	1.369571 
4027.000000	1.370978 
4026.000000	1.372551 
4025.000000	1.374220 
4024.000000	1.375913 
4023.000000	1.377582 
4022.000000	1.379156 
4021.000000	1.380562 
4020.000000	1.381778 
4019.000000	1.382875 
4018.000000	1.383829 
4017.000000	1.384711 
4016.000000	1.385545 
4015.000000	1.386427 
4014.000000	1.387405 
4013.000000	1.388502 
4012.000000	1.389765 
4011.000000	1.391172 
4010.000000	1.392602 
4009.000000	1.394081 
4008.000000	1.395535 
4007.000000	1.396870 
4006.000000	1.398015 
4005.000000	1.398944 
4004.000000	1.399636 
4003.000000	1.400113 
4002.000000	1.400470 
4001.000000	1.400780 
4000.000000	1.401114 
3999.000000	1.401543 
3998.000000	1.402091 
3997.000000	1.402759 
3996.000000	1.403546 
3995.000000	1.404428 
3994.000000	1.405286 
3993.000000	1.406121 
3992.000000	1.406931 
3991.000000	1.407718 
3990.000000	1.408457 
3989.000000	1.409196 
3988.000000	1.409959 
3987.000000	1.410794 
3986.000000	1.411652 
3985.000000	1.412558 
3984.000000	1.413488 
3983.000000	1.414442 
3982.000000	1.415371 
3981.000000	1.416325 
3980.000000	1.417207 
3979.000000	1.418042 
3978.000000	1.418733 
3977.000000	1.419305 
3976.000000	1.419663 
3975.000000	1.419854 
3974.000000	1.419878 
3973.000000	1.419734 
3972.000000	1.419568 
3971.000000	1.419401 
3970.000000	1.419305 
3969.000000	1.419329 
3968.000000	1.419520 
3967.000000	1.419854 
3966.000000	1.420354 
3965.000000	1.420998 
3964.000000	1.421737 
3963.000000	1.422572 
3962.000000	1.423478 
3961.000000	1.424455 
3960.000000	1.425409 
3959.000000	1.426291 
3958.000000	1.427078 
3957.000000	1.427721 
3956.000000	1.428222 
3955.000000	1.428580 
3954.000000	1.428890 
3953.000000	1.429224 
3952.000000	1.429677 
3951.000000	1.430296 
3950.000000	1.431083 
3949.000000	1.431989 
3948.000000	1.432919 
3947.000000	1.433753 
3946.000000	1.434302 
3945.000000	1.434564 
3944.000000	1.434469 
3943.000000	1.434040 
3942.000000	1.433348 
3941.000000	1.432538 
3940.000000	1.431751 
3939.000000	1.431107 
3938.000000	1.430654 
3937.000000	1.430392 
3936.000000	1.430368 
3935.000000	1.430463 
3934.000000	1.430654 
3933.000000	1.430869 
3932.000000	1.431107 
3931.000000	1.431393 
3930.000000	1.431727 
3929.000000	1.432108 
3928.000000	1.432585 
3927.000000	1.433157 
3926.000000	1.433825 
3925.000000	1.434516 
3924.000000	1.435256 
3923.000000	1.435995 
3922.000000	1.436758 
3921.000000	1.437520 
3920.000000	1.438331 
3919.000000	1.439118 
3918.000000	1.439929 
3917.000000	1.440763 
3916.000000	1.441526 
3915.000000	1.442241 
3914.000000	1.442742 
3913.000000	1.443028 
3912.000000	1.443004 
3911.000000	1.442646 
3910.000000	1.441979 
3909.000000	1.441049 
3908.000000	1.440024 
3907.000000	1.438951 
3906.000000	1.438045 
3905.000000	1.437449 
3904.000000	1.437234 
3903.000000	1.437449 
3902.000000	1.438069 
3901.000000	1.439023 
3900.000000	1.440215 
3899.000000	1.441526 
3898.000000	1.442813 
3897.000000	1.443982 
3896.000000	1.444935 
3895.000000	1.445698 
3894.000000	1.446270 
3893.000000	1.446723 
3892.000000	1.447129 
3891.000000	1.447463 
3890.000000	1.447892 
3889.000000	1.448345 
3888.000000	1.448822 
3887.000000	1.449346 
3886.000000	1.449894 
3885.000000	1.450467 
3884.000000	1.451015 
3883.000000	1.451587 
3882.000000	1.452207 
3881.000000	1.452875 
3880.000000	1.453518 
3879.000000	1.454162 
3878.000000	1.454758 
3877.000000	1.455259 
3876.000000	1.455569 
3875.000000	1.455736 
3874.000000	1.455807 
3873.000000	1.455783 
3872.000000	1.455760 
3871.000000	1.455855 
3870.000000	1.456069 
3869.000000	1.456522 
3868.000000	1.457214 
3867.000000	1.458168 
3866.000000	1.459264 
3865.000000	1.460385 
3864.000000	1.461482 
3863.000000	1.462340 
3862.000000	1.462793 
3861.000000	1.462745 
3860.000000	1.462197 
3859.000000	1.461100 
3858.000000	1.459765 
3857.000000	1.458311 
3856.000000	1.457142 
3855.000000	1.456594 
3854.000000	1.456856 
3853.000000	1.458120 
3852.000000	1.460361 
3851.000000	1.463389 
3850.000000	1.466917 
3849.000000	1.470637 
3848.000000	1.474142 
3847.000000	1.477122 
3846.000000	1.479363 
3845.000000	1.480793 
3844.000000	1.481461 
3843.000000	1.481509 
3842.000000	1.481175 
3841.000000	1.480698 
3840.000000	1.480293 
3839.000000	1.480174 
3838.000000	1.480555 
3837.000000	1.481437 
3836.000000	1.482892 
3835.000000	1.484823 
3834.000000	1.487159 
3833.000000	1.489758 
3832.000000	1.492404 
3831.000000	1.494908 
3830.000000	1.497173 
3829.000000	1.499032 
3828.000000	1.500415 
3827.000000	1.501345 
3826.000000	1.501822 
3825.000000	1.501941 
3824.000000	1.501893 
3823.000000	1.501774 
3822.000000	1.501822 
3821.000000	1.502060 
3820.000000	1.502680 
3819.000000	1.503753 
3818.000000	1.505255 
3817.000000	1.507091 
3816.000000	1.509141 
3815.000000	1.511311 
3814.000000	1.513409 
3813.000000	1.515245 
3812.000000	1.516842 
3811.000000	1.518130 
3810.000000	1.519036 
3809.000000	1.519799 
3808.000000	1.520371 
3807.000000	1.520848 
3806.000000	1.521372 
3805.000000	1.522040 
3804.000000	1.522898 
3803.000000	1.523923 
3802.000000	1.525163 
3801.000000	1.526665 
3800.000000	1.528358 
3799.000000	1.530170 
3798.000000	1.532077 
3797.000000	1.534056 
3796.000000	1.536059 
3795.000000	1.538014 
3794.000000	1.539897 
3793.000000	1.541757 
3792.000000	1.543474 
3791.000000	1.545071 
3790.000000	1.546525 
3789.000000	1.547789 
3788.000000	1.548862 
3787.000000	1.549744 
3786.000000	1.550507 
3785.000000	1.551127 
3784.000000	1.551699 
3783.000000	1.552271 
3782.000000	1.552891 
3781.000000	1.553606 
3780.000000	1.554393 
3779.000000	1.555299 
3778.000000	1.556181 
3777.000000	1.557040 
3776.000000	1.557779 
3775.000000	1.558446 
3774.000000	1.558971 
3773.000000	1.559424 
3772.000000	1.559853 
3771.000000	1.560378 
3770.000000	1.560974 
3769.000000	1.561713 
3768.000000	1.562643 
3767.000000	1.563668 
3766.000000	1.564812 
3765.000000	1.565957 
3764.000000	1.567053 
3763.000000	1.568007 
3762.000000	1.568722 
3761.000000	1.569151 
3760.000000	1.569199 
3759.000000	1.568818 
3758.000000	1.568007 
3757.000000	1.566839 
3756.000000	1.565313 
3755.000000	1.563596 
3754.000000	1.561808 
3753.000000	1.560091 
3752.000000	1.558589 
3751.000000	1.557397 
3750.000000	1.556634 
3749.000000	1.556301 
3748.000000	1.556420 
3747.000000	1.556992 
3746.000000	1.557993 
3745.000000	1.559329 
3744.000000	1.560926 
3743.000000	1.562666 
3742.000000	1.564383 
3741.000000	1.566028 
3740.000000	1.567435 
3739.000000	1.568555 
3738.000000	1.569414 
3737.000000	1.570057 
3736.000000	1.570677 
3735.000000	1.571321 
3734.000000	1.572108 
3733.000000	1.573157 
3732.000000	1.574420 
3731.000000	1.575827 
3730.000000	1.577281 
3729.000000	1.578664 
3728.000000	1.579856 
3727.000000	1.580834 
3726.000000	1.581478 
3725.000000	1.581954 
3724.000000	1.582193 
3723.000000	1.582360 
3722.000000	1.582479 
3721.000000	1.582527 
3720.000000	1.582479 
3719.000000	1.582312 
3718.000000	1.582026 
3717.000000	1.581525 
3716.000000	1.580905 
3715.000000	1.580262 
3714.000000	1.579713 
3713.000000	1.579332 
3712.000000	1.579284 
3711.000000	1.579570 
3710.000000	1.580214 
3709.000000	1.581096 
3708.000000	1.582145 
3707.000000	1.583194 
3706.000000	1.584172 
3705.000000	1.584911 
3704.000000	1.585459 
3703.000000	1.585745 
3702.000000	1.585888 
3701.000000	1.585888 
3700.000000	1.585793 
3699.000000	1.585602 
3698.000000	1.585340 
3697.000000	1.584887 
3696.000000	1.584243 
3695.000000	1.583361 
3694.000000	1.582312 
3693.000000	1.581192 
3692.000000	1.580071 
3691.000000	1.579117 
3690.000000	1.578497 
3689.000000	1.578283 
3688.000000	1.578497 
3687.000000	1.579141 
3686.000000	1.579999 
3685.000000	1.580953 
3684.000000	1.581835 
3683.000000	1.582455 
3682.000000	1.582717 
3681.000000	1.582479 
3680.000000	1.581859 
3679.000000	1.580929 
3678.000000	1.579737 
3677.000000	1.578521 
3676.000000	1.577425 
3675.000000	1.576590 
3674.000000	1.576066 
3673.000000	1.575994 
3672.000000	1.576352 
3671.000000	1.577138 
3670.000000	1.578259 
3669.000000	1.579666 
3668.000000	1.581192 
3667.000000	1.582813 
3666.000000	1.584339 
3665.000000	1.585674 
3664.000000	1.586771 
3663.000000	1.587533 
3662.000000	1.587986 
3661.000000	1.588082 
3660.000000	1.587891 
3659.000000	1.587438 
3658.000000	1.586747 
3657.000000	1.585817 
3656.000000	1.584744 
3655.000000	1.583528 
3654.000000	1.582264 
3653.000000	1.581001 
3652.000000	1.579904 
3651.000000	1.579046 
3650.000000	1.578593 
3649.000000	1.578640 
3648.000000	1.579213 
3647.000000	1.580214 
3646.000000	1.581645 
3645.000000	1.583242 
3644.000000	1.584887 
3643.000000	1.586413 
3642.000000	1.587677 
3641.000000	1.588535 
3640.000000	1.589035 
3639.000000	1.589155 
3638.000000	1.588940 
3637.000000	1.588463 
3636.000000	1.587772 
3635.000000	1.586937 
3634.000000	1.586103 
3633.000000	1.585364 
3632.000000	1.584839 
3631.000000	1.584649 
3630.000000	1.584839 
3629.000000	1.585459 
3628.000000	1.586484 
3627.000000	1.587748 
3626.000000	1.589131 
3625.000000	1.590442 
3624.000000	1.591563 
3623.000000	1.592397 
3622.000000	1.592874 
3621.000000	1.593112 
3620.000000	1.593160 
3619.000000	1.593089 
3618.000000	1.592993 
3617.000000	1.592922 
3616.000000	1.592874 
3615.000000	1.592874 
3614.000000	1.592969 
3613.000000	1.593160 
3612.000000	1.593518 
3611.000000	1.594018 
3610.000000	1.594734 
3609.000000	1.595664 
3608.000000	1.596760 
3607.000000	1.598000 
3606.000000	1.599264 
3605.000000	1.600480 
3604.000000	1.601552 
3603.000000	1.602411 
3602.000000	1.603055 
3601.000000	1.603484 
3600.000000	1.603746 
3599.000000	1.603841 
3598.000000	1.603865 
3597.000000	1.603817 
3596.000000	1.603746 
3595.000000	1.603651 
3594.000000	1.603603 
3593.000000	1.603627 
3592.000000	1.603770 
3591.000000	1.604104 
3590.000000	1.604604 
3589.000000	1.605367 
3588.000000	1.606321 
3587.000000	1.607441 
3586.000000	1.608705 
3585.000000	1.609992 
3584.000000	1.611351 
3583.000000	1.612687 
3582.000000	1.614022 
3581.000000	1.615309 
3580.000000	1.616549 
3579.000000	1.617693 
3578.000000	1.618719 
3577.000000	1.619577 
3576.000000	1.620221 
3575.000000	1.620626 
3574.000000	1.620769 
3573.000000	1.620674 
3572.000000	1.620388 
3571.000000	1.620006 
3570.000000	1.619625 
3569.000000	1.619338 
3568.000000	1.619195 
3567.000000	1.619386 
3566.000000	1.619839 
3565.000000	1.620626 
3564.000000	1.621723 
3563.000000	1.623034 
3562.000000	1.624536 
3561.000000	1.626110 
3560.000000	1.627635 
3559.000000	1.629042 
3558.000000	1.630306 
3557.000000	1.631402 
3556.000000	1.632308 
3555.000000	1.633095 
3554.000000	1.633810 
3553.000000	1.634430 
3552.000000	1.635026 
3551.000000	1.635599 
3550.000000	1.636171 
3549.000000	1.636719 
3548.000000	1.637220 
3547.000000	1.637625 
3546.000000	1.637935 
3545.000000	1.638102 
3544.000000	1.638078 
3543.000000	1.637864 
3542.000000	1.637530 
3541.000000	1.637053 
3540.000000	1.636481 
3539.000000	1.635885 
3538.000000	1.635384 
3537.000000	1.634907 
3536.000000	1.634597 
3535.000000	1.634430 
3534.000000	1.634359 
3533.000000	1.634383 
3532.000000	1.634430 
3531.000000	1.634526 
3530.000000	1.634573 
3529.000000	1.634645 
3528.000000	1.634812 
3527.000000	1.635074 
3526.000000	1.635479 
3525.000000	1.636075 
3524.000000	1.636815 
3523.000000	1.637673 
3522.000000	1.638579 
3521.000000	1.639461 
3520.000000	1.640248 
3519.000000	1.640868 
3518.000000	1.641345 
3517.000000	1.641631 
3516.000000	1.641678 
3515.000000	1.641583 
3514.000000	1.641392 
3513.000000	1.641106 
3512.000000	1.640748 
3511.000000	1.640367 
3510.000000	1.639914 
3509.000000	1.639437 
3508.000000	1.638936 
3507.000000	1.638388 
3506.000000	1.637840 
3505.000000	1.637244 
3504.000000	1.636648 
3503.000000	1.636004 
3502.000000	1.635384 
3501.000000	1.634836 
3500.000000	1.634287 
3499.000000	1.633810 
3498.000000	1.633429 
3497.000000	1.633095 
3496.000000	1.632761 
3495.000000	1.632452 
3494.000000	1.632118 
3493.000000	1.631665 
3492.000000	1.631093 
3491.000000	1.630496 
3490.000000	1.629829 
3489.000000	1.629161 
3488.000000	1.628541 
3487.000000	1.628017 
3486.000000	1.627588 
3485.000000	1.627254 
3484.000000	1.627016 
3483.000000	1.626777 
3482.000000	1.626515 
3481.000000	1.626157 
3480.000000	1.625633 
3479.000000	1.624965 
3478.000000	1.624131 
3477.000000	1.623201 
3476.000000	1.622223 
3475.000000	1.621222 
3474.000000	1.620292 
3473.000000	1.619482 
3472.000000	1.618814 
3471.000000	1.618337 
3470.000000	1.618003 
3469.000000	1.617765 
3468.000000	1.617670 
3467.000000	1.617622 
3466.000000	1.617598 
3465.000000	1.617574 
3464.000000	1.617455 
3463.000000	1.617288 
3462.000000	1.616954 
3461.000000	1.616525 
3460.000000	1.615977 
3459.000000	1.615333 
3458.000000	1.614594 
3457.000000	1.613855 
3456.000000	1.613092 
3455.000000	1.612353 
3454.000000	1.611638 
3453.000000	1.610994 
3452.000000	1.610398 
3451.000000	1.609802 
3450.000000	1.609277 
3449.000000	1.608681 
3448.000000	1.608037 
3447.000000	1.607322 
3446.000000	1.606488 
3445.000000	1.605558 
3444.000000	1.604509 
3443.000000	1.603388 
3442.000000	1.602244 
3441.000000	1.601076 
3440.000000	1.599884 
3439.000000	1.598834 
3438.000000	1.597905 
3437.000000	1.597118 
3436.000000	1.596474 
3435.000000	1.596069 
3434.000000	1.595830 
3433.000000	1.595830 
3432.000000	1.595950 
3431.000000	1.596188 
3430.000000	1.596474 
3429.000000	1.596689 
3428.000000	1.596879 
3427.000000	1.596975 
3426.000000	1.596999 
3425.000000	1.596903 
3424.000000	1.596784 
3423.000000	1.596665 
3422.000000	1.596617 
3421.000000	1.596617 
3420.000000	1.596713 
3419.000000	1.596879 
3418.000000	1.597094 
3417.000000	1.597380 
3416.000000	1.597642 
3415.000000	1.597905 
3414.000000	1.598215 
3413.000000	1.598572 
3412.000000	1.598954 
3411.000000	1.599431 
3410.000000	1.600050 
3409.000000	1.600718 
3408.000000	1.601552 
3407.000000	1.602458 
3406.000000	1.603436 
3405.000000	1.604461 
3404.000000	1.605486 
3403.000000	1.606512 
3402.000000	1.607489 
3401.000000	1.608443 
3400.000000	1.609301 
3399.000000	1.610088 
3398.000000	1.610851 
3397.000000	1.611542 
3396.000000	1.612162 
3395.000000	1.612734 
3394.000000	1.613306 
3393.000000	1.613855 
3392.000000	1.614379 
3391.000000	1.614880 
3390.000000	1.615381 
3389.000000	1.615810 
3388.000000	1.616215 
3387.000000	1.616549 
3386.000000	1.616859 
3385.000000	1.617169 
3384.000000	1.617479 
3383.000000	1.617836 
3382.000000	1.618266 
3381.000000	1.618814 
3380.000000	1.619482 
3379.000000	1.620221 
3378.000000	1.621103 
3377.000000	1.622056 
3376.000000	1.623106 
3375.000000	1.624226 
3374.000000	1.625394 
3373.000000	1.626610 
3372.000000	1.627898 
3371.000000	1.629233 
3370.000000	1.630640 
3369.000000	1.632118 
3368.000000	1.633572 
3367.000000	1.635026 
3366.000000	1.636481 
3365.000000	1.637911 
3364.000000	1.639318 
3363.000000	1.640772 
3362.000000	1.642251 
3361.000000	1.643776 
3360.000000	1.645302 
3359.000000	1.646852 
3358.000000	1.648378 
3357.000000	1.649856 
3356.000000	1.651263 
3355.000000	1.652646 
3354.000000	1.653957 
3353.000000	1.655268 
3352.000000	1.656603 
3351.000000	1.658010 
3350.000000	1.659464 
3349.000000	1.660966 
3348.000000	1.662564 
3347.000000	1.664137 
3346.000000	1.665711 
3345.000000	1.667213 
3344.000000	1.668691 
3343.000000	1.670122 
3342.000000	1.671600 
3341.000000	1.673102 
3340.000000	1.674675 
3339.000000	1.676297 
3338.000000	1.677966 
3337.000000	1.679682 
3336.000000	1.681399 
3335.000000	1.683068 
3334.000000	1.684737 
3333.000000	1.686358 
3332.000000	1.687955 
3331.000000	1.689577 
3330.000000	1.691246 
3329.000000	1.692938 
3328.000000	1.694631 
3327.000000	1.696300 
3326.000000	1.697921 
3325.000000	1.699423 
3324.000000	1.700854 
3323.000000	1.702141 
3322.000000	1.703333 
3321.000000	1.704406 
3320.000000	1.705503 
3319.000000	1.706600 
3318.000000	1.707768 
3317.000000	1.709055 
3316.000000	1.710462 
3315.000000	1.712012 
3314.000000	1.713633 
3313.000000	1.715302 
3312.000000	1.716971 
3311.000000	1.718592 
3310.000000	1.720118 
3309.000000	1.721501 
3308.000000	1.722764 
3307.000000	1.723909 
3306.000000	1.724982 
3305.000000	1.726007 
3304.000000	1.727032 
3303.000000	1.728105 
3302.000000	1.729226 
3301.000000	1.730394 
3300.000000	1.731657 
3299.000000	1.732969 
3298.000000	1.734304 
3297.000000	1.735663 
3296.000000	1.737046 
3295.000000	1.738452 
3294.000000	1.739859 
3293.000000	1.741290 
3292.000000	1.742768 
3291.000000	1.744222 
3290.000000	1.745676 
3289.000000	1.747107 
3288.000000	1.748466 
3287.000000	1.749825 
3286.000000	1.751160 
3285.000000	1.752495 
3284.000000	1.753830 
3283.000000	1.755189 
3282.000000	1.756548 
3281.000000	1.757860 
3280.000000	1.759147 
3279.000000	1.760339 
3278.000000	1.761436 
3277.000000	1.762437 
3276.000000	1.763391 
3275.000000	1.764345 
3274.000000	1.765298 
3273.000000	1.766324 
3272.000000	1.767420 
3271.000000	1.768589 
3270.000000	1.769781 
3269.000000	1.770925 
3268.000000	1.772046 
3267.000000	1.773047 
3266.000000	1.773953 
3265.000000	1.774764 
3264.000000	1.775503 
3263.000000	1.776170 
3262.000000	1.776814 
3261.000000	1.777458 
3260.000000	1.778054 
3259.000000	1.778650 
3258.000000	1.779174 
3257.000000	1.779627 
3256.000000	1.780033 
3255.000000	1.780438 
3254.000000	1.780867 
3253.000000	1.781368 
3252.000000	1.781964 
3251.000000	1.782703 
3250.000000	1.783561 
3249.000000	1.784491 
3248.000000	1.785540 
3247.000000	1.786565 
3246.000000	1.787543 
3245.000000	1.788473 
3244.000000	1.789259 
3243.000000	1.789927 
3242.000000	1.790523 
3241.000000	1.791000 
3240.000000	1.791429 
3239.000000	1.791787 
3238.000000	1.792168 
3237.000000	1.792526 
3236.000000	1.792931 
3235.000000	1.793360 
3234.000000	1.793813 
3233.000000	1.794338 
3232.000000	1.794886 
3231.000000	1.795482 
3230.000000	1.796126 
3229.000000	1.796770 
3228.000000	1.797437 
3227.000000	1.798081 
3226.000000	1.798725 
3225.000000	1.799321 
3224.000000	1.799869 
3223.000000	1.800346 
3222.000000	1.800775 
3221.000000	1.801204 
3220.000000	1.801562 
3219.000000	1.801848 
3218.000000	1.802110 
3217.000000	1.802253 
3216.000000	1.802349 
3215.000000	1.802349 
3214.000000	1.802301 
3213.000000	1.802253 
3212.000000	1.802206 
3211.000000	1.802158 
3210.000000	1.802134 
3209.000000	1.802158 
3208.000000	1.802206 
3207.000000	1.802253 
3206.000000	1.802277 
3205.000000	1.802301 
3204.000000	1.802325 
3203.000000	1.802325 
3202.000000	1.802301 
3201.000000	1.802301 
3200.000000	1.802325 
3199.000000	1.802349 
3198.000000	1.802396 
3197.000000	1.802492 
3196.000000	1.802563 
3195.000000	1.802659 
3194.000000	1.802802 
3193.000000	1.802992 
3192.000000	1.803255 
3191.000000	1.803565 
3190.000000	1.803970 
3189.000000	1.804423 
3188.000000	1.804876 
3187.000000	1.805305 
3186.000000	1.805734 
3185.000000	1.806068 
3184.000000	1.806306 
3183.000000	1.806473 
3182.000000	1.806521 
3181.000000	1.806521 
3180.000000	1.806473 
3179.000000	1.806473 
3178.000000	1.806521 
3177.000000	1.806640 
3176.000000	1.806855 
3175.000000	1.807165 
3174.000000	1.807522 
3173.000000	1.807951 
3172.000000	1.808381 
3171.000000	1.808857 
3170.000000	1.809310 
3169.000000	1.809835 
3168.000000	1.810407 
3167.000000	1.811003 
3166.000000	1.811671 
3165.000000	1.812434 
3164.000000	1.813244 
3163.000000	1.814031 
3162.000000	1.814842 
3161.000000	1.815652 
3160.000000	1.816487 
3159.000000	1.817274 
3158.000000	1.818084 
3157.000000	1.818990 
3156.000000	1.819896 
3155.000000	1.820898 
3154.000000	1.821899 
3153.000000	1.822876 
3152.000000	1.823854 
3151.000000	1.824760 
3150.000000	1.825594 
3149.000000	1.826357 
3148.000000	1.827049 
3147.000000	1.827740 
3146.000000	1.828408 
3145.000000	1.829075 
3144.000000	1.829743 
3143.000000	1.830410 
3142.000000	1.831102 
3141.000000	1.831769 
3140.000000	1.832485 
3139.000000	1.833224 
3138.000000	1.834011 
3137.000000	1.834869 
3136.000000	1.835870 
3135.000000	1.837015 
3134.000000	1.838350 
3133.000000	1.839804 
3132.000000	1.841306 
3131.000000	1.842904 
3130.000000	1.844477 
3129.000000	1.846003 
3128.000000	1.847434 
3127.000000	1.848793 
3126.000000	1.850056 
3125.000000	1.851272 
3124.000000	1.852440 
3123.000000	1.853656 
3122.000000	1.854944 
3121.000000	1.856184 
3120.000000	1.857471 
3119.000000	1.858806 
3118.000000	1.860117 
3117.000000	1.861429 
3116.000000	1.862740 
3115.000000	1.864027 
3114.000000	1.865339 
3113.000000	1.866769 
3112.000000	1.868224 
3111.000000	1.869750 
3110.000000	1.871371 
3109.000000	1.873064 
3108.000000	1.874756 
3107.000000	1.876449 
3106.000000	1.878118 
3105.000000	1.879763 
3104.000000	1.881408 
3103.000000	1.882958 
3102.000000	1.884460 
3101.000000	1.886010 
3100.000000	1.887583 
3099.000000	1.889276 
3098.000000	1.890993 
3097.000000	1.892828 
3096.000000	1.894736 
3095.000000	1.896715 
3094.000000	1.898717 
3093.000000	1.900672 
3092.000000	1.902699 
3091.000000	1.904773 
3090.000000	1.906871 
3089.000000	1.909065 
3088.000000	1.911401 
3087.000000	1.913857 
3086.000000	1.916432 
3085.000000	1.919054 
3084.000000	1.921653 
3083.000000	1.924180 
3082.000000	1.926517 
3081.000000	1.928663 
3080.000000	1.930546 
3079.000000	1.932215 
3078.000000	1.933693 
3077.000000	1.935029 
3076.000000	1.936244 
3075.000000	1.937413 
3074.000000	1.938629 
3073.000000	1.939845 
3072.000000	1.941037 
3071.000000	1.942276 
3070.000000	1.943516 
3069.000000	1.944732 
3068.000000	1.945924 
3067.000000	1.947069 
3066.000000	1.948165 
3065.000000	1.949191 
3064.000000	1.950216 
3063.000000	1.951241 
3062.000000	1.952266 
3061.000000	1.953387 
3060.000000	1.954555 
3059.000000	1.955890 
3058.000000	1.957368 
3057.000000	1.958942 
3056.000000	1.960611 
3055.000000	1.962351 
3054.000000	1.964163 
3053.000000	1.965880 
3052.000000	1.967549 
3051.000000	1.969075 
3050.000000	1.970505 
3049.000000	1.971840 
3048.000000	1.973128 
3047.000000	1.974439 
3046.000000	1.975774 
3045.000000	1.977205 
3044.000000	1.978707 
3043.000000	1.980257 
3042.000000	1.981782 
3041.000000	1.983308 
3040.000000	1.984763 
3039.000000	1.986122 
3038.000000	1.987314 
3037.000000	1.988339 
3036.000000	1.989221 
3035.000000	1.989865 
3034.000000	1.990318 
3033.000000	1.990461 
3032.000000	1.990294 
3031.000000	1.989746 
3030.000000	1.988840 
3029.000000	1.987576 
3028.000000	1.985931 
3027.000000	1.984071 
3026.000000	1.981973 
3025.000000	1.979780 
3024.000000	1.977610 
3023.000000	1.975584 
3022.000000	1.973819 
3021.000000	1.972508 
3020.000000	1.971745 
3019.000000	1.971697 
3018.000000	1.972389 
3017.000000	1.973962 
3016.000000	1.976442 
3015.000000	1.979732 
3014.000000	1.983761 
3013.000000	1.988410 
3012.000000	1.993489 
3011.000000	1.998805 
3010.000000	2.004122 
3009.000000	2.009320 
3008.000000	2.014207 
3007.000000	2.018666 
3006.000000	2.022624 
3005.000000	2.026057 
3004.000000	2.029061 
3003.000000	2.031636 
3002.000000	2.033805 
3001.000000	2.035641 
3000.000000	2.037262 
2999.000000	2.038693 
2998.000000	2.039957 
2997.000000	2.041029 
2996.000000	2.041959 
2995.000000	2.042770 
2994.000000	2.043390 
2993.000000	2.043843 
2992.000000	2.044129 
2991.000000	2.044272 
2990.000000	2.044200 
2989.000000	2.043914 
2988.000000	2.043414 
2987.000000	2.042675 
2986.000000	2.041649 
2985.000000	2.040338 
2984.000000	2.038717 
2983.000000	2.036786 
2982.000000	2.034521 
2981.000000	2.031970 
2980.000000	2.029180 
2979.000000	2.026128 
2978.000000	2.022838 
2977.000000	2.019286 
2976.000000	2.015447 
2975.000000	2.011251 
2974.000000	2.006673 
2973.000000	2.001667 
2972.000000	1.996278 
2971.000000	1.990485 
2970.000000	1.984405 
2969.000000	1.978230 
2968.000000	1.972007 
2967.000000	1.965999 
2966.000000	1.960325 
2965.000000	1.955223 
2964.000000	1.950693 
2963.000000	1.946878 
2962.000000	1.943707 
2961.000000	1.941275 
2960.000000	1.939415 
2959.000000	1.938080 
2958.000000	1.937127 
2957.000000	1.936459 
2956.000000	1.935958 
2955.000000	1.935482 
2954.000000	1.934862 
2953.000000	1.933979 
2952.000000	1.932692 
2951.000000	1.930832 
2950.000000	1.928257 
2949.000000	1.924872 
2948.000000	1.920628 
2947.000000	1.915383 
2946.000000	1.909160 
2945.000000	1.902103 
2944.000000	1.894307 
2943.000000	1.885914 
2942.000000	1.877069 
2941.000000	1.867985 
2940.000000	1.858878 
2939.000000	1.849842 
2938.000000	1.841020 
2937.000000	1.832461 
2936.000000	1.824259 
2935.000000	1.816391 
2934.000000	1.808881 
2933.000000	1.801729 
2932.000000	1.794981 
2931.000000	1.788735 
2930.000000	1.783108 
2929.000000	1.778340 
2928.000000	1.774740 
2927.000000	1.772570 
2926.000000	1.772093 
2925.000000	1.773571 
2924.000000	1.777124 
2923.000000	1.782751 
2922.000000	1.790356 
2921.000000	1.799774 
2920.000000	1.810622 
2919.000000	1.822543 
2918.000000	1.835131 
2917.000000	1.848006 
2916.000000	1.860785 
2915.000000	1.873159 
2914.000000	1.884889 
2913.000000	1.895761 
2912.000000	1.905703 
2911.000000	1.914620 
2910.000000	1.922607 
2909.000000	1.929640 
2908.000000	1.935911 
2907.000000	1.941490 
2906.000000	1.946568 
2905.000000	1.951265 
2904.000000	1.955699 
2903.000000	1.959967 
2902.000000	1.964116 
2901.000000	1.968169 
2900.000000	1.972079 
2899.000000	1.975870 
2898.000000	1.979494 
2897.000000	1.982951 
2896.000000	1.986336 
2895.000000	1.989555 
2894.000000	1.992630 
2893.000000	1.995635 
2892.000000	1.998567 
2891.000000	2.001404 
2890.000000	2.004098 
2889.000000	2.006697 
2888.000000	2.009129 
2887.000000	2.011442 
2886.000000	2.013468 
2885.000000	2.015280 
2884.000000	2.016782 
2883.000000	2.017998 
2882.000000	2.018809 
2881.000000	2.019190 
2880.000000	2.019143 
2879.000000	2.018547 
2878.000000	2.017474 
2877.000000	2.015805 
2876.000000	2.013468 
2875.000000	2.010416 
2874.000000	2.006554 
2873.000000	2.001810 
2872.000000	1.996064 
2871.000000	1.989340 
2870.000000	1.981639 
2869.000000	1.973080 
2868.000000	1.963901 
2867.000000	1.954436 
2866.000000	1.945114 
2865.000000	1.936388 
2864.000000	1.928758 
2863.000000	1.922750 
2862.000000	1.918625 
2861.000000	1.916718 
2860.000000	1.917099 
2859.000000	1.919746 
2858.000000	1.924395 
2857.000000	1.930904 
2856.000000	1.938867 
2855.000000	1.947999 
2854.000000	1.957893 
2853.000000	1.968288 
2852.000000	1.978898 
2851.000000	1.989579 
2850.000000	2.000069 
2849.000000	2.010321 
2848.000000	2.020215 
2847.000000	2.029728 
2846.000000	2.038741 
2845.000000	2.047300 
2844.000000	2.055382 
2843.000000	2.062940 
2842.000000	2.069997 
2841.000000	2.076578 
2840.000000	2.082657 
2839.000000	2.088332 
2838.000000	2.093505 
2837.000000	2.098345 
2836.000000	2.102804 
2835.000000	2.106952 
2834.000000	2.110815 
2833.000000	2.114367 
2832.000000	2.117753 
2831.000000	2.120971 
2830.000000	2.123999 
2829.000000	2.126908 
2828.000000	2.129745 
2827.000000	2.132558 
2826.000000	2.135276 
2825.000000	2.138018 
2824.000000	2.140736 
2823.000000	2.143454 
2822.000000	2.146220 
2821.000000	2.149009 
2820.000000	2.151775 
2819.000000	2.154517 
2818.000000	2.157258 
2817.000000	2.159929 
2816.000000	2.162480 
2815.000000	2.164959 
2814.000000	2.167320 
2813.000000	2.169585 
2812.000000	2.171754 
2811.000000	2.173876 
2810.000000	2.175903 
2809.000000	2.177882 
2808.000000	2.179837 
2807.000000	2.181792 
2806.000000	2.183675 
2805.000000	2.185559 
2804.000000	2.187395 
2803.000000	2.189207 
2802.000000	2.190947 
2801.000000	2.192640 
2800.000000	2.194333 
2799.000000	2.195978 
2798.000000	2.197623 
2797.000000	2.199220 
2796.000000	2.200746 
2795.000000	2.202343 
2794.000000	2.203965 
2793.000000	2.205610 
2792.000000	2.207255 
2791.000000	2.209019 
2790.000000	2.210807 
2789.000000	2.212643 
2788.000000	2.214479 
2787.000000	2.216315 
2786.000000	2.218103 
2785.000000	2.219867 
2784.000000	2.221560 
2783.000000	2.223253 
2782.000000	2.224898 
2781.000000	2.226567 
2780.000000	2.228260 
2779.000000	2.230000 
2778.000000	2.231764 
2777.000000	2.233552 
2776.000000	2.235364 
2775.000000	2.237176 
2774.000000	2.238917 
2773.000000	2.240586 
2772.000000	2.242136 
2771.000000	2.243566 
2770.000000	2.244901 
2769.000000	2.246093 
2768.000000	2.247118 
2767.000000	2.248048 
2766.000000	2.248859 
2765.000000	2.249646 
2764.000000	2.250456 
2763.000000	2.251362 
2762.000000	2.252316 
2761.000000	2.253413 
2760.000000	2.254652 
2759.000000	2.255988 
2758.000000	2.257347 
2757.000000	2.258706 
2756.000000	2.260041 
2755.000000	2.261185 
2754.000000	2.262210 
2753.000000	2.262997 
2752.000000	2.263617 
2751.000000	2.264022 
2750.000000	2.264285 
2749.000000	2.264428 
2748.000000	2.264523 
2747.000000	2.264595 
2746.000000	2.264666 
2745.000000	2.264809 
2744.000000	2.265000 
2743.000000	2.265238 
2742.000000	2.265501 
2741.000000	2.265858 
2740.000000	2.266263 
2739.000000	2.266669 
2738.000000	2.267050 
2737.000000	2.267456 
2736.000000	2.267789 
2735.000000	2.268004 
2734.000000	2.268075 
2733.000000	2.267980 
2732.000000	2.267694 
2731.000000	2.267265 
2730.000000	2.266740 
2729.000000	2.266192 
2728.000000	2.265596 
2727.000000	2.265095 
2726.000000	2.264714 
2725.000000	2.264451 
2724.000000	2.264285 
2723.000000	2.264285 
2722.000000	2.264380 
2721.000000	2.264451 
2720.000000	2.264547 
2719.000000	2.264571 
2718.000000	2.264475 
2717.000000	2.264308 
2716.000000	2.263998 
2715.000000	2.263593 
2714.000000	2.263069 
2713.000000	2.262473 
2712.000000	2.261853 
2711.000000	2.261209 
2710.000000	2.260565 
2709.000000	2.259945 
2708.000000	2.259325 
2707.000000	2.258706 
2706.000000	2.258157 
2705.000000	2.257609 
2704.000000	2.257156 
2703.000000	2.256727 
2702.000000	2.256321 
2701.000000	2.255988 
2700.000000	2.255606 
2699.000000	2.255249 
2698.000000	2.254867 
2697.000000	2.254438 
2696.000000	2.254080 
2695.000000	2.253699 
2694.000000	2.253341 
2693.000000	2.253031 
2692.000000	2.252769 
2691.000000	2.252554 
2690.000000	2.252340 
2689.000000	2.252101 
2688.000000	2.251863 
2687.000000	2.251505 
2686.000000	2.251052 
2685.000000	2.250528 
2684.000000	2.249884 
2683.000000	2.249121 
2682.000000	2.248311 
2681.000000	2.247428 
2680.000000	2.246499 
2679.000000	2.245545 
2678.000000	2.244591 
2677.000000	2.243685 
2676.000000	2.242827 
2675.000000	2.242040 
2674.000000	2.241349 
2673.000000	2.240681 
2672.000000	2.240061 
2671.000000	2.239465 
2670.000000	2.238869 
2669.000000	2.238249 
2668.000000	2.237653 
2667.000000	2.237033 
2666.000000	2.236437 
2665.000000	2.235865 
2664.000000	2.235341 
2663.000000	2.234816 
2662.000000	2.234292 
2661.000000	2.233767 
2660.000000	2.233219 
2659.000000	2.232646 
2658.000000	2.232050 
2657.000000	2.231407 
2656.000000	2.230715 
2655.000000	2.229976 
2654.000000	2.229166 
2653.000000	2.228307 
2652.000000	2.227425 
2651.000000	2.226591 
2650.000000	2.225780 
2649.000000	2.225112 
2648.000000	2.224588 
2647.000000	2.224230 
2646.000000	2.224087 
2645.000000	2.224111 
2644.000000	2.224302 
2643.000000	2.224588 
2642.000000	2.224946 
2641.000000	2.225327 
2640.000000	2.225708 
2639.000000	2.226042 
2638.000000	2.226352 
2637.000000	2.226591 
2636.000000	2.226734 
2635.000000	2.226853 
2634.000000	2.226924 
2633.000000	2.226948 
2632.000000	2.226972 
2631.000000	2.227020 
2630.000000	2.227163 
2629.000000	2.227354 
2628.000000	2.227663 
2627.000000	2.228045 
2626.000000	2.228546 
2625.000000	2.229046 
2624.000000	2.229619 
2623.000000	2.230167 
2622.000000	2.230691 
2621.000000	2.231121 
2620.000000	2.231502 
2619.000000	2.231740 
2618.000000	2.231884 
2617.000000	2.231979 
2616.000000	2.232003 
2615.000000	2.232050 
2614.000000	2.232122 
2613.000000	2.232313 
2612.000000	2.232646 
2611.000000	2.233099 
2610.000000	2.233648 
2609.000000	2.234244 
2608.000000	2.234888 
2607.000000	2.235507 
2606.000000	2.236056 
2605.000000	2.236533 
2604.000000	2.236914 
2603.000000	2.237248 
2602.000000	2.237510 
2601.000000	2.237725 
2600.000000	2.237892 
2599.000000	2.238059 
2598.000000	2.238178 
2597.000000	2.238345 
2596.000000	2.238559 
2595.000000	2.238869 
2594.000000	2.239322 
2593.000000	2.239942 
2592.000000	2.240777 
2591.000000	2.241730 
2590.000000	2.242803 
2589.000000	2.243924 
2588.000000	2.245092 
2587.000000	2.246189 
2586.000000	2.247285 
2585.000000	2.248358 
2584.000000	2.249503 
2583.000000	2.250766 
2582.000000	2.252149 
2581.000000	2.253746 
2580.000000	2.255487 
2579.000000	2.257347 
2578.000000	2.259206 
2577.000000	2.261066 
2576.000000	2.262854 
2575.000000	2.264499 
2574.000000	2.266025 
2573.000000	2.267384 
2572.000000	2.268695 
2571.000000	2.269983 
2570.000000	2.271270 
2569.000000	2.272677 
2568.000000	2.274131 
2567.000000	2.275681 
2566.000000	2.277278 
2565.000000	2.278947 
2564.000000	2.280569 
2563.000000	2.282166 
2562.000000	2.283692 
2561.000000	2.285146 
2560.000000	2.286481 
2559.000000	2.287745 
2558.000000	2.288937 
2557.000000	2.290058 
2556.000000	2.291178 
2555.000000	2.292251 
2554.000000	2.293348 
2553.000000	2.294421 
2552.000000	2.295565 
2551.000000	2.296757 
2550.000000	2.297997 
2549.000000	2.299284 
2548.000000	2.300620 
2547.000000	2.302002 
2546.000000	2.303433 
2545.000000	2.304840 
2544.000000	2.306222 
2543.000000	2.307558 
2542.000000	2.308821 
2541.000000	2.309989 
2540.000000	2.311086 
2539.000000	2.312088 
2538.000000	2.313065 
2537.000000	2.313971 
2536.000000	2.314853 
2535.000000	2.315711 
2534.000000	2.316546 
2533.000000	2.317428 
2532.000000	2.318310 
2531.000000	2.319216 
2530.000000	2.320218 
2529.000000	2.321267 
2528.000000	2.322340 
2527.000000	2.323460 
2526.000000	2.324557 
2525.000000	2.325582 
2524.000000	2.326512 
2523.000000	2.327346 
2522.000000	2.328062 
2521.000000	2.328658 
2520.000000	2.329134 
2519.000000	2.329564 
2518.000000	2.329945 
2517.000000	2.330303 
2516.000000	2.330684 
2515.000000	2.331089 
2514.000000	2.331566 
2513.000000	2.332043 
2512.000000	2.332592 
2511.000000	2.333259 
2510.000000	2.333998 
2509.000000	2.334761 
2508.000000	2.335500 
2507.000000	2.336192 
2506.000000	2.336812 
2505.000000	2.337336 
2504.000000	2.337646 
2503.000000	2.337765 
2502.000000	2.337694 
2501.000000	2.337479 
2500.000000	2.337145 
2499.000000	2.336740 
2498.000000	2.336311 
2497.000000	2.335929 
2496.000000	2.335572 
2495.000000	2.335309 
2494.000000	2.335095 
2493.000000	2.334928 
2492.000000	2.334785 
2491.000000	2.334690 
2490.000000	2.334618 
2489.000000	2.334618 
2488.000000	2.334690 
2487.000000	2.334809 
2486.000000	2.334976 
2485.000000	2.335166 
2484.000000	2.335357 
2483.000000	2.335429 
2482.000000	2.335381 
2481.000000	2.335119 
2480.000000	2.334666 
2479.000000	2.333974 
2478.000000	2.333092 
2477.000000	2.332091 
2476.000000	2.330994 
2475.000000	2.329897 
2474.000000	2.328872 
2473.000000	2.327871 
2472.000000	2.326965 
2471.000000	2.326130 
2470.000000	2.325272 
2469.000000	2.324390 
2468.000000	2.323484 
2467.000000	2.322483 
2466.000000	2.321457 
2465.000000	2.320313 
2464.000000	2.319145 
2463.000000	2.317976 
2462.000000	2.316808 
2461.000000	2.315616 
2460.000000	2.314496 
2459.000000	2.313375 
2458.000000	2.312326 
2457.000000	2.311301 
2456.000000	2.310395 
2455.000000	2.309536 
2454.000000	2.308773 
2453.000000	2.308034 
2452.000000	2.307391 
2451.000000	2.306771 
2450.000000	2.306175 
2449.000000	2.305603 
2448.000000	2.304959 
2447.000000	2.304315 
2446.000000	2.303600 
2445.000000	2.302861 
2444.000000	2.302026 
2443.000000	2.301168 
2442.000000	2.300238 
2441.000000	2.299237 
2440.000000	2.298188 
2439.000000	2.297091 
2438.000000	2.295970 
2437.000000	2.294802 
2436.000000	2.293634 
2435.000000	2.292418 
2434.000000	2.291154 
2433.000000	2.289795 
2432.000000	2.288413 
2431.000000	2.286958 
2430.000000	2.285504 
2429.000000	2.284002 
2428.000000	2.282595 
2427.000000	2.281260 
2426.000000	2.280020 
2425.000000	2.278947 
2424.000000	2.278017 
2423.000000	2.277159 
2422.000000	2.276420 
2421.000000	2.275705 
2420.000000	2.275037 
2419.000000	2.274370 
2418.000000	2.273750 
2417.000000	2.273154 
2416.000000	2.272605 
2415.000000	2.272057 
2414.000000	2.271580 
2413.000000	2.271103 
2412.000000	2.270579 
2411.000000	2.270078 
2410.000000	2.269554 
2409.000000	2.268958 
2408.000000	2.268362 
2407.000000	2.267765 
2406.000000	2.267146 
2405.000000	2.266526 
2404.000000	2.265930 
2403.000000	2.265310 
2402.000000	2.264666 
2401.000000	2.263951 
2400.000000	2.263164 
2399.000000	2.262306 
2398.000000	2.261447 
2397.000000	2.260565 
2396.000000	2.259707 
2395.000000	2.259016 
2394.000000	2.258491 
2393.000000	2.258133 
2392.000000	2.257943 
2391.000000	2.257871 
2390.000000	2.257823 
2389.000000	2.257752 
2388.000000	2.257537 
2387.000000	2.257156 
2386.000000	2.256560 
2385.000000	2.255773 
2384.000000	2.254867 
2383.000000	2.253913 
2382.000000	2.252912 
2381.000000	2.252006 
2380.000000	2.251195 
2379.000000	2.250528 
2378.000000	2.249908 
2377.000000	2.249360 
2376.000000	2.248835 
2375.000000	2.248239 
2374.000000	2.247524 
2373.000000	2.246713 
2372.000000	2.245712 
2371.000000	2.244591 
2370.000000	2.243399 
2369.000000	2.242231 
2368.000000	2.241134 
2367.000000	2.240204 
2366.000000	2.239537 
2365.000000	2.239179 
2364.000000	2.239155 
2363.000000	2.239513 
2362.000000	2.240180 
2361.000000	2.241230 
2360.000000	2.242541 
2359.000000	2.244210 
2358.000000	2.246165 
2357.000000	2.248454 
2356.000000	2.250957 
2355.000000	2.253699 
2354.000000	2.256560 
2353.000000	2.259421 
2352.000000	2.262163 
2351.000000	2.264666 
2350.000000	2.266812 
2349.000000	2.268505 
2348.000000	2.269768 
2347.000000	2.270722 
2346.000000	2.271342 
2345.000000	2.271819 
2344.000000	2.272224 
2343.000000	2.272653 
2342.000000	2.273225 
2341.000000	2.273941 
2340.000000	2.274823 
2339.000000	2.275824 
2338.000000	2.276968 
2337.000000	2.278184 
2336.000000	2.279472 
2335.000000	2.280831 
2334.000000	2.282261 
2333.000000	2.283763 
2332.000000	2.285337 
2331.000000	2.286982 
2330.000000	2.288651 
2329.000000	2.290272 
2328.000000	2.291917 
2327.000000	2.293515 
2326.000000	2.295112 
2325.000000	2.296733 
2324.000000	2.298450 
2323.000000	2.300262 
2322.000000	2.302265 
2321.000000	2.304434 
2320.000000	2.306771 
2319.000000	2.309226 
2318.000000	2.311730 
2317.000000	2.314257 
2316.000000	2.316689 
2315.000000	2.319049 
2314.000000	2.321290 
2313.000000	2.323389 
2312.000000	2.325367 
2311.000000	2.327275 
2310.000000	2.329158 
2309.000000	2.331042 
2308.000000	2.332901 
2307.000000	2.334809 
2306.000000	2.336764 
2305.000000	2.338671 
2304.000000	2.340579 
2303.000000	2.342391 
2302.000000	2.344083 
2301.000000	2.345633 
2300.000000	2.347016 
2299.000000	2.348184 
2298.000000	2.349281 
2297.000000	2.350258 
2296.000000	2.351212 
2295.000000	2.352190 
2294.000000	2.353215 
2293.000000	2.354431 
2292.000000	2.355718 
2291.000000	2.357149 
2290.000000	2.358675 
2289.000000	2.360320 
2288.000000	2.361989 
2287.000000	2.363681 
2286.000000	2.365303 
2285.000000	2.366828 
2284.000000	2.368259 
2283.000000	2.369594 
2282.000000	2.370762 
2281.000000	2.371788 
2280.000000	2.372646 
2279.000000	2.373337 
2278.000000	2.373909 
2277.000000	2.374315 
2276.000000	2.374649 
2275.000000	2.374935 
2274.000000	2.375245 
2273.000000	2.375626 
2272.000000	2.376103 
2271.000000	2.376723 
2270.000000	2.377510 
2269.000000	2.378416 
2268.000000	2.379441 
2267.000000	2.380442 
2266.000000	2.381443 
2265.000000	2.382326 
2264.000000	2.383089 
2263.000000	2.383708 
2262.000000	2.384185 
2261.000000	2.384567 
2260.000000	2.384877 
2259.000000	2.385139 
2258.000000	2.385377 
2257.000000	2.385592 
2256.000000	2.385807 
2255.000000	2.385997 
2254.000000	2.386188 
2253.000000	2.386355 
2252.000000	2.386474 
2251.000000	2.386617 
2250.000000	2.386784 
2249.000000	2.386975 
2248.000000	2.387261 
2247.000000	2.387595 
2246.000000	2.387976 
2245.000000	2.388334 
2244.000000	2.388715 
2243.000000	2.389025 
2242.000000	2.389264 
2241.000000	2.389383 
2240.000000	2.389430 
2239.000000	2.389335 
2238.000000	2.389192 
2237.000000	2.388954 
2236.000000	2.388668 
2235.000000	2.388310 
2234.000000	2.387905 
2233.000000	2.387404 
2232.000000	2.386808 
2231.000000	2.386212 
2230.000000	2.385544 
2229.000000	2.384877 
2228.000000	2.384257 
2227.000000	2.383708 
2226.000000	2.383279 
2225.000000	2.382969 
2224.000000	2.382707 
2223.000000	2.382493 
2222.000000	2.382278 
2221.000000	2.382040 
2220.000000	2.381753 
2219.000000	2.381372 
2218.000000	2.380871 
2217.000000	2.380299 
2216.000000	2.379655 
2215.000000	2.378940 
2214.000000	2.378177 
2213.000000	2.377414 
2212.000000	2.376651 
2211.000000	2.375888 
2210.000000	2.375173 
2209.000000	2.374482 
2208.000000	2.373909 
2207.000000	2.373361 
2206.000000	2.372813 
2205.000000	2.372288 
2204.000000	2.371716 
2203.000000	2.371144 
2202.000000	2.370500 
2201.000000	2.369737 
2200.000000	2.368903 
2199.000000	2.367997 
2198.000000	2.367043 
2197.000000	2.366042 
2196.000000	2.365040 
2195.000000	2.364063 
2194.000000	2.363157 
2193.000000	2.362275 
2192.000000	2.361440 
2191.000000	2.360653 
2190.000000	2.359843 
2189.000000	2.359008 
2188.000000	2.358102 
2187.000000	2.357172 
2186.000000	2.356171 
2185.000000	2.355122 
2184.000000	2.354145 
2183.000000	2.353167 
2182.000000	2.352285 
2181.000000	2.351498 
2180.000000	2.350807 
2179.000000	2.350211 
2178.000000	2.349662 
2177.000000	2.349162 
2176.000000	2.348661 
2175.000000	2.348089 
2174.000000	2.347517 
2173.000000	2.346920 
2172.000000	2.346229 
2171.000000	2.345538 
2170.000000	2.344870 
2169.000000	2.344202 
2168.000000	2.343630 
2167.000000	2.343130 
2166.000000	2.342772 
2165.000000	2.342486 
2164.000000	2.342295 
2163.000000	2.342152 
2162.000000	2.342081 
2161.000000	2.342033 
2160.000000	2.341985 
2159.000000	2.341961 
2158.000000	2.341890 
2157.000000	2.341842 
2156.000000	2.341794 
2155.000000	2.341794 
2154.000000	2.341794 
2153.000000	2.341866 
2152.000000	2.341985 
2151.000000	2.342128 
2150.000000	2.342271 
2149.000000	2.342438 
2148.000000	2.342557 
2147.000000	2.342629 
2146.000000	2.342581 
2145.000000	2.342486 
2144.000000	2.342271 
2143.000000	2.341961 
2142.000000	2.341628 
2141.000000	2.341294 
2140.000000	2.340984 
2139.000000	2.340769 
2138.000000	2.340674 
2137.000000	2.340650 
2136.000000	2.340722 
2135.000000	2.340841 
2134.000000	2.340984 
2133.000000	2.341127 
2132.000000	2.341246 
2131.000000	2.341341 
2130.000000	2.341413 
2129.000000	2.341437 
2128.000000	2.341532 
2127.000000	2.341604 
2126.000000	2.341723 
2125.000000	2.341890 
2124.000000	2.342104 
2123.000000	2.342295 
2122.000000	2.342510 
2121.000000	2.342700 
2120.000000	2.342867 
2119.000000	2.343010 
2118.000000	2.343225 
2117.000000	2.343463 
2116.000000	2.343773 
2115.000000	2.344131 
2114.000000	2.344512 
2113.000000	2.344894 
2112.000000	2.345275 
2111.000000	2.345609 
2110.000000	2.345895 
2109.000000	2.346086 
2108.000000	2.346205 
2107.000000	2.346253 
2106.000000	2.346253 
2105.000000	2.346229 
2104.000000	2.346205 
2103.000000	2.346158 
2102.000000	2.346110 
2101.000000	2.346038 
2100.000000	2.345967 
2099.000000	2.345895 
2098.000000	2.345728 
2097.000000	2.345609 
2096.000000	2.345466 
2095.000000	2.345395 
2094.000000	2.345395 
2093.000000	2.345514 
2092.000000	2.345705 
2091.000000	2.346014 
2090.000000	2.346396 
2089.000000	2.346801 
2088.000000	2.347254 
2087.000000	2.347731 
2086.000000	2.348232 
2085.000000	2.348756 
2084.000000	2.349328 
2083.000000	2.349996 
2082.000000	2.350783 
2081.000000	2.351737 
2080.000000	2.352881 
2079.000000	2.354192 
2078.000000	2.355670 
2077.000000	2.357292 
2076.000000	2.359080 
2075.000000	2.360916 
2074.000000	2.362871 
2073.000000	2.364873 
2072.000000	2.366924 
2071.000000	2.369022 
2070.000000	2.371096 
2069.000000	2.373147 
2068.000000	2.375125 
2067.000000	2.376961 
2066.000000	2.378726 
2065.000000	2.380323 
2064.000000	2.381896 
2063.000000	2.383399 
2062.000000	2.384901 
2061.000000	2.386403 
2060.000000	2.387976 
2059.000000	2.389693 
2058.000000	2.391433 
2057.000000	2.393317 
2056.000000	2.395367 
2055.000000	2.397513 
2054.000000	2.399802 
2053.000000	2.402281 
2052.000000	2.404856 
2051.000000	2.407526 
2050.000000	2.410268 
2049.000000	2.413058 
2048.000000	2.415776 
2047.000000	2.418375 
2046.000000	2.420830 
2045.000000	2.423095 
2044.000000	2.425146 
2043.000000	2.426981 
2042.000000	2.428627 
2041.000000	2.430081 
2040.000000	2.431416 
2039.000000	2.432608 
2038.000000	2.433753 
2037.000000	2.434849 
2036.000000	2.435946 
2035.000000	2.437090 
2034.000000	2.438259 
2033.000000	2.439522 
2032.000000	2.440881 
2031.000000	2.442288 
2030.000000	2.443718 
2029.000000	2.445149 
2028.000000	2.446532 
2027.000000	2.447819 
2026.000000	2.448987 
2025.000000	2.450037 
2024.000000	2.450942 
2023.000000	2.451729 
2022.000000	2.452445 
2021.000000	2.453088 
2020.000000	2.453684 
2019.000000	2.454304 
2018.000000	2.454924 
2017.000000	2.455592 
2016.000000	2.456331 
2015.000000	2.457118 
2014.000000	2.457928 
2013.000000	2.458763 
2012.000000	2.459645 
2011.000000	2.460455 
2010.000000	2.461218 
2009.000000	2.461957 
2008.000000	2.462577 
2007.000000	2.463102 
2006.000000	2.463483 
2005.000000	2.463769 
2004.000000	2.463960 
2003.000000	2.464103 
2002.000000	2.464175 
2001.000000	2.464151 
2000.000000	2.464056 
1999.000000	2.463865 
1998.000000	2.463603 
1997.000000	2.463197 
1996.000000	2.462697 
1995.000000	2.462124 
1994.000000	2.461481 
1993.000000	2.460908 
1992.000000	2.460384 
1991.000000	2.459931 
1990.000000	2.459621 
1989.000000	2.459430 
1988.000000	2.459311 
1987.000000	2.459263 
1986.000000	2.459216 
1985.000000	2.459073 
1984.000000	2.458786 
1983.000000	2.458381 
1982.000000	2.457785 
1981.000000	2.457070 
1980.000000	2.456235 
1979.000000	2.455282 
1978.000000	2.454304 
1977.000000	2.453279 
1976.000000	2.452230 
1975.000000	2.451157 
1974.000000	2.450084 
1973.000000	2.449035 
1972.000000	2.447986 
1971.000000	2.446961 
1970.000000	2.445983 
1969.000000	2.445077 
1968.000000	2.444219 
1967.000000	2.443385 
1966.000000	2.442574 
1965.000000	2.441716 
1964.000000	2.440881 
1963.000000	2.439999 
1962.000000	2.439069 
1961.000000	2.438068 
1960.000000	2.437067 
1959.000000	2.436041 
1958.000000	2.435040 
1957.000000	2.434134 
1956.000000	2.433300 
1955.000000	2.432560 
1954.000000	2.431964 
1953.000000	2.431464 
1952.000000	2.431035 
1951.000000	2.430653 
1950.000000	2.430272 
1949.000000	2.429866 
1948.000000	2.429366 
1947.000000	2.428841 
1946.000000	2.428174 
1945.000000	2.427411 
1944.000000	2.426528 
1943.000000	2.425527 
1942.000000	2.424454 
1941.000000	2.423334 
1940.000000	2.422189 
1939.000000	2.421069 
1938.000000	2.420067 
1937.000000	2.419137 
1936.000000	2.418375 
1935.000000	2.417731 
1934.000000	2.417159 
1933.000000	2.416634 
1932.000000	2.416110 
1931.000000	2.415513 
1930.000000	2.414846 
1929.000000	2.414011 
1928.000000	2.413034 
1927.000000	2.411913 
1926.000000	2.410626 
1925.000000	2.409195 
1924.000000	2.407717 
1923.000000	2.406144 
1922.000000	2.404594 
1921.000000	2.403116 
1920.000000	2.401709 
1919.000000	2.400445 
1918.000000	2.399277 
1917.000000	2.398180 
1916.000000	2.397084 
1915.000000	2.395963 
1914.000000	2.394771 
1913.000000	2.393507 
1912.000000	2.392172 
1911.000000	2.390813 
1910.000000	2.389478 
1909.000000	2.388191 
1908.000000	2.386975 
1907.000000	2.385854 
1906.000000	2.384829 
1905.000000	2.383852 
1904.000000	2.382946 
1903.000000	2.382040 
1902.000000	2.381110 
1901.000000	2.380180 
1900.000000	2.379250 
1899.000000	2.378392 
1898.000000	2.377605 
1897.000000	2.376937 
1896.000000	2.376317 
1895.000000	2.375841 
1894.000000	2.375435 
1893.000000	2.375125 
1892.000000	2.374935 
1891.000000	2.374863 
1890.000000	2.374958 
1889.000000	2.375221 
1888.000000	2.375674 
1887.000000	2.376317 
1886.000000	2.377152 
1885.000000	2.378082 
1884.000000	2.379107 
1883.000000	2.380084 
1882.000000	2.380967 
1881.000000	2.381730 
1880.000000	2.382302 
1879.000000	2.382707 
1878.000000	2.382922 
1877.000000	2.382993 
1876.000000	2.382946 
1875.000000	2.382779 
1874.000000	2.382564 
1873.000000	2.382397 
1872.000000	2.382326 
1871.000000	2.382349 
1870.000000	2.382588 
1869.000000	2.383041 
1868.000000	2.383756 
1867.000000	2.384710 
1866.000000	2.385807 
1865.000000	2.386999 
1864.000000	2.388191 
1863.000000	2.389287 
1862.000000	2.390289 
1861.000000	2.391123 
1860.000000	2.391839 
1859.000000	2.392506 
1858.000000	2.393102 
1857.000000	2.393746 
1856.000000	2.394461 
1855.000000	2.395248 
1854.000000	2.396082 
1853.000000	2.396965 
1852.000000	2.397799 
1851.000000	2.398562 
1850.000000	2.399206 
1849.000000	2.399778 
1848.000000	2.400255 
1847.000000	2.400708 
1846.000000	2.401256 
1845.000000	2.401947 
1844.000000	2.402782 
1843.000000	2.403783 
1842.000000	2.404928 
1841.000000	2.406120 
1840.000000	2.407336 
1839.000000	2.408456 
1838.000000	2.409410 
1837.000000	2.410221 
1836.000000	2.410793 
1835.000000	2.411246 
1834.000000	2.411580 
1833.000000	2.411866 
1832.000000	2.412223 
1831.000000	2.412652 
1830.000000	2.413201 
1829.000000	2.413916 
1828.000000	2.414774 
1827.000000	2.415823 
1826.000000	2.417016 
1825.000000	2.418303 
1824.000000	2.419662 
1823.000000	2.421069 
1822.000000	2.422475 
1821.000000	2.423858 
1820.000000	2.425146 
1819.000000	2.426362 
1818.000000	2.427482 
1817.000000	2.428531 
1816.000000	2.429533 
1815.000000	2.430438 
1814.000000	2.431297 
1813.000000	2.432084 
1812.000000	2.432847 
1811.000000	2.433538 
1810.000000	2.434134 
1809.000000	2.434635 
1808.000000	2.434992 
1807.000000	2.435278 
1806.000000	2.435469 
1805.000000	2.435588 
1804.000000	2.435612 
1803.000000	2.435660 
1802.000000	2.435612 
1801.000000	2.435564 
1800.000000	2.435421 
1799.000000	2.435135 
1798.000000	2.434730 
1797.000000	2.434229 
1796.000000	2.433681 
1795.000000	2.433180 
1794.000000	2.432799 
1793.000000	2.432632 
1792.000000	2.432751 
1791.000000	2.433156 
1790.000000	2.433824 
1789.000000	2.434611 
1788.000000	2.435398 
1787.000000	2.436137 
1786.000000	2.436614 
1785.000000	2.436876 
1784.000000	2.436876 
1783.000000	2.436590 
1782.000000	2.435994 
1781.000000	2.435111 
1780.000000	2.433991 
1779.000000	2.432537 
1778.000000	2.430820 
1777.000000	2.428865 
1776.000000	2.426767 
1775.000000	2.424645 
1774.000000	2.422666 
1773.000000	2.421021 
1772.000000	2.419781 
1771.000000	2.418994 
1770.000000	2.418613 
1769.000000	2.418565 
1768.000000	2.418637 
1767.000000	2.418708 
1766.000000	2.418661 
1765.000000	2.418375 
1764.000000	2.417826 
1763.000000	2.417039 
1762.000000	2.416038 
1761.000000	2.414870 
1760.000000	2.413535 
1759.000000	2.411961 
1758.000000	2.410197 
1757.000000	2.408170 
1756.000000	2.405858 
1755.000000	2.403211 
1754.000000	2.400302 
1753.000000	2.397203 
1752.000000	2.393960 
1751.000000	2.390646 
1750.000000	2.387356 
1749.000000	2.384066 
1748.000000	2.380800 
1747.000000	2.377533 
1746.000000	2.374172 
1745.000000	2.370691 
1744.000000	2.367019 
1743.000000	2.363109 
1742.000000	2.358913 
1741.000000	2.354502 
1740.000000	2.349925 
1739.000000	2.345323 
1738.000000	2.340912 
1737.000000	2.336883 
1736.000000	2.333450 
1735.000000	2.330803 
1734.000000	2.329015 
1733.000000	2.328109 
1732.000000	2.327990 
1731.000000	2.328443 
1730.000000	2.329301 
1729.000000	2.330231 
1728.000000	2.330875 
1727.000000	2.331066 
1726.000000	2.330541 
1725.000000	2.329277 
1724.000000	2.327179 
1723.000000	2.324366 
1722.000000	2.321076 
1721.000000	2.317547 
1720.000000	2.314066 
1719.000000	2.310967 
1718.000000	2.308487 
1717.000000	2.306771 
1716.000000	2.305793 
1715.000000	2.305459 
1714.000000	2.305531 
1713.000000	2.305674 
1712.000000	2.305579 
1711.000000	2.304935 
1710.000000	2.303576 
1709.000000	2.301335 
1708.000000	2.298259 
1707.000000	2.294397 
1706.000000	2.289915 
1705.000000	2.284979 
1704.000000	2.279853 
1703.000000	2.274751 
1702.000000	2.269959 
1701.000000	2.265667 
1700.000000	2.262210 
1699.000000	2.259731 
1698.000000	2.258372 
1697.000000	2.258062 
1696.000000	2.258682 
1695.000000	2.259945 
1694.000000	2.261400 
1693.000000	2.262592 
1692.000000	2.263164 
1691.000000	2.262759 
1690.000000	2.261304 
1689.000000	2.258872 
1688.000000	2.255821 
1687.000000	2.252531 
1686.000000	2.249431 
1685.000000	2.246952 
1684.000000	2.245283 
1683.000000	2.244496 
1682.000000	2.244400 
1681.000000	2.244734 
1680.000000	2.245092 
1679.000000	2.245211 
1678.000000	2.244734 
1677.000000	2.243685 
1676.000000	2.241992 
1675.000000	2.239894 
1674.000000	2.237582 
1673.000000	2.235221 
1672.000000	2.232956 
1671.000000	2.230858 
1670.000000	2.228951 
1669.000000	2.227163 
1668.000000	2.225446 
1667.000000	2.223730 
1666.000000	2.221965 
1665.000000	2.220106 
1664.000000	2.218079 
1663.000000	2.215695 
1662.000000	2.212905 
1661.000000	2.209544 
1660.000000	2.205419 
1659.000000	2.200603 
1658.000000	2.195167 
1657.000000	2.189350 
1656.000000	2.183508 
1655.000000	2.177977 
1654.000000	2.173209 
1653.000000	2.169394 
1652.000000	2.166676 
1651.000000	2.165079 
1650.000000	2.164435 
1649.000000	2.164554 
1648.000000	2.165055 
1647.000000	2.165722 
1646.000000	2.166271 
1645.000000	2.166485 
1644.000000	2.166128 
1643.000000	2.165126 
1642.000000	2.163434 
1641.000000	2.161097 
1640.000000	2.158164 
1639.000000	2.154898 
1638.000000	2.151536 
1637.000000	2.148365 
1636.000000	2.145552 
1635.000000	2.143263 
1634.000000	2.141499 
1633.000000	2.140116 
1632.000000	2.138853 
1631.000000	2.137494 
1630.000000	2.135729 
1629.000000	2.133440 
1628.000000	2.130436 
1627.000000	2.126669 
1626.000000	2.122187 
1625.000000	2.116990 
1624.000000	2.111077 
1623.000000	2.104473 
1622.000000	2.097296 
1621.000000	2.089428 
1620.000000	2.080965 
1619.000000	2.071952 
1618.000000	2.062416 
1617.000000	2.052474 
1616.000000	2.042222 
1615.000000	2.031803 
1614.000000	2.021408 
1613.000000	2.011251 
1612.000000	2.001667 
1611.000000	1.992940 
1610.000000	1.985478 
1609.000000	1.979541 
1608.000000	1.975440 
1607.000000	1.973247 
1606.000000	1.972985 
1605.000000	1.974487 
1604.000000	1.977443 
1603.000000	1.981496 
1602.000000	1.986217 
1601.000000	1.991224 
1600.000000	1.996231 
1599.000000	2.000927 
1598.000000	2.005171 
1597.000000	2.008843 
1596.000000	2.011919 
1595.000000	2.014350 
1594.000000	2.016162 
1593.000000	2.017402 
1592.000000	2.018070 
1591.000000	2.018284 
1590.000000	2.018070 
1589.000000	2.017474 
1588.000000	2.016544 
1587.000000	2.015376 
1586.000000	2.013945 
1585.000000	2.012205 
1584.000000	2.010154 
1583.000000	2.007770 
1582.000000	2.005124 
1581.000000	2.002263 
1580.000000	1.999282 
1579.000000	1.996326 
1578.000000	1.993536 
1577.000000	1.991105 
1576.000000	1.989030 
1575.000000	1.987361 
1574.000000	1.986050 
1573.000000	1.985001 
1572.000000	1.984024 
1571.000000	1.982975 
1570.000000	1.981592 
1569.000000	1.979708 
1568.000000	1.977038 
1567.000000	1.973509 
1566.000000	1.969003 
1565.000000	1.963615 
1564.000000	1.957488 
1563.000000	1.951098 
1562.000000	1.944875 
1561.000000	1.939415 
1560.000000	1.935243 
1559.000000	1.932859 
1558.000000	1.932454 
1557.000000	1.934027 
1556.000000	1.937294 
1555.000000	1.941847 
1554.000000	1.947021 
1553.000000	1.952195 
1552.000000	1.956820 
1551.000000	1.960444 
1550.000000	1.962852 
1549.000000	1.963925 
1548.000000	1.963877 
1547.000000	1.963162 
1546.000000	1.962232 
1545.000000	1.961708 
1544.000000	1.962280 
1543.000000	1.964521 
1542.000000	1.968908 
1541.000000	1.975703 
1540.000000	1.984834 
1539.000000	1.996064 
1538.000000	2.008938 
1537.000000	2.022910 
1536.000000	2.037239 
1535.000000	2.051281 
1534.000000	2.064514 
1533.000000	2.076458 
1532.000000	2.086782 
1531.000000	2.095460 
1530.000000	2.102470 
1529.000000	2.107858 
1528.000000	2.111697 
1527.000000	2.114272 
1526.000000	2.115869 
1525.000000	2.116608 
1524.000000	2.116751 
1523.000000	2.116489 
1522.000000	2.115988 
1521.000000	2.115345 
1520.000000	2.114582 
1519.000000	2.113604 
1518.000000	2.112412 
1517.000000	2.110910 
1516.000000	2.109003 
1515.000000	2.106499 
1514.000000	2.103424 
1513.000000	2.099657 
1512.000000	2.095150 
1511.000000	2.089786 
1510.000000	2.083563 
1509.000000	2.076101 
1508.000000	2.067065 
1507.000000	2.055716 
1506.000000	2.041268 
1505.000000	2.022743 
1504.000000	1.999402 
1503.000000	1.970601 
1502.000000	1.936388 
1501.000000	1.897454 
1500.000000	1.855301 
1499.000000	1.812100 
1498.000000	1.770567 
1497.000000	1.733517 
1496.000000	1.703715 
1495.000000	1.683163 
1494.000000	1.673078 
1493.000000	1.673722 
1492.000000	1.684427 
1491.000000	1.703667 
1490.000000	1.729345 
1489.000000	1.759147 
1488.000000	1.791048 
1487.000000	1.822876 
1486.000000	1.853108 
1485.000000	1.880526 
1484.000000	1.904511 
1483.000000	1.924705 
1482.000000	1.941037 
1481.000000	1.953625 
1480.000000	1.962780 
1479.000000	1.969122 
1478.000000	1.973080 
1477.000000	1.975250 
1476.000000	1.976084 
1475.000000	1.976132 
1474.000000	1.975679 
1473.000000	1.974892 
1472.000000	1.973795 
1471.000000	1.972460 
1470.000000	1.970696 
1469.000000	1.968264 
1468.000000	1.964998 
1467.000000	1.960730 
1466.000000	1.955223 
1465.000000	1.948142 
1464.000000	1.939320 
1463.000000	1.928591 
1462.000000	1.915836 
1461.000000	1.901078 
1460.000000	1.884388 
1459.000000	1.866221 
1458.000000	1.847147 
1457.000000	1.828050 
1456.000000	1.809811 
1455.000000	1.793456 
1454.000000	1.780033 
1453.000000	1.770472 
1452.000000	1.765251 
1451.000000	1.764607 
1450.000000	1.768326 
1449.000000	1.775908 
1448.000000	1.786398 
1447.000000	1.798725 
1446.000000	1.811695 
1445.000000	1.824283 
1444.000000	1.835584 
1443.000000	1.845073 
1442.000000	1.852536 
1441.000000	1.857995 
1440.000000	1.861739 
1439.000000	1.864218 
1438.000000	1.865911 
1437.000000	1.867127 
1436.000000	1.868152 
1435.000000	1.869201 
1434.000000	1.870274 
1433.000000	1.871323 
1432.000000	1.872301 
1431.000000	1.873135 
1430.000000	1.873660 
1429.000000	1.873803 
1428.000000	1.873588 
1427.000000	1.872897 
1426.000000	1.871705 
1425.000000	1.870107 
1424.000000	1.868128 
1423.000000	1.865839 
1422.000000	1.863265 
1421.000000	1.860618 
1420.000000	1.857924 
1419.000000	1.855182 
1418.000000	1.852273 
1417.000000	1.849055 
1416.000000	1.845216 
1415.000000	1.840376 
1414.000000	1.834321 
1413.000000	1.826715 
1412.000000	1.817393 
1411.000000	1.806497 
1410.000000	1.794242 
1409.000000	1.781201 
1408.000000	1.767969 
1407.000000	1.755404 
1406.000000	1.744246 
1405.000000	1.735258 
1404.000000	1.728987 
1403.000000	1.725769 
1402.000000	1.725673 
1401.000000	1.728510 
1400.000000	1.733827 
1399.000000	1.741123 
1398.000000	1.749753 
1397.000000	1.758933 
1396.000000	1.768016 
1395.000000	1.776361 
1394.000000	1.783490 
1393.000000	1.789021 
1392.000000	1.792693 
1391.000000	1.794528 
1390.000000	1.794767 
1389.000000	1.793742 
1388.000000	1.791954 
1387.000000	1.789975 
1386.000000	1.788353 
1385.000000	1.787519 
1384.000000	1.787734 
1383.000000	1.789116 
1382.000000	1.791524 
1381.000000	1.794743 
1380.000000	1.798415 
1379.000000	1.802134 
1378.000000	1.805710 
1377.000000	1.808857 
1376.000000	1.811504 
1375.000000	1.813626 
1374.000000	1.815295 
1373.000000	1.816558 
1372.000000	1.817488 
1371.000000	1.818156 
1370.000000	1.818609 
1369.000000	1.818895 
1368.000000	1.819014 
1367.000000	1.819062 
1366.000000	1.818990 
1365.000000	1.818943 
1364.000000	1.818943 
1363.000000	1.819038 
1362.000000	1.819157 
1361.000000	1.819372 
1360.000000	1.819610 
1359.000000	1.819825 
1358.000000	1.820039 
1357.000000	1.820182 
1356.000000	1.820135 
1355.000000	1.819920 
1354.000000	1.819562 
1353.000000	1.819014 
1352.000000	1.818299 
1351.000000	1.817512 
1350.000000	1.816678 
1349.000000	1.815891 
1348.000000	1.815223 
1347.000000	1.814699 
1346.000000	1.814413 
1345.000000	1.814436 
1344.000000	1.814770 
1343.000000	1.815509 
1342.000000	1.816582 
1341.000000	1.818108 
1340.000000	1.820015 
1339.000000	1.822280 
1338.000000	1.824855 
1337.000000	1.827621 
1336.000000	1.830434 
1335.000000	1.833200 
1334.000000	1.835846 
1333.000000	1.838302 
1332.000000	1.840543 
1331.000000	1.842522 
1330.000000	1.844286 
1329.000000	1.845908 
1328.000000	1.847362 
1327.000000	1.848673 
1326.000000	1.849913 
1325.000000	1.850986 
1324.000000	1.851916 
1323.000000	1.852726 
1322.000000	1.853370 
1321.000000	1.853847 
1320.000000	1.854228 
1319.000000	1.854515 
1318.000000	1.854777 
1317.000000	1.854991 
1316.000000	1.855206 
1315.000000	1.855421 
1314.000000	1.855635 
1313.000000	1.855850 
1312.000000	1.856040 
1311.000000	1.856255 
1310.000000	1.856493 
1309.000000	1.856708 
1308.000000	1.856923 
1307.000000	1.857161 
1306.000000	1.857352 
1305.000000	1.857542 
1304.000000	1.857686 
1303.000000	1.857805 
1302.000000	1.857876 
1301.000000	1.857948 
1300.000000	1.857972 
1299.000000	1.857995 
1298.000000	1.858019 
1297.000000	1.857995 
1296.000000	1.857972 
1295.000000	1.857948 
1294.000000	1.857900 
1293.000000	1.857852 
1292.000000	1.857805 
1291.000000	1.857805 
1290.000000	1.857805 
1289.000000	1.857829 
1288.000000	1.857805 
1287.000000	1.857686 
1286.000000	1.857399 
1285.000000	1.856899 
1284.000000	1.856088 
1283.000000	1.854968 
1282.000000	1.853489 
1281.000000	1.851654 
1280.000000	1.849412 
1279.000000	1.846742 
1278.000000	1.843547 
1277.000000	1.839828 
1276.000000	1.835346 
1275.000000	1.830077 
1274.000000	1.823806 
1273.000000	1.816511 
1272.000000	1.808071 
1271.000000	1.798486 
1270.000000	1.787948 
1269.000000	1.776647 
1268.000000	1.764941 
1267.000000	1.753330 
1266.000000	1.742410 
1265.000000	1.732850 
1264.000000	1.725220 
1263.000000	1.720094 
1262.000000	1.717853 
1261.000000	1.718616 
1260.000000	1.722407 
1259.000000	1.728916 
1258.000000	1.737594 
1257.000000	1.747822 
1256.000000	1.758956 
1255.000000	1.770257 
1254.000000	1.781201 
1253.000000	1.791262 
1252.000000	1.800227 
1251.000000	1.807928 
1250.000000	1.814365 
1249.000000	1.819658 
1248.000000	1.823878 
1247.000000	1.827239 
1246.000000	1.829934 
1245.000000	1.832032 
1244.000000	1.833629 
1243.000000	1.834821 
1242.000000	1.835775 
1241.000000	1.836371 
1240.000000	1.836752 
1239.000000	1.836895 
1238.000000	1.836872 
1237.000000	1.836609 
1236.000000	1.836133 
1235.000000	1.835441 
1234.000000	1.834535 
1233.000000	1.833343 
1232.000000	1.831889 
1231.000000	1.830220 
1230.000000	1.828360 
1229.000000	1.826310 
1228.000000	1.824092 
1227.000000	1.821708 
1226.000000	1.819133 
1225.000000	1.816391 
1224.000000	1.813411 
1223.000000	1.810169 
1222.000000	1.806640 
1221.000000	1.802825 
1220.000000	1.798725 
1219.000000	1.794314 
1218.000000	1.789617 
1217.000000	1.784777 
1216.000000	1.779770 
1215.000000	1.774787 
1214.000000	1.769924 
1213.000000	1.765322 
1212.000000	1.761102 
1211.000000	1.757359 
1210.000000	1.754188 
1209.000000	1.751637 
1208.000000	1.749658 
1207.000000	1.748204 
1206.000000	1.747179 
1205.000000	1.746535 
1204.000000	1.746177 
1203.000000	1.745986 
1202.000000	1.745939 
1201.000000	1.745986 
1200.000000	1.745986 
1199.000000	1.745963 
1198.000000	1.745843 
1197.000000	1.745581 
1196.000000	1.745104 
1195.000000	1.744413 
1194.000000	1.743459 
1193.000000	1.742267 
1192.000000	1.740860 
1191.000000	1.739239 
1190.000000	1.737475 
1189.000000	1.735520 
1188.000000	1.733446 
1187.000000	1.731228 
1186.000000	1.728892 
1185.000000	1.726388 
1184.000000	1.723766 
1183.000000	1.721048 
1182.000000	1.718211 
1181.000000	1.715326 
1180.000000	1.712393 
1179.000000	1.709461 
1178.000000	1.706480 
1177.000000	1.703476 
1176.000000	1.700401 
1175.000000	1.697254 
1174.000000	1.693987 
1173.000000	1.690530 
1172.000000	1.686859 
1171.000000	1.682949 
1170.000000	1.678824 
1169.000000	1.674461 
1168.000000	1.669907 
1167.000000	1.665163 
1166.000000	1.660251 
1165.000000	1.655244 
1164.000000	1.650214 
1163.000000	1.645207 
1162.000000	1.640343 
1161.000000	1.635694 
1160.000000	1.631402 
1159.000000	1.627469 
1158.000000	1.623964 
1157.000000	1.620936 
1156.000000	1.618361 
1155.000000	1.616239 
1154.000000	1.614475 
1153.000000	1.612973 
1152.000000	1.611638 
1151.000000	1.610374 
1150.000000	1.609039 
1149.000000	1.607584 
1148.000000	1.605916 
1147.000000	1.604080 
1146.000000	1.602077 
1145.000000	1.599907 
1144.000000	1.597595 
1143.000000	1.595187 
1142.000000	1.592659 
1141.000000	1.590037 
1140.000000	1.587271 
1139.000000	1.584386 
1138.000000	1.581335 
1137.000000	1.578116 
1136.000000	1.574802 
1135.000000	1.571321 
1134.000000	1.567673 
1133.000000	1.563882 
1132.000000	1.559925 
1131.000000	1.555752 
1130.000000	1.551389 
1129.000000	1.546788 
1128.000000	1.541996 
1127.000000	1.536989 
1126.000000	1.531791 
1125.000000	1.526451 
1124.000000	1.521015 
1123.000000	1.515579 
1122.000000	1.510143 
1121.000000	1.504755 
1120.000000	1.499462 
1119.000000	1.494264 
1118.000000	1.489138 
1117.000000	1.484107 
1116.000000	1.479125 
1115.000000	1.474165 
1114.000000	1.469278 
1113.000000	1.464462 
1112.000000	1.459789 
1111.000000	1.455354 
1110.000000	1.451206 
1109.000000	1.447391 
1108.000000	1.443934 
1107.000000	1.440811 
1106.000000	1.438069 
1105.000000	1.435637 
1104.000000	1.433491 
1103.000000	1.431608 
1102.000000	1.429915 
1101.000000	1.428389 
1100.000000	1.427078 
1099.000000	1.425933 
1098.000000	1.425027 
1097.000000	1.424336 
1096.000000	1.423954 
1095.000000	1.423859 
1094.000000	1.424050 
1093.000000	1.424479 
1092.000000	1.425194 
1091.000000	1.426124 
1090.000000	1.427149 
1089.000000	1.428174 
1088.000000	1.429224 
1087.000000	1.430153 
1086.000000	1.430892 
1085.000000	1.431393 
1084.000000	1.431632 
1083.000000	1.431608 
1082.000000	1.431417 
1081.000000	1.431083 
1080.000000	1.430726 
1079.000000	1.430368 
1078.000000	1.430225 
1077.000000	1.430296 
1076.000000	1.430630 
1075.000000	1.431226 
1074.000000	1.432013 
1073.000000	1.433014 
1072.000000	1.434135 
1071.000000	1.435256 
1070.000000	1.436305 
1069.000000	1.437211 
1068.000000	1.437902 
1067.000000	1.438331 
1066.000000	1.438403 
1065.000000	1.438069 
1064.000000	1.437139 
1063.000000	1.435303 
1062.000000	1.432251 
1061.000000	1.427674 
1060.000000	1.421046 
1059.000000	1.412153 
1058.000000	1.400780 
1057.000000	1.387166 
1056.000000	1.371788 
1055.000000	1.355504 
1054.000000	1.339435 
1053.000000	1.324892 
1052.000000	1.313185 
1051.000000	1.305222 
1050.000000	1.301693 
1049.000000	1.302671 
1048.000000	1.307797 
1047.000000	1.316213 
1046.000000	1.326823 
1045.000000	1.338338 
1044.000000	1.349687 
1043.000000	1.359915 
1042.000000	1.368451 
1041.000000	1.375102 
1040.000000	1.379799 
1039.000000	1.382827 
1038.000000	1.384449 
1037.000000	1.384997 
1036.000000	1.384735 
1035.000000	1.383900 
1034.000000	1.382613 
1033.000000	1.380968 
1032.000000	1.379013 
1031.000000	1.376891 
1030.000000	1.374554 
1029.000000	1.372170 
1028.000000	1.369833 
1027.000000	1.367640 
1026.000000	1.365637 
1025.000000	1.363921 
1024.000000	1.362562 
1023.000000	1.361656 
1022.000000	1.361274 
1021.000000	1.361346 
1020.000000	1.361966 
1019.000000	1.363086 
1018.000000	1.364660 
1017.000000	1.366615 
1016.000000	1.368880 
1015.000000	1.371359 
1014.000000	1.374006 
1013.000000	1.376748 
1012.000000	1.379537 
1011.000000	1.382279 
1010.000000	1.384997 
1009.000000	1.387667 
1008.000000	1.390194 
1007.000000	1.392602 
1006.000000	1.394867 
1005.000000	1.396918 
1004.000000	1.398754 
1003.000000	1.400279 
1002.000000	1.401495 
1001.000000	1.402330 
1000.000000	1.402878 
999.000000	 1.403069 
998.000000	 1.402950 
997.000000	 1.402521 
996.000000	 1.401829 
995.000000	 1.400923 
994.000000	 1.399779 
993.000000	 1.398491 
992.000000	 1.397013 
991.000000	 1.395392 
990.000000	 1.393675 
989.000000	 1.391839 
988.000000	 1.389956 
987.000000	 1.388025 
986.000000	 1.386094 
985.000000	 1.384115 
984.000000	 1.382136 
983.000000	 1.380181 
982.000000	 1.378226 
981.000000	 1.376247 
980.000000	 1.374268 
979.000000	 1.372289 
978.000000	 1.370263 
977.000000	 1.368141 
976.000000	 1.365971 
975.000000	 1.363682 
974.000000	 1.361250 
973.000000	 1.358652 
972.000000	 1.355934 
971.000000	 1.353096 
970.000000	 1.350116 
969.000000	 1.347017 
968.000000	 1.343846 
967.000000	 1.340556 
966.000000	 1.337194 
965.000000	 1.333785 
964.000000	 1.330304 
963.000000	 1.326751 
962.000000	 1.323151 
961.000000	 1.319479 
960.000000	 1.315760 
959.000000	 1.312041 
958.000000	 1.308345 
957.000000	 1.304721 
956.000000	 1.301145 
955.000000	 1.297712 
954.000000	 1.294398 
953.000000	 1.291227 
952.000000	 1.288199 
951.000000	 1.285290 
950.000000	 1.282572 
949.000000	 1.279926 
948.000000	 1.277422 
947.000000	 1.274967 
946.000000	 1.272606 
945.000000	 1.270294 
944.000000	 1.268029 
943.000000	 1.265811 
942.000000	 1.263642 
941.000000	 1.261496 
940.000000	 1.259446 
939.000000	 1.257443 
938.000000	 1.255464 
937.000000	 1.253557 
936.000000	 1.251626 
935.000000	 1.249623 
934.000000	 1.247549 
933.000000	 1.245331 
932.000000	 1.242971 
931.000000	 1.240491 
930.000000	 1.237964 
929.000000	 1.235437 
928.000000	 1.232933 
927.000000	 1.230549 
926.000000	 1.228308 
925.000000	 1.226186 
924.000000	 1.224136 
923.000000	 1.222133 
922.000000	 1.220083 
921.000000	 1.217889 
920.000000	 1.215529 
919.000000	 1.212882 
918.000000	 1.209950 
917.000000	 1.206660 
916.000000	 1.203036 
915.000000	 1.199126 
914.000000	 1.194977 
913.000000	 1.190686 
912.000000	 1.186394 
911.000000	 1.182198 
910.000000	 1.178264 
909.000000	 1.174736 
908.000000	 1.171588 
907.000000	 1.168942 
906.000000	 1.166725 
905.000000	 1.164865 
904.000000	 1.163291 
903.000000	 1.161909 
902.000000	 1.160621 
901.000000	 1.159334 
900.000000	 1.158070 
899.000000	 1.156783 
898.000000	 1.155424 
897.000000	 1.154017 
896.000000	 1.152491 
895.000000	 1.150703 
894.000000	 1.148533 
893.000000	 1.145887 
892.000000	 1.142597 
891.000000	 1.138567 
890.000000	 1.133656 
889.000000	 1.127862 
888.000000	 1.121211 
887.000000	 1.113748 
886.000000	 1.105594 
885.000000	 1.096844 
884.000000	 1.087784 
883.000000	 1.078557 
882.000000	 1.069450 
881.000000	 1.060700 
880.000000	 1.052618 
879.000000	 1.045417 
878.000000	 1.039457 
877.000000	 1.034975 
876.000000	 1.032137 
875.000000	 1.031041 
874.000000	 1.031732 
873.000000	 1.034116 
872.000000	 1.038002 
871.000000	 1.043105 
870.000000	 1.049041 
869.000000	 1.055431 
868.000000	 1.061892 
867.000000	 1.068162 
866.000000	 1.073884 
865.000000	 1.078939 
864.000000	 1.083278 
863.000000	 1.086854 
862.000000	 1.089715 
861.000000	 1.091814 
860.000000	 1.093268 
859.000000	 1.094150 
858.000000	 1.094532 
857.000000	 1.094412 
856.000000	 1.093888 
855.000000	 1.093053 
854.000000	 1.091957 
853.000000	 1.090693 
852.000000	 1.089310 
851.000000	 1.087856 
850.000000	 1.086401 
849.000000	 1.084899 
848.000000	 1.083374 
847.000000	 1.081752 
846.000000	 1.079988 
845.000000	 1.078057 
844.000000	 1.075863 
843.000000	 1.073265 
842.000000	 1.070141 
841.000000	 1.066327 
840.000000	 1.061511 
839.000000	 1.055622 
838.000000	 1.048278 
837.000000	 1.039242 
836.000000	 1.028299 
835.000000	 1.015305 
834.000000	 1.000261 
833.000000	 0.983214 
832.000000	 0.964546 
831.000000	 0.944781 
830.000000	 0.924634 
829.000000	 0.904989 
828.000000	 0.886869 
827.000000	 0.871276 
826.000000	 0.859093 
825.000000	 0.851011 
824.000000	 0.847339 
823.000000	 0.848102 
822.000000	 0.852870 
821.000000	 0.861001 
820.000000	 0.871539 
819.000000	 0.883460 
818.000000	 0.895762 
817.000000	 0.907540 
816.000000	 0.918149 
815.000000	 0.927186 
814.000000	 0.934410 
813.000000	 0.939798 
812.000000	 0.943636 
811.000000	 0.946092 
810.000000	 0.947475 
809.000000	 0.948047 
808.000000	 0.948119 
807.000000	 0.947880 
806.000000	 0.947570 
805.000000	 0.947165 
804.000000	 0.946807 
803.000000	 0.946617 
802.000000	 0.946569 
801.000000	 0.946664 
800.000000	 0.946927 
799.000000	 0.947499 
798.000000	 0.948357 
797.000000	 0.949478 
796.000000	 0.950908 
795.000000	 0.952672 
794.000000	 0.954723 
793.000000	 0.956988 
792.000000	 0.959396 
791.000000	 0.961875 
790.000000	 0.964379 
789.000000	 0.966835 
788.000000	 0.969099 
787.000000	 0.971198 
786.000000	 0.973105 
785.000000	 0.974869 
784.000000	 0.976371 
783.000000	 0.977611 
782.000000	 0.978589 
781.000000	 0.979280 
780.000000	 0.979709 
779.000000	 0.979876 
778.000000	 0.979828 
777.000000	 0.979590 
776.000000	 0.979137 
775.000000	 0.978541 
774.000000	 0.977802 
773.000000	 0.976991 
772.000000	 0.976085 
771.000000	 0.975131 
770.000000	 0.974154 
769.000000	 0.973176 
768.000000	 0.972223 
767.000000	 0.971269 
766.000000	 0.970363 
765.000000	 0.969481 
764.000000	 0.968575 
763.000000	 0.967693 
762.000000	 0.966787 
761.000000	 0.965833 
760.000000	 0.964856 
759.000000	 0.963854 
758.000000	 0.962853 
757.000000	 0.961756 
756.000000	 0.960612 
755.000000	 0.959396 
754.000000	 0.958085 
753.000000	 0.956654 
752.000000	 0.955152 
751.000000	 0.953531 
750.000000	 0.951838 
749.000000	 0.950050 
748.000000	 0.948166 
747.000000	 0.946259 
746.000000	 0.944352 
745.000000	 0.942397 
744.000000	 0.940418 
743.000000	 0.938439 
742.000000	 0.936436 
741.000000	 0.934386 
740.000000	 0.932288 
739.000000	 0.930142 
738.000000	 0.927877 
737.000000	 0.925540 
736.000000	 0.923109 
735.000000	 0.920581 
734.000000	 0.917935 
733.000000	 0.915265 
732.000000	 0.912499 
731.000000	 0.909709 
730.000000	 0.906896 
729.000000	 0.904083 
728.000000	 0.901293 
727.000000	 0.898528 
726.000000	 0.895810 
725.000000	 0.893139 
724.000000	 0.890469 
723.000000	 0.887846 
722.000000	 0.885152 
721.000000	 0.882458 
720.000000	 0.879764 
719.000000	 0.877070 
718.000000	 0.874376 
717.000000	 0.871634 
716.000000	 0.868964 
715.000000	 0.866270 
714.000000	 0.863504 
713.000000	 0.860738 
712.000000	 0.857830 
711.000000	 0.854849 
710.000000	 0.851798 
709.000000	 0.848627 
708.000000	 0.845384 
707.000000	 0.842046 
706.000000	 0.838661 
705.000000	 0.835132 
704.000000	 0.831532 
703.000000	 0.827765 
702.000000	 0.823831 
701.000000	 0.819659 
700.000000	 0.815224 
699.000000	 0.810384 
698.000000	 0.805115 
697.000000	 0.799250 
696.000000	 0.792765 
695.000000	 0.785636 
694.000000	 0.777983 
693.000000	 0.769925 
692.000000	 0.761795 
691.000000	 0.753879 
690.000000	 0.746655 
689.000000	 0.740480 
688.000000	 0.735640 
687.000000	 0.732302 
686.000000	 0.730490 
685.000000	 0.730013 
684.000000	 0.730586 
683.000000	 0.731849 
682.000000	 0.733375 
681.000000	 0.734782 
680.000000	 0.735831 
679.000000	 0.736308 
678.000000	 0.736093 
677.000000	 0.735259 
676.000000	 0.733852 
675.000000	 0.731992 
674.000000	 0.729823 
673.000000	 0.727438 
672.000000	 0.724959 
671.000000	 0.722479 
670.000000	 0.720071 
669.000000	 0.717735 
668.000000	 0.715517 
667.000000	 0.713372 
666.000000	 0.711297 
665.000000	 0.709247 
664.000000	 0.707197 
663.000000	 0.705075 
662.000000	 0.702953 
661.000000	 0.700759 
660.000000	 0.698566 
659.000000	 0.696301 
658.000000	 0.694012 
657.000000	 0.691604 
656.000000	 0.689148 
655.000000	 0.686502 
654.000000	 0.683736 
653.000000	 0.680851 
652.000000	 0.677824 
651.000000	 0.674748 
650.000000	 0.671601 
649.000000	 0.668454 
648.000000	 0.665378 
647.000000	 0.662350 
646.000000	 0.659441 
645.000000	 0.656628 
644.000000	 0.653886 
643.000000	 0.651240 
642.000000	 0.648570 
641.000000	 0.645947 
640.000000	 0.643324 
639.000000	 0.640702 
638.000000	 0.638031 
637.000000	 0.635361 
636.000000	 0.632643 
635.000000	 0.629949 
634.000000	 0.627279 
633.000000	 0.624656 
632.000000	 0.622129 
631.000000	 0.619626 
630.000000	 0.617218 
629.000000	 0.614929 
628.000000	 0.612711 
627.000000	 0.610518 
626.000000	 0.608325 
625.000000	 0.606131 
624.000000	 0.603890 
623.000000	 0.601530 
622.000000	 0.599050 
621.000000	 0.596404 
620.000000	 0.593543 
619.000000	 0.590467 
618.000000	 0.587129 
617.000000	 0.583505 
616.000000	 0.579500 
615.000000	 0.575113 
614.000000	 0.570249 
613.000000	 0.564980 
612.000000	 0.559306 
611.000000	 0.553417 
610.000000	 0.547528 
609.000000	 0.541853 
608.000000	 0.536704 
607.000000	 0.532341 
606.000000	 0.528860 
605.000000	 0.526356 
604.000000	 0.524783 
603.000000	 0.523948 
602.000000	 0.523686 
601.000000	 0.523710 
600.000000	 0.523757 
599.000000	 0.523710 
598.000000	 0.523424 
597.000000	 0.522851 
596.000000	 0.522017 
595.000000	 0.520992 
594.000000	 0.519800 
593.000000	 0.518560 
592.000000	 0.517249 
591.000000	 0.515937 
590.000000	 0.514674 
589.000000	 0.513434 
588.000000	 0.512290 
587.000000	 0.511217 
586.000000	 0.510191 
585.000000	 0.509238 
584.000000	 0.508308 
583.000000	 0.507450 
582.000000	 0.506591 
581.000000	 0.505709 
580.000000	 0.504779 
579.000000	 0.503826 
578.000000	 0.502824 
577.000000	 0.501799 
576.000000	 0.500702 
575.000000	 0.499606 
574.000000	 0.498461 
573.000000	 0.497293 
572.000000	 0.496077 
571.000000	 0.494837 
570.000000	 0.493550 
569.000000	 0.492262 
568.000000	 0.490927 
567.000000	 0.489616 
566.000000	 0.488328 
565.000000	 0.486993 
564.000000	 0.485634 
563.000000	 0.484251 
562.000000	 0.482797 
561.000000	 0.481247 
560.000000	 0.479602 
559.000000	 0.477838 
558.000000	 0.475978 
557.000000	 0.474047 
556.000000	 0.472044 
555.000000	 0.470042 
554.000000	 0.468015 
553.000000	 0.466036 
552.000000	 0.464057 
551.000000	 0.462198 
550.000000	 0.460433 
549.000000	 0.458765 
548.000000	 0.457239 
547.000000	 0.455904 
546.000000	 0.454664 
545.000000	 0.453567 
544.000000	 0.452566 
543.000000	 0.451588 
542.000000	 0.450587 
541.000000	 0.449442 
540.000000	 0.448060 
539.000000	 0.446438 
538.000000	 0.444459 
537.000000	 0.442147 
536.000000	 0.439572 
535.000000	 0.436806 
534.000000	 0.433945 
533.000000	 0.431156 
532.000000	 0.428509 
531.000000	 0.426030 
530.000000	 0.423789 
529.000000	 0.421690 
528.000000	 0.419688 
527.000000	 0.417613 
526.000000	 0.415349 
525.000000	 0.412869 
524.000000	 0.410151 
523.000000	 0.407195 
522.000000	 0.404191 
521.000000	 0.401163 
520.000000	 0.398325 
519.000000	 0.395798 
518.000000	 0.393533 
517.000000	 0.391507 
516.000000	 0.389695 
515.000000	 0.387859 
514.000000	 0.385880 
513.000000	 0.383710 
512.000000	 0.381278 
511.000000	 0.378561 
510.000000	 0.375652 
509.000000	 0.372695 
508.000000	 0.369834 
507.000000	 0.367212 
506.000000	 0.364899 
505.000000	 0.362849 
504.000000	 0.361108 
503.000000	 0.359582 
502.000000	 0.358057 
501.000000	 0.356388 
500.000000	 0.354409 
499.000000	 0.351929 
498.000000	 0.348830 
497.000000	 0.345110 
496.000000	 0.340700 
495.000000	 0.335741 
494.000000	 0.330400 
493.000000	 0.324845 
492.000000	 0.319290 
491.000000	 0.313949 
490.000000	 0.308990 
489.000000	 0.304484 
488.000000	 0.300502 
487.000000	 0.297045 
486.000000	 0.293993 
485.000000	 0.291228 
484.000000	 0.288558 
483.000000	 0.285887 
482.000000	 0.283050 
481.000000	 0.279974 
480.000000	 0.276684 
479.000000	 0.273180 
478.000000	 0.269603 
477.000000	 0.265979 
476.000000	 0.262498 
475.000000	 0.259232 
474.000000	 0.256299 
473.000000	 0.253629 
472.000000	 0.251221 
471.000000	 0.249004 
470.000000	 0.246882 
469.000000	 0.244665 
468.000000	 0.242257 
467.000000	 0.239515 
466.000000	 0.236463 
465.000000	 0.232982 
464.000000	 0.229191 
463.000000	 0.225138 
462.000000	 0.220942 
461.000000	 0.216627 
460.000000	 0.212311 
459.000000	 0.208067 
458.000000	 0.203895 
457.000000	 0.199842 
456.000000	 0.195956 
455.000000	 0.192236 
454.000000	 0.188803 
453.000000	 0.185561 
452.000000	 0.182604 
451.000000	 0.179934 
450.000000	 0.177502 
449.000000	 0.175237 
448.000000	 0.173068 
447.000000	 0.170898 
446.000000	 0.168633 
445.000000	 0.166177 
444.000000	 0.163555 
443.000000	 0.160694 
442.000000	 0.157642 
441.000000	 0.154471 
440.000000	 0.151157 
439.000000	 0.147771 
438.000000	 0.144386 
437.000000	 0.140976 
436.000000	 0.137543 
435.000000	 0.134181 
434.000000	 0.130891 
433.000000	 0.127696 
432.000000	 0.124573 
431.000000	 0.121545 
430.000000	 0.118589 
429.000000	 0.115656 
428.000000	 0.112628 
427.000000	 0.109481 
426.000000	 0.106191 
425.000000	 0.102734 
424.000000	 0.099039 
423.000000	 0.095272 
422.000000	 0.091505 
421.000000	 0.087809 
420.000000	 0.084304 
419.000000	 0.081086 
418.000000	 0.078177 
417.000000	 0.075602 
416.000000	 0.073266 
415.000000	 0.071167 
414.000000	 0.069212 
413.000000	 0.067305 
412.000000	 0.065398 
411.000000	 0.063395 
410.000000	 0.061297 
409.000000	 0.059008 
408.000000	 0.056624 
407.000000	 0.054168 
406.000000	 0.051665 
405.000000	 0.049161 
404.000000	 0.046753 
403.000000	 0.044488 
402.000000	 0.042366 
401.000000	 0.040411 
400.000000	 0.038599 
399.000000	 0.036931 
398.000000	 0.035405 
397.000000	 0.033903 
396.000000	 0.032448 
395.000000	 0.031065 
394.000000	 0.029683 
393.000000	 0.028276 
392.000000	 0.026893 
391.000000	 0.025534 
390.000000	 0.024151 
389.000000	 0.022768 
388.000000	 0.021409 
387.000000	 0.020074 
386.000000	 0.018811 
385.000000	 0.017619 
384.000000	 0.016522 
383.000000	 0.015568 
382.000000	 0.014781 
381.000000	 0.014066 
380.000000	 0.013494 
379.000000	 0.012969 
378.000000	 0.012493 
377.000000	 0.012016 
376.000000	 0.011491 
375.000000	 0.010943 
374.000000	 0.010371 
373.000000	 0.009727 
372.000000	 0.009036 
371.000000	 0.008344 
370.000000	 0.007677 

