PE IR       SPECTRUM    SPECTRUM    ASCII       PEDS        1.60        
  -1
BZ1503~1.ASC
17/04/07
13:14:34.00
17/04/07
13:14:34.00
tln
$BZ1503107-1_e0122$<ebV0>[-23.3,12.1,10.0,0.0,27,1,0]
370.000000
64









2002,4.07    
MIRTGS : RIGHTBACK : INTERNAL 2
MIR : ON : INTERNAL 2
OPTKBR

0.200000
8
8.000000
FILLER
SINGLE
SPECTRUM
UNLOCKED 256

DOUBLE

COMBINED
1
0
0


1.000000
BACKG


1
0
TRUE
51149
0
LEFT NOT FITTED RIGHT NOT FITTED 0
NONE
NONE
15600
12.000000
4.427000
51148
TRUE
1 0 8 72 0 0 0 0 

15798.010000






#HDR
-1
-1
#GR
CM-1
EGY
0.00002384185791015625
0.0
5000.000000
-1.000000
4631
8
2.461695
0.006914
#DATA
5000.000000	0.774073 
4999.000000	0.774788 
4998.000000	0.775551 
4997.000000	0.776338 
4996.000000	0.777101 
4995.000000	0.777864 
4994.000000	0.778532 
4993.000000	0.779128 
4992.000000	0.779628 
4991.000000	0.780034 
4990.000000	0.780391 
4989.000000	0.780677 
4988.000000	0.780963 
4987.000000	0.781321 
4986.000000	0.781750 
4985.000000	0.782322 
4984.000000	0.783085 
4983.000000	0.784039 
4982.000000	0.785112 
4981.000000	0.786232 
4980.000000	0.787353 
4979.000000	0.788426 
4978.000000	0.789332 
4977.000000	0.790023 
4976.000000	0.790429 
4975.000000	0.790572 
4974.000000	0.790619 
4973.000000	0.790548 
4972.000000	0.790476 
4971.000000	0.790405 
4970.000000	0.790452 
4969.000000	0.790572 
4968.000000	0.790739 
4967.000000	0.790905 
4966.000000	0.791025 
4965.000000	0.791096 
4964.000000	0.791120 
4963.000000	0.791096 
4962.000000	0.791072 
4961.000000	0.791096 
4960.000000	0.791215 
4959.000000	0.791478 
4958.000000	0.791883 
4957.000000	0.792431 
4956.000000	0.793075 
4955.000000	0.793838 
4954.000000	0.794625 
4953.000000	0.795364 
4952.000000	0.796055 
4951.000000	0.796604 
4950.000000	0.796985 
4949.000000	0.797200 
4948.000000	0.797271 
4947.000000	0.797152 
4946.000000	0.797009 
4945.000000	0.796794 
4944.000000	0.796580 
4943.000000	0.796484 
4942.000000	0.796461 
4941.000000	0.796580 
4940.000000	0.796771 
4939.000000	0.797080 
4938.000000	0.797486 
4937.000000	0.797986 
4936.000000	0.798535 
4935.000000	0.799179 
4934.000000	0.799846 
4933.000000	0.800561 
4932.000000	0.801253 
4931.000000	0.801873 
4930.000000	0.802445 
4929.000000	0.802946 
4928.000000	0.803327 
4927.000000	0.803685 
4926.000000	0.804042 
4925.000000	0.804424 
4924.000000	0.804901 
4923.000000	0.805497 
4922.000000	0.806236 
4921.000000	0.807118 
4920.000000	0.808048 
4919.000000	0.809025 
4918.000000	0.810003 
4917.000000	0.810885 
4916.000000	0.811624 
4915.000000	0.812149 
4914.000000	0.812458 
4913.000000	0.812506 
4912.000000	0.812411 
4911.000000	0.812172 
4910.000000	0.811862 
4909.000000	0.811648 
4908.000000	0.811529 
4907.000000	0.811624 
4906.000000	0.811934 
4905.000000	0.812411 
4904.000000	0.813031 
4903.000000	0.813722 
4902.000000	0.814414 
4901.000000	0.815010 
4900.000000	0.815463 
4899.000000	0.815725 
4898.000000	0.815844 
4897.000000	0.815796 
4896.000000	0.815701 
4895.000000	0.815606 
4894.000000	0.815534 
4893.000000	0.815629 
4892.000000	0.815844 
4891.000000	0.816202 
4890.000000	0.816679 
4889.000000	0.817227 
4888.000000	0.817847 
4887.000000	0.818467 
4886.000000	0.819087 
4885.000000	0.819754 
4884.000000	0.820398 
4883.000000	0.821161 
4882.000000	0.821995 
4881.000000	0.822854 
4880.000000	0.823855 
4879.000000	0.824952 
4878.000000	0.826096 
4877.000000	0.827264 
4876.000000	0.828456 
4875.000000	0.829553 
4874.000000	0.830531 
4873.000000	0.831389 
4872.000000	0.831985 
4871.000000	0.832390 
4870.000000	0.832486 
4869.000000	0.832295 
4868.000000	0.831913 
4867.000000	0.831341 
4866.000000	0.830721 
4865.000000	0.830078 
4864.000000	0.829529 
4863.000000	0.829195 
4862.000000	0.829148 
4861.000000	0.829410 
4860.000000	0.829935 
4859.000000	0.830793 
4858.000000	0.831866 
4857.000000	0.833106 
4856.000000	0.834417 
4855.000000	0.835728 
4854.000000	0.836920 
4853.000000	0.837898 
4852.000000	0.838565 
4851.000000	0.838923 
4850.000000	0.838947 
4849.000000	0.838708 
4848.000000	0.838279 
4847.000000	0.837826 
4846.000000	0.837469 
4845.000000	0.837326 
4844.000000	0.837516 
4843.000000	0.838041 
4842.000000	0.838899 
4841.000000	0.839996 
4840.000000	0.841307 
4839.000000	0.842714 
4838.000000	0.844144 
4837.000000	0.845646 
4836.000000	0.847101 
4835.000000	0.848603 
4834.000000	0.850105 
4833.000000	0.851464 
4832.000000	0.852727 
4831.000000	0.853776 
4830.000000	0.854563 
4829.000000	0.855016 
4828.000000	0.855278 
4827.000000	0.855422 
4826.000000	0.855612 
4825.000000	0.856041 
4824.000000	0.856757 
4823.000000	0.857806 
4822.000000	0.859022 
4821.000000	0.860261 
4820.000000	0.861263 
4819.000000	0.861883 
4818.000000	0.861954 
4817.000000	0.861620 
4816.000000	0.861024 
4815.000000	0.860452 
4814.000000	0.860238 
4813.000000	0.860595 
4812.000000	0.861597 
4811.000000	0.863146 
4810.000000	0.864982 
4809.000000	0.866723 
4808.000000	0.867962 
4807.000000	0.868391 
4806.000000	0.867891 
4805.000000	0.866532 
4804.000000	0.864577 
4803.000000	0.862383 
4802.000000	0.860452 
4801.000000	0.859117 
4800.000000	0.858664 
4799.000000	0.859165 
4798.000000	0.860524 
4797.000000	0.862455 
4796.000000	0.864720 
4795.000000	0.866937 
4794.000000	0.868868 
4793.000000	0.870394 
4792.000000	0.871491 
4791.000000	0.872159 
4790.000000	0.872588 
4789.000000	0.872921 
4788.000000	0.873351 
4787.000000	0.874090 
4786.000000	0.875210 
4785.000000	0.876688 
4784.000000	0.878572 
4783.000000	0.880694 
4782.000000	0.882911 
4781.000000	0.884985 
4780.000000	0.886726 
4779.000000	0.888037 
4778.000000	0.888848 
4777.000000	0.889182 
4776.000000	0.889205 
4775.000000	0.889134 
4774.000000	0.889253 
4773.000000	0.889825 
4772.000000	0.890994 
4771.000000	0.892758 
4770.000000	0.894999 
4769.000000	0.897431 
4768.000000	0.899672 
4767.000000	0.901341 
4766.000000	0.902128 
4765.000000	0.901865 
4764.000000	0.900554 
4763.000000	0.898456 
4762.000000	0.895905 
4761.000000	0.893378 
4760.000000	0.891232 
4759.000000	0.889873 
4758.000000	0.889539 
4757.000000	0.890231 
4756.000000	0.891757 
4755.000000	0.893878 
4754.000000	0.896286 
4753.000000	0.898647 
4752.000000	0.900721 
4751.000000	0.902366 
4750.000000	0.903487 
4749.000000	0.904130 
4748.000000	0.904464 
4747.000000	0.904560 
4746.000000	0.904536 
4745.000000	0.904536 
4744.000000	0.904679 
4743.000000	0.904941 
4742.000000	0.905418 
4741.000000	0.906085 
4740.000000	0.906920 
4739.000000	0.907826 
4738.000000	0.908756 
4737.000000	0.909566 
4736.000000	0.910162 
4735.000000	0.910520 
4734.000000	0.910592 
4733.000000	0.910449 
4732.000000	0.910210 
4731.000000	0.909948 
4730.000000	0.909805 
4729.000000	0.909924 
4728.000000	0.910305 
4727.000000	0.911021 
4726.000000	0.912094 
4725.000000	0.913381 
4724.000000	0.914859 
4723.000000	0.916337 
4722.000000	0.917720 
4721.000000	0.918769 
4720.000000	0.919485 
4719.000000	0.919747 
4718.000000	0.919508 
4717.000000	0.918841 
4716.000000	0.917887 
4715.000000	0.916862 
4714.000000	0.915932 
4713.000000	0.915288 
4712.000000	0.915074 
4711.000000	0.915312 
4710.000000	0.915908 
4709.000000	0.916767 
4708.000000	0.917625 
4707.000000	0.918316 
4706.000000	0.918698 
4705.000000	0.918674 
4704.000000	0.918412 
4703.000000	0.917887 
4702.000000	0.917291 
4701.000000	0.916790 
4700.000000	0.916457 
4699.000000	0.916385 
4698.000000	0.916528 
4697.000000	0.916790 
4696.000000	0.917124 
4695.000000	0.917315 
4694.000000	0.917339 
4693.000000	0.917148 
4692.000000	0.916719 
4691.000000	0.916099 
4690.000000	0.915408 
4689.000000	0.914788 
4688.000000	0.914263 
4687.000000	0.913929 
4686.000000	0.913786 
4685.000000	0.913834 
4684.000000	0.914001 
4683.000000	0.914263 
4682.000000	0.914525 
4681.000000	0.914740 
4680.000000	0.914883 
4679.000000	0.914978 
4678.000000	0.915050 
4677.000000	0.915098 
4676.000000	0.915193 
4675.000000	0.915360 
4674.000000	0.915598 
4673.000000	0.915908 
4672.000000	0.916314 
4671.000000	0.916695 
4670.000000	0.917124 
4669.000000	0.917482 
4668.000000	0.917840 
4667.000000	0.918078 
4666.000000	0.918245 
4665.000000	0.918340 
4664.000000	0.918340 
4663.000000	0.918292 
4662.000000	0.918197 
4661.000000	0.918126 
4660.000000	0.918102 
4659.000000	0.918245 
4658.000000	0.918507 
4657.000000	0.918936 
4656.000000	0.919508 
4655.000000	0.920200 
4654.000000	0.920844 
4653.000000	0.921440 
4652.000000	0.921869 
4651.000000	0.922107 
4650.000000	0.922131 
4649.000000	0.921988 
4648.000000	0.921702 
4647.000000	0.921368 
4646.000000	0.921154 
4645.000000	0.921082 
4644.000000	0.921201 
4643.000000	0.921583 
4642.000000	0.922226 
4641.000000	0.923061 
4640.000000	0.924015 
4639.000000	0.925064 
4638.000000	0.926065 
4637.000000	0.927019 
4636.000000	0.927853 
4635.000000	0.928592 
4634.000000	0.929284 
4633.000000	0.929880 
4632.000000	0.930452 
4631.000000	0.931024 
4630.000000	0.931596 
4629.000000	0.932192 
4628.000000	0.932812 
4627.000000	0.933432 
4626.000000	0.934052 
4625.000000	0.934696 
4624.000000	0.935339 
4623.000000	0.936031 
4622.000000	0.936698 
4621.000000	0.937390 
4620.000000	0.938034 
4619.000000	0.938606 
4618.000000	0.939035 
4617.000000	0.939369 
4616.000000	0.939559 
4615.000000	0.939631 
4614.000000	0.939679 
4613.000000	0.939726 
4612.000000	0.939869 
4611.000000	0.940132 
4610.000000	0.940465 
4609.000000	0.940918 
4608.000000	0.941419 
4607.000000	0.941920 
4606.000000	0.942349 
4605.000000	0.942707 
4604.000000	0.942993 
4603.000000	0.943279 
4602.000000	0.943565 
4601.000000	0.944018 
4600.000000	0.944590 
4599.000000	0.945305 
4598.000000	0.946211 
4597.000000	0.947189 
4596.000000	0.948166 
4595.000000	0.949096 
4594.000000	0.949907 
4593.000000	0.950527 
4592.000000	0.951027 
4591.000000	0.951385 
4590.000000	0.951647 
4589.000000	0.951862 
4588.000000	0.952148 
4587.000000	0.952506 
4586.000000	0.953078 
4585.000000	0.953769 
4584.000000	0.954675 
4583.000000	0.955653 
4582.000000	0.956702 
4581.000000	0.957798 
4580.000000	0.958800 
4579.000000	0.959682 
4578.000000	0.960469 
4577.000000	0.961160 
4576.000000	0.961852 
4575.000000	0.962543 
4574.000000	0.963330 
4573.000000	0.964283 
4572.000000	0.965356 
4571.000000	0.966572 
4570.000000	0.967860 
4569.000000	0.969147 
4568.000000	0.970435 
4567.000000	0.971651 
4566.000000	0.972771 
4565.000000	0.973796 
4564.000000	0.974726 
4563.000000	0.975656 
4562.000000	0.976490 
4561.000000	0.977277 
4560.000000	0.978064 
4559.000000	0.978827 
4558.000000	0.979661 
4557.000000	0.980496 
4556.000000	0.981402 
4555.000000	0.982356 
4554.000000	0.983333 
4553.000000	0.984263 
4552.000000	0.985169 
4551.000000	0.985980 
4550.000000	0.986671 
4549.000000	0.987172 
4548.000000	0.987505 
4547.000000	0.987720 
4546.000000	0.987839 
4545.000000	0.987935 
4544.000000	0.988006 
4543.000000	0.988149 
4542.000000	0.988364 
4541.000000	0.988602 
4540.000000	0.988841 
4539.000000	0.989151 
4538.000000	0.989484 
4537.000000	0.989913 
4536.000000	0.990390 
4535.000000	0.991010 
4534.000000	0.991797 
4533.000000	0.992679 
4532.000000	0.993633 
4531.000000	0.994586 
4530.000000	0.995588 
4529.000000	0.996541 
4528.000000	0.997471 
4527.000000	0.998377 
4526.000000	0.999331 
4525.000000	1.000332 
4524.000000	1.001381 
4523.000000	1.002430 
4522.000000	1.003432 
4521.000000	1.004242 
4520.000000	1.004838 
4519.000000	1.005244 
4518.000000	1.005411 
4517.000000	1.005387 
4516.000000	1.005125 
4515.000000	1.004743 
4514.000000	1.004219 
4513.000000	1.003551 
4512.000000	1.002788 
4511.000000	1.002073 
4510.000000	1.001405 
4509.000000	1.000857 
4508.000000	1.000428 
4507.000000	1.000070 
4506.000000	0.999736 
4505.000000	0.999402 
4504.000000	0.999021 
4503.000000	0.998616 
4502.000000	0.998187 
4501.000000	0.997710 
4500.000000	0.996994 
4499.000000	0.995850 
4498.000000	0.994038 
4497.000000	0.991344 
4496.000000	0.987601 
4495.000000	0.982928 
4494.000000	0.977730 
4493.000000	0.972509 
4492.000000	0.967836 
4491.000000	0.964236 
4490.000000	0.961852 
4489.000000	0.960588 
4488.000000	0.959920 
4487.000000	0.959134 
4486.000000	0.957489 
4485.000000	0.954651 
4484.000000	0.950670 
4483.000000	0.946116 
4482.000000	0.941920 
4481.000000	0.939273 
4480.000000	0.939059 
4479.000000	0.941920 
4478.000000	0.947880 
4477.000000	0.956439 
4476.000000	0.966644 
4475.000000	0.977349 
4474.000000	0.987505 
4473.000000	0.996375 
4472.000000	1.003623 
4471.000000	1.009249 
4470.000000	1.013684 
4469.000000	1.017379 
4468.000000	1.020765 
4467.000000	1.024103 
4466.000000	1.027393 
4465.000000	1.030492 
4464.000000	1.033210 
4463.000000	1.035261 
4462.000000	1.036500 
4461.000000	1.037025 
4460.000000	1.036953 
4459.000000	1.036453 
4458.000000	1.035809 
4457.000000	1.035070 
4456.000000	1.034283 
4455.000000	1.033401 
4454.000000	1.032280 
4453.000000	1.030898 
4452.000000	1.029157 
4451.000000	1.027274 
4450.000000	1.025366 
4449.000000	1.023721 
4448.000000	1.022624 
4447.000000	1.022195 
4446.000000	1.022434 
4445.000000	1.023149 
4444.000000	1.024174 
4443.000000	1.025271 
4442.000000	1.026248 
4441.000000	1.026916 
4440.000000	1.027274 
4439.000000	1.027393 
4438.000000	1.027345 
4437.000000	1.027178 
4436.000000	1.027011 
4435.000000	1.026892 
4434.000000	1.026797 
4433.000000	1.026725 
4432.000000	1.026749 
4431.000000	1.026821 
4430.000000	1.026964 
4429.000000	1.027178 
4428.000000	1.027464 
4427.000000	1.027774 
4426.000000	1.028108 
4425.000000	1.028394 
4424.000000	1.028585 
4423.000000	1.028656 
4422.000000	1.028609 
4421.000000	1.028466 
4420.000000	1.028275 
4419.000000	1.028108 
4418.000000	1.027965 
4417.000000	1.027917 
4416.000000	1.028037 
4415.000000	1.028227 
4414.000000	1.028537 
4413.000000	1.028943 
4412.000000	1.029443 
4411.000000	1.029968 
4410.000000	1.030540 
4409.000000	1.031112 
4408.000000	1.031708 
4407.000000	1.032400 
4406.000000	1.033139 
4405.000000	1.033949 
4404.000000	1.034855 
4403.000000	1.035761 
4402.000000	1.036667 
4401.000000	1.037526 
4400.000000	1.038241 
4399.000000	1.038694 
4398.000000	1.038908 
4397.000000	1.038908 
4396.000000	1.038694 
4395.000000	1.038360 
4394.000000	1.037979 
4393.000000	1.037693 
4392.000000	1.037502 
4391.000000	1.037526 
4390.000000	1.037740 
4389.000000	1.038122 
4388.000000	1.038646 
4387.000000	1.039266 
4386.000000	1.039958 
4385.000000	1.040625 
4384.000000	1.041269 
4383.000000	1.041913 
4382.000000	1.042556 
4381.000000	1.043224 
4380.000000	1.043963 
4379.000000	1.044797 
4378.000000	1.045751 
4377.000000	1.046752 
4376.000000	1.047825 
4375.000000	1.048827 
4374.000000	1.049709 
4373.000000	1.050448 
4372.000000	1.050901 
4371.000000	1.051163 
4370.000000	1.051259 
4369.000000	1.051282 
4368.000000	1.051330 
4367.000000	1.051473 
4366.000000	1.051807 
4365.000000	1.052379 
4364.000000	1.053142 
4363.000000	1.054072 
4362.000000	1.055145 
4361.000000	1.056218 
4360.000000	1.057267 
4359.000000	1.058244 
4358.000000	1.059150 
4357.000000	1.060009 
4356.000000	1.060819 
4355.000000	1.061654 
4354.000000	1.062512 
4353.000000	1.063418 
4352.000000	1.064395 
4351.000000	1.065349 
4350.000000	1.066327 
4349.000000	1.067185 
4348.000000	1.067972 
4347.000000	1.068711 
4346.000000	1.069378 
4345.000000	1.070022 
4344.000000	1.070761 
4343.000000	1.071596 
4342.000000	1.072621 
4341.000000	1.073813 
4340.000000	1.075220 
4339.000000	1.076722 
4338.000000	1.078295 
4337.000000	1.079869 
4336.000000	1.081395 
4335.000000	1.082849 
4334.000000	1.084160 
4333.000000	1.085352 
4332.000000	1.086473 
4331.000000	1.087546 
4330.000000	1.088595 
4329.000000	1.089620 
4328.000000	1.090764 
4327.000000	1.091957 
4326.000000	1.093316 
4325.000000	1.094865 
4324.000000	1.096534 
4323.000000	1.098322 
4322.000000	1.100134 
4321.000000	1.101875 
4320.000000	1.103448 
4319.000000	1.104760 
4318.000000	1.105713 
4317.000000	1.106381 
4316.000000	1.106786 
4315.000000	1.107025 
4314.000000	1.107263 
4313.000000	1.107525 
4312.000000	1.107907 
4311.000000	1.108503 
4310.000000	1.109242 
4309.000000	1.110148 
4308.000000	1.111125 
4307.000000	1.112151 
4306.000000	1.113247 
4305.000000	1.114368 
4304.000000	1.115608 
4303.000000	1.116967 
4302.000000	1.118516 
4301.000000	1.120185 
4300.000000	1.122021 
4299.000000	1.123929 
4298.000000	1.125812 
4297.000000	1.127648 
4296.000000	1.129364 
4295.000000	1.130914 
4294.000000	1.132249 
4293.000000	1.133370 
4292.000000	1.134324 
4291.000000	1.135158 
4290.000000	1.135849 
4289.000000	1.136565 
4288.000000	1.137304 
4287.000000	1.138114 
4286.000000	1.139044 
4285.000000	1.140093 
4284.000000	1.141238 
4283.000000	1.142501 
4282.000000	1.143765 
4281.000000	1.145005 
4280.000000	1.146197 
4279.000000	1.147294 
4278.000000	1.148343 
4277.000000	1.149249 
4276.000000	1.150107 
4275.000000	1.150941 
4274.000000	1.151776 
4273.000000	1.152634 
4272.000000	1.153540 
4271.000000	1.154518 
4270.000000	1.155567 
4269.000000	1.156640 
4268.000000	1.157784 
4267.000000	1.158952 
4266.000000	1.160192 
4265.000000	1.161456 
4264.000000	1.162791 
4263.000000	1.164126 
4262.000000	1.165509 
4261.000000	1.166868 
4260.000000	1.168179 
4259.000000	1.169371 
4258.000000	1.170420 
4257.000000	1.171255 
4256.000000	1.171898 
4255.000000	1.172327 
4254.000000	1.172590 
4253.000000	1.172757 
4252.000000	1.172900 
4251.000000	1.173067 
4250.000000	1.173377 
4249.000000	1.173806 
4248.000000	1.174402 
4247.000000	1.175165 
4246.000000	1.175999 
4245.000000	1.176857 
4244.000000	1.177668 
4243.000000	1.178383 
4242.000000	1.178979 
4241.000000	1.179409 
4240.000000	1.179718 
4239.000000	1.180005 
4238.000000	1.180243 
4237.000000	1.180529 
4236.000000	1.180863 
4235.000000	1.181292 
4234.000000	1.181817 
4233.000000	1.182389 
4232.000000	1.183056 
4231.000000	1.183772 
4230.000000	1.184558 
4229.000000	1.185393 
4228.000000	1.186275 
4227.000000	1.187181 
4226.000000	1.188063 
4225.000000	1.188921 
4224.000000	1.189732 
4223.000000	1.190447 
4222.000000	1.191020 
4221.000000	1.191496 
4220.000000	1.191926 
4219.000000	1.192331 
4218.000000	1.192736 
4217.000000	1.193237 
4216.000000	1.193761 
4215.000000	1.194357 
4214.000000	1.195001 
4213.000000	1.195621 
4212.000000	1.196193 
4211.000000	1.196694 
4210.000000	1.197123 
4209.000000	1.197504 
4208.000000	1.197814 
4207.000000	1.198053 
4206.000000	1.198220 
4205.000000	1.198387 
4204.000000	1.198530 
4203.000000	1.198673 
4202.000000	1.198887 
4201.000000	1.199269 
4200.000000	1.199817 
4199.000000	1.200580 
4198.000000	1.201581 
4197.000000	1.202702 
4196.000000	1.203942 
4195.000000	1.205182 
4194.000000	1.206278 
4193.000000	1.207160 
4192.000000	1.207804 
4191.000000	1.208209 
4190.000000	1.208329 
4189.000000	1.208376 
4188.000000	1.208329 
4187.000000	1.208353 
4186.000000	1.208472 
4185.000000	1.208758 
4184.000000	1.209139 
4183.000000	1.209640 
4182.000000	1.210165 
4181.000000	1.210737 
4180.000000	1.211166 
4179.000000	1.211547 
4178.000000	1.211810 
4177.000000	1.212024 
4176.000000	1.212143 
4175.000000	1.212310 
4174.000000	1.212501 
4173.000000	1.212859 
4172.000000	1.213359 
4171.000000	1.214075 
4170.000000	1.214909 
4169.000000	1.215863 
4168.000000	1.216816 
4167.000000	1.217770 
4166.000000	1.218581 
4165.000000	1.219177 
4164.000000	1.219606 
4163.000000	1.219916 
4162.000000	1.220083 
4161.000000	1.220250 
4160.000000	1.220417 
4159.000000	1.220655 
4158.000000	1.221060 
4157.000000	1.221656 
4156.000000	1.222372 
4155.000000	1.223254 
4154.000000	1.224279 
4153.000000	1.225423 
4152.000000	1.226663 
4151.000000	1.227951 
4150.000000	1.229238 
4149.000000	1.230430 
4148.000000	1.231503 
4147.000000	1.232385 
4146.000000	1.233029 
4145.000000	1.233410 
4144.000000	1.233601 
4143.000000	1.233649 
4142.000000	1.233696 
4141.000000	1.233744 
4140.000000	1.233959 
4139.000000	1.234316 
4138.000000	1.234889 
4137.000000	1.235628 
4136.000000	1.236486 
4135.000000	1.237368 
4134.000000	1.238274 
4133.000000	1.239132 
4132.000000	1.239919 
4131.000000	1.240706 
4130.000000	1.241469 
4129.000000	1.242208 
4128.000000	1.242971 
4127.000000	1.243782 
4126.000000	1.244640 
4125.000000	1.245546 
4124.000000	1.246452 
4123.000000	1.247406 
4122.000000	1.248407 
4121.000000	1.249408 
4120.000000	1.250362 
4119.000000	1.251268 
4118.000000	1.252079 
4117.000000	1.252746 
4116.000000	1.253294 
4115.000000	1.253700 
4114.000000	1.254034 
4113.000000	1.254367 
4112.000000	1.254701 
4111.000000	1.255130 
4110.000000	1.255726 
4109.000000	1.256513 
4108.000000	1.257586 
4107.000000	1.258778 
4106.000000	1.260066 
4105.000000	1.261425 
4104.000000	1.262807 
4103.000000	1.264166 
4102.000000	1.265525 
4101.000000	1.266884 
4100.000000	1.268267 
4099.000000	1.269721 
4098.000000	1.271176 
4097.000000	1.272678 
4096.000000	1.274180 
4095.000000	1.275587 
4094.000000	1.276946 
4093.000000	1.278162 
4092.000000	1.279258 
4091.000000	1.280307 
4090.000000	1.281356 
4089.000000	1.282429 
4088.000000	1.283621 
4087.000000	1.284933 
4086.000000	1.286363 
4085.000000	1.287913 
4084.000000	1.289510 
4083.000000	1.291155 
4082.000000	1.292777 
4081.000000	1.294422 
4080.000000	1.296019 
4079.000000	1.297593 
4078.000000	1.299118 
4077.000000	1.300644 
4076.000000	1.302194 
4075.000000	1.303720 
4074.000000	1.305246 
4073.000000	1.306843 
4072.000000	1.308441 
4071.000000	1.310062 
4070.000000	1.311659 
4069.000000	1.313161 
4068.000000	1.314616 
4067.000000	1.315927 
4066.000000	1.317143 
4065.000000	1.318216 
4064.000000	1.319217 
4063.000000	1.320195 
4062.000000	1.321148 
4061.000000	1.322102 
4060.000000	1.323175 
4059.000000	1.324319 
4058.000000	1.325559 
4057.000000	1.326870 
4056.000000	1.328229 
4055.000000	1.329660 
4054.000000	1.331114 
4053.000000	1.332616 
4052.000000	1.334214 
4051.000000	1.335835 
4050.000000	1.337552 
4049.000000	1.339316 
4048.000000	1.341080 
4047.000000	1.342892 
4046.000000	1.344656 
4045.000000	1.346349 
4044.000000	1.347970 
4043.000000	1.349472 
4042.000000	1.350808 
4041.000000	1.351976 
4040.000000	1.353025 
4039.000000	1.353955 
4038.000000	1.354789 
4037.000000	1.355600 
4036.000000	1.356387 
4035.000000	1.357221 
4034.000000	1.358103 
4033.000000	1.359105 
4032.000000	1.360201 
4031.000000	1.361465 
4030.000000	1.362800 
4029.000000	1.364278 
4028.000000	1.365828 
4027.000000	1.367378 
4026.000000	1.368975 
4025.000000	1.370573 
4024.000000	1.372075 
4023.000000	1.373505 
4022.000000	1.374864 
4021.000000	1.376128 
4020.000000	1.377320 
4019.000000	1.378488 
4018.000000	1.379680 
4017.000000	1.380848 
4016.000000	1.382040 
4015.000000	1.383256 
4014.000000	1.384496 
4013.000000	1.385664 
4012.000000	1.386785 
4011.000000	1.387834 
4010.000000	1.388812 
4009.000000	1.389765 
4008.000000	1.390647 
4007.000000	1.391506 
4006.000000	1.392364 
4005.000000	1.393246 
4004.000000	1.394081 
4003.000000	1.394939 
4002.000000	1.395773 
4001.000000	1.396608 
4000.000000	1.397395 
3999.000000	1.398205 
3998.000000	1.399040 
3997.000000	1.399874 
3996.000000	1.400732 
3995.000000	1.401686 
3994.000000	1.402664 
3993.000000	1.403641 
3992.000000	1.404595 
3991.000000	1.405572 
3990.000000	1.406455 
3989.000000	1.407265 
3988.000000	1.407980 
3987.000000	1.408600 
3986.000000	1.409077 
3985.000000	1.409482 
3984.000000	1.409816 
3983.000000	1.410126 
3982.000000	1.410412 
3981.000000	1.410746 
3980.000000	1.411104 
3979.000000	1.411461 
3978.000000	1.411819 
3977.000000	1.412105 
3976.000000	1.412296 
3975.000000	1.412391 
3974.000000	1.412367 
3973.000000	1.412224 
3972.000000	1.412081 
3971.000000	1.411986 
3970.000000	1.412010 
3969.000000	1.412224 
3968.000000	1.412653 
3967.000000	1.413297 
3966.000000	1.414179 
3965.000000	1.415181 
3964.000000	1.416277 
3963.000000	1.417422 
3962.000000	1.418542 
3961.000000	1.419591 
3960.000000	1.420521 
3959.000000	1.421356 
3958.000000	1.421999 
3957.000000	1.422452 
3956.000000	1.422739 
3955.000000	1.422882 
3954.000000	1.422834 
3953.000000	1.422691 
3952.000000	1.422429 
3951.000000	1.422166 
3950.000000	1.421880 
3949.000000	1.421594 
3948.000000	1.421356 
3947.000000	1.421189 
3946.000000	1.421093 
3945.000000	1.421070 
3944.000000	1.421141 
3943.000000	1.421308 
3942.000000	1.421666 
3941.000000	1.422142 
3940.000000	1.422810 
3939.000000	1.423573 
3938.000000	1.424455 
3937.000000	1.425409 
3936.000000	1.426339 
3935.000000	1.427221 
3934.000000	1.428055 
3933.000000	1.428771 
3932.000000	1.429367 
3931.000000	1.429867 
3930.000000	1.430320 
3929.000000	1.430749 
3928.000000	1.431179 
3927.000000	1.431608 
3926.000000	1.432013 
3925.000000	1.432394 
3924.000000	1.432752 
3923.000000	1.432943 
3922.000000	1.433062 
3921.000000	1.433134 
3920.000000	1.433110 
3919.000000	1.433062 
3918.000000	1.433062 
3917.000000	1.433181 
3916.000000	1.433420 
3915.000000	1.433801 
3914.000000	1.434254 
3913.000000	1.434731 
3912.000000	1.435112 
3911.000000	1.435351 
3910.000000	1.435375 
3909.000000	1.435112 
3908.000000	1.434659 
3907.000000	1.434087 
3906.000000	1.433467 
3905.000000	1.432871 
3904.000000	1.432490 
3903.000000	1.432347 
3902.000000	1.432514 
3901.000000	1.432919 
3900.000000	1.433539 
3899.000000	1.434397 
3898.000000	1.435279 
3897.000000	1.436161 
3896.000000	1.436996 
3895.000000	1.437759 
3894.000000	1.438403 
3893.000000	1.438927 
3892.000000	1.439332 
3891.000000	1.439619 
3890.000000	1.439857 
3889.000000	1.440024 
3888.000000	1.440215 
3887.000000	1.440429 
3886.000000	1.440787 
3885.000000	1.441311 
3884.000000	1.442050 
3883.000000	1.443028 
3882.000000	1.444149 
3881.000000	1.445364 
3880.000000	1.446580 
3879.000000	1.447677 
3878.000000	1.448559 
3877.000000	1.449203 
3876.000000	1.449584 
3875.000000	1.449728 
3874.000000	1.449704 
3873.000000	1.449632 
3872.000000	1.449584 
3871.000000	1.449680 
3870.000000	1.449966 
3869.000000	1.450467 
3868.000000	1.451230 
3867.000000	1.452231 
3866.000000	1.453495 
3865.000000	1.454854 
3864.000000	1.456212 
3863.000000	1.457309 
3862.000000	1.457953 
3861.000000	1.457953 
3860.000000	1.457214 
3859.000000	1.455736 
3858.000000	1.453757 
3857.000000	1.451516 
3856.000000	1.449537 
3855.000000	1.448273 
3854.000000	1.447987 
3853.000000	1.449012 
3852.000000	1.451253 
3851.000000	1.454544 
3850.000000	1.458430 
3849.000000	1.462483 
3848.000000	1.466202 
3847.000000	1.469302 
3846.000000	1.471495 
3845.000000	1.472783 
3844.000000	1.473283 
3843.000000	1.473212 
3842.000000	1.472783 
3841.000000	1.472353 
3840.000000	1.472139 
3839.000000	1.472306 
3838.000000	1.472949 
3837.000000	1.474094 
3836.000000	1.475667 
3835.000000	1.477646 
3834.000000	1.479911 
3833.000000	1.482319 
3832.000000	1.484727 
3831.000000	1.487016 
3830.000000	1.489090 
3829.000000	1.490831 
3828.000000	1.492261 
3827.000000	1.493334 
3826.000000	1.494002 
3825.000000	1.494407 
3824.000000	1.494574 
3823.000000	1.494598 
3822.000000	1.494646 
3821.000000	1.494789 
3820.000000	1.495170 
3819.000000	1.495909 
3818.000000	1.497101 
3817.000000	1.498723 
3816.000000	1.500725 
3815.000000	1.503014 
3814.000000	1.505374 
3813.000000	1.507687 
3812.000000	1.509714 
3811.000000	1.511359 
3810.000000	1.512551 
3809.000000	1.513242 
3808.000000	1.513504 
3807.000000	1.513504 
3806.000000	1.513409 
3805.000000	1.513361 
3804.000000	1.513624 
3803.000000	1.514339 
3802.000000	1.515603 
3801.000000	1.517462 
3800.000000	1.519870 
3799.000000	1.522660 
3798.000000	1.525759 
3797.000000	1.528954 
3796.000000	1.532030 
3795.000000	1.534891 
3794.000000	1.537394 
3793.000000	1.539516 
3792.000000	1.541280 
3791.000000	1.542663 
3790.000000	1.543855 
3789.000000	1.544833 
3788.000000	1.545643 
3787.000000	1.546406 
3786.000000	1.547122 
3785.000000	1.547837 
3784.000000	1.548600 
3783.000000	1.549410 
3782.000000	1.550292 
3781.000000	1.551222 
3780.000000	1.552248 
3779.000000	1.553249 
3778.000000	1.554250 
3777.000000	1.555180 
3776.000000	1.555967 
3775.000000	1.556563 
3774.000000	1.556992 
3773.000000	1.557278 
3772.000000	1.557421 
3771.000000	1.557540 
3770.000000	1.557660 
3769.000000	1.557850 
3768.000000	1.558136 
3767.000000	1.558566 
3766.000000	1.559162 
3765.000000	1.559877 
3764.000000	1.560616 
3763.000000	1.561355 
3762.000000	1.561951 
3761.000000	1.562285 
3760.000000	1.562213 
3759.000000	1.561665 
3758.000000	1.560544 
3757.000000	1.558899 
3756.000000	1.556777 
3755.000000	1.554369 
3754.000000	1.551818 
3753.000000	1.549291 
3752.000000	1.547026 
3751.000000	1.545143 
3750.000000	1.543784 
3749.000000	1.543068 
3748.000000	1.543021 
3747.000000	1.543641 
3746.000000	1.544880 
3745.000000	1.546669 
3744.000000	1.548886 
3743.000000	1.551294 
3742.000000	1.553678 
3741.000000	1.555919 
3740.000000	1.557826 
3739.000000	1.559424 
3738.000000	1.560711 
3737.000000	1.561784 
3736.000000	1.562833 
3735.000000	1.564073 
3734.000000	1.565575 
3733.000000	1.567363 
3732.000000	1.569366 
3731.000000	1.571488 
3730.000000	1.573538 
3729.000000	1.575374 
3728.000000	1.576781 
3727.000000	1.577830 
3726.000000	1.578521 
3725.000000	1.578927 
3724.000000	1.579236 
3723.000000	1.579475 
3722.000000	1.579689 
3721.000000	1.579904 
3720.000000	1.579999 
3719.000000	1.579928 
3718.000000	1.579642 
3717.000000	1.579093 
3716.000000	1.578307 
3715.000000	1.577377 
3714.000000	1.576423 
3713.000000	1.575684 
3712.000000	1.575231 
3711.000000	1.575136 
3710.000000	1.575422 
3709.000000	1.576042 
3708.000000	1.576805 
3707.000000	1.577711 
3706.000000	1.578593 
3705.000000	1.579380 
3704.000000	1.580071 
3703.000000	1.580643 
3702.000000	1.581144 
3701.000000	1.581597 
3700.000000	1.581978 
3699.000000	1.582193 
3698.000000	1.582217 
3697.000000	1.581883 
3696.000000	1.581192 
3695.000000	1.580095 
3694.000000	1.578640 
3693.000000	1.577019 
3692.000000	1.575374 
3691.000000	1.573944 
3690.000000	1.572895 
3689.000000	1.572394 
3688.000000	1.572489 
3687.000000	1.573061 
3686.000000	1.573944 
3685.000000	1.574850 
3684.000000	1.575541 
3683.000000	1.575803 
3682.000000	1.575422 
3681.000000	1.574373 
3680.000000	1.572775 
3679.000000	1.570725 
3678.000000	1.568555 
3677.000000	1.566457 
3676.000000	1.564812 
3675.000000	1.563715 
3674.000000	1.563382 
3673.000000	1.563835 
3672.000000	1.565027 
3671.000000	1.566934 
3670.000000	1.569342 
3669.000000	1.572108 
3668.000000	1.574945 
3667.000000	1.577711 
3666.000000	1.580142 
3665.000000	1.582121 
3664.000000	1.583504 
3663.000000	1.584315 
3662.000000	1.584577 
3661.000000	1.584386 
3660.000000	1.583790 
3659.000000	1.582956 
3658.000000	1.581978 
3657.000000	1.580810 
3656.000000	1.579523 
3655.000000	1.578116 
3654.000000	1.576590 
3653.000000	1.575040 
3652.000000	1.573562 
3651.000000	1.572442 
3650.000000	1.571750 
3649.000000	1.571631 
3648.000000	1.572155 
3647.000000	1.573300 
3646.000000	1.574921 
3645.000000	1.576781 
3644.000000	1.578736 
3643.000000	1.580595 
3642.000000	1.582169 
3641.000000	1.583433 
3640.000000	1.584315 
3639.000000	1.584744 
3638.000000	1.584792 
3637.000000	1.584410 
3636.000000	1.583647 
3635.000000	1.582527 
3634.000000	1.581192 
3633.000000	1.579737 
3632.000000	1.578354 
3631.000000	1.577281 
3630.000000	1.576638 
3629.000000	1.576542 
3628.000000	1.576995 
3627.000000	1.577949 
3626.000000	1.579236 
3625.000000	1.580667 
3624.000000	1.582121 
3623.000000	1.583433 
3622.000000	1.584482 
3621.000000	1.585340 
3620.000000	1.586008 
3619.000000	1.586484 
3618.000000	1.586842 
3617.000000	1.587080 
3616.000000	1.587247 
3615.000000	1.587343 
3614.000000	1.587367 
3613.000000	1.587414 
3612.000000	1.587557 
3611.000000	1.587867 
3610.000000	1.588439 
3609.000000	1.589274 
3608.000000	1.590347 
3607.000000	1.591587 
3606.000000	1.592874 
3605.000000	1.594161 
3604.000000	1.595330 
3603.000000	1.596355 
3602.000000	1.597261 
3601.000000	1.598024 
3600.000000	1.598739 
3599.000000	1.599454 
3598.000000	1.600193 
3597.000000	1.600885 
3596.000000	1.601552 
3595.000000	1.602077 
3594.000000	1.602435 
3593.000000	1.602625 
3592.000000	1.602649 
3591.000000	1.602602 
3590.000000	1.602554 
3589.000000	1.602673 
3588.000000	1.602959 
3587.000000	1.603484 
3586.000000	1.604270 
3585.000000	1.605248 
3584.000000	1.606345 
3583.000000	1.607537 
3582.000000	1.608729 
3581.000000	1.609826 
3580.000000	1.610803 
3579.000000	1.611685 
3578.000000	1.612401 
3577.000000	1.612949 
3576.000000	1.613354 
3575.000000	1.613616 
3574.000000	1.613736 
3573.000000	1.613831 
3572.000000	1.613926 
3571.000000	1.614069 
3570.000000	1.614403 
3569.000000	1.614928 
3568.000000	1.615738 
3567.000000	1.616740 
3566.000000	1.617956 
3565.000000	1.619315 
3564.000000	1.620817 
3563.000000	1.622223 
3562.000000	1.623558 
3561.000000	1.624703 
3560.000000	1.625657 
3559.000000	1.626372 
3558.000000	1.626873 
3557.000000	1.627206 
3556.000000	1.627421 
3555.000000	1.627588 
3554.000000	1.627755 
3553.000000	1.627922 
3552.000000	1.628160 
3551.000000	1.628422 
3550.000000	1.628684 
3549.000000	1.628923 
3548.000000	1.629137 
3547.000000	1.629304 
3546.000000	1.629424 
3545.000000	1.629495 
3544.000000	1.629567 
3543.000000	1.629614 
3542.000000	1.629638 
3541.000000	1.629662 
3540.000000	1.629710 
3539.000000	1.629829 
3538.000000	1.629972 
3537.000000	1.630234 
3536.000000	1.630544 
3535.000000	1.630926 
3534.000000	1.631379 
3533.000000	1.631855 
3532.000000	1.632332 
3531.000000	1.632785 
3530.000000	1.633191 
3529.000000	1.633548 
3528.000000	1.633834 
3527.000000	1.634073 
3526.000000	1.634311 
3525.000000	1.634573 
3524.000000	1.634836 
3523.000000	1.635193 
3522.000000	1.635575 
3521.000000	1.636004 
3520.000000	1.636505 
3519.000000	1.636981 
3518.000000	1.637434 
3517.000000	1.637792 
3516.000000	1.638007 
3515.000000	1.638007 
3514.000000	1.637792 
3513.000000	1.637387 
3512.000000	1.636767 
3511.000000	1.636004 
3510.000000	1.635146 
3509.000000	1.634240 
3508.000000	1.633334 
3507.000000	1.632475 
3506.000000	1.631712 
3505.000000	1.631069 
3504.000000	1.630520 
3503.000000	1.630139 
3502.000000	1.629877 
3501.000000	1.629781 
3500.000000	1.629757 
3499.000000	1.629900 
3498.000000	1.630115 
3497.000000	1.630330 
3496.000000	1.630544 
3495.000000	1.630711 
3494.000000	1.630830 
3493.000000	1.630806 
3492.000000	1.630592 
3491.000000	1.630210 
3490.000000	1.629590 
3489.000000	1.628780 
3488.000000	1.627802 
3487.000000	1.626729 
3486.000000	1.625585 
3485.000000	1.624536 
3484.000000	1.623535 
3483.000000	1.622676 
3482.000000	1.621985 
3481.000000	1.621413 
3480.000000	1.620984 
3479.000000	1.620650 
3478.000000	1.620411 
3477.000000	1.620197 
3476.000000	1.620030 
3475.000000	1.619935 
3474.000000	1.619863 
3473.000000	1.619863 
3472.000000	1.619911 
3471.000000	1.619935 
3470.000000	1.619935 
3469.000000	1.619887 
3468.000000	1.619672 
3467.000000	1.619338 
3466.000000	1.618885 
3465.000000	1.618289 
3464.000000	1.617503 
3463.000000	1.616597 
3462.000000	1.615643 
3461.000000	1.614618 
3460.000000	1.613545 
3459.000000	1.612424 
3458.000000	1.611304 
3457.000000	1.610183 
3456.000000	1.609134 
3455.000000	1.608109 
3454.000000	1.607131 
3453.000000	1.606273 
3452.000000	1.605534 
3451.000000	1.604890 
3450.000000	1.604318 
3449.000000	1.603770 
3448.000000	1.603221 
3447.000000	1.602625 
3446.000000	1.601958 
3445.000000	1.601195 
3444.000000	1.600337 
3443.000000	1.599383 
3442.000000	1.598405 
3441.000000	1.597404 
3440.000000	1.596403 
3439.000000	1.595497 
3438.000000	1.594638 
3437.000000	1.593899 
3436.000000	1.593208 
3435.000000	1.592612 
3434.000000	1.592087 
3433.000000	1.591610 
3432.000000	1.591229 
3431.000000	1.590895 
3430.000000	1.590681 
3429.000000	1.590561 
3428.000000	1.590490 
3427.000000	1.590514 
3426.000000	1.590657 
3425.000000	1.590800 
3424.000000	1.591038 
3423.000000	1.591300 
3422.000000	1.591610 
3421.000000	1.591968 
3420.000000	1.592350 
3419.000000	1.592707 
3418.000000	1.593136 
3417.000000	1.593637 
3416.000000	1.594138 
3415.000000	1.594686 
3414.000000	1.595258 
3413.000000	1.595878 
3412.000000	1.596522 
3411.000000	1.597189 
3410.000000	1.597857 
3409.000000	1.598548 
3408.000000	1.599216 
3407.000000	1.599860 
3406.000000	1.600480 
3405.000000	1.601123 
3404.000000	1.601815 
3403.000000	1.602554 
3402.000000	1.603317 
3401.000000	1.604151 
3400.000000	1.605033 
3399.000000	1.605939 
3398.000000	1.606822 
3397.000000	1.607656 
3396.000000	1.608490 
3395.000000	1.609253 
3394.000000	1.609969 
3393.000000	1.610612 
3392.000000	1.611256 
3391.000000	1.611876 
3390.000000	1.612424 
3389.000000	1.612925 
3388.000000	1.613402 
3387.000000	1.613831 
3386.000000	1.614165 
3385.000000	1.614522 
3384.000000	1.614832 
3383.000000	1.615214 
3382.000000	1.615667 
3381.000000	1.616334 
3380.000000	1.617097 
3379.000000	1.618075 
3378.000000	1.619172 
3377.000000	1.620340 
3376.000000	1.621532 
3375.000000	1.622605 
3374.000000	1.623654 
3373.000000	1.624584 
3372.000000	1.625490 
3371.000000	1.626348 
3370.000000	1.627278 
3369.000000	1.628327 
3368.000000	1.629495 
3367.000000	1.630783 
3366.000000	1.632213 
3365.000000	1.633715 
3364.000000	1.635289 
3363.000000	1.636910 
3362.000000	1.638531 
3361.000000	1.640129 
3360.000000	1.641750 
3359.000000	1.643419 
3358.000000	1.645040 
3357.000000	1.646733 
3356.000000	1.648473 
3355.000000	1.650238 
3354.000000	1.652050 
3353.000000	1.653838 
3352.000000	1.655626 
3351.000000	1.657366 
3350.000000	1.659083 
3349.000000	1.660704 
3348.000000	1.662230 
3347.000000	1.663661 
3346.000000	1.665043 
3345.000000	1.666307 
3344.000000	1.667475 
3343.000000	1.668596 
3342.000000	1.669621 
3341.000000	1.670622 
3340.000000	1.671576 
3339.000000	1.672482 
3338.000000	1.673436 
3337.000000	1.674389 
3336.000000	1.675367 
3335.000000	1.676440 
3334.000000	1.677608 
3333.000000	1.678895 
3332.000000	1.680302 
3331.000000	1.681852 
3330.000000	1.683521 
3329.000000	1.685285 
3328.000000	1.687049 
3327.000000	1.688814 
3326.000000	1.690506 
3325.000000	1.692175 
3324.000000	1.693701 
3323.000000	1.695132 
3322.000000	1.696491 
3321.000000	1.697802 
3320.000000	1.699090 
3319.000000	1.700401 
3318.000000	1.701760 
3317.000000	1.703214 
3316.000000	1.704764 
3315.000000	1.706433 
3314.000000	1.708149 
3313.000000	1.709961 
3312.000000	1.711797 
3311.000000	1.713633 
3310.000000	1.715445 
3309.000000	1.717185 
3308.000000	1.718902 
3307.000000	1.720523 
3306.000000	1.722097 
3305.000000	1.723599 
3304.000000	1.725077 
3303.000000	1.726531 
3302.000000	1.727962 
3301.000000	1.729393 
3300.000000	1.730847 
3299.000000	1.732301 
3298.000000	1.733708 
3297.000000	1.735067 
3296.000000	1.736354 
3295.000000	1.737570 
3294.000000	1.738715 
3293.000000	1.739788 
3292.000000	1.740813 
3291.000000	1.741862 
3290.000000	1.742887 
3289.000000	1.743936 
3288.000000	1.745057 
3287.000000	1.746177 
3286.000000	1.747322 
3285.000000	1.748466 
3284.000000	1.749610 
3283.000000	1.750731 
3282.000000	1.751923 
3281.000000	1.753115 
3280.000000	1.754379 
3279.000000	1.755666 
3278.000000	1.757025 
3277.000000	1.758384 
3276.000000	1.759696 
3275.000000	1.760983 
3274.000000	1.762199 
3273.000000	1.763343 
3272.000000	1.764392 
3271.000000	1.765441 
3270.000000	1.766490 
3269.000000	1.767492 
3268.000000	1.768517 
3267.000000	1.769495 
3266.000000	1.770472 
3265.000000	1.771402 
3264.000000	1.772284 
3263.000000	1.773071 
3262.000000	1.773810 
3261.000000	1.774549 
3260.000000	1.775193 
3259.000000	1.775789 
3258.000000	1.776385 
3257.000000	1.776981 
3256.000000	1.777648 
3255.000000	1.778411 
3254.000000	1.779270 
3253.000000	1.780247 
3252.000000	1.781296 
3251.000000	1.782417 
3250.000000	1.783514 
3249.000000	1.784563 
3248.000000	1.785564 
3247.000000	1.786446 
3246.000000	1.787257 
3245.000000	1.787996 
3244.000000	1.788759 
3243.000000	1.789569 
3242.000000	1.790380 
3241.000000	1.791214 
3240.000000	1.791906 
3239.000000	1.792526 
3238.000000	1.792979 
3237.000000	1.793241 
3236.000000	1.793384 
3235.000000	1.793408 
3234.000000	1.793479 
3233.000000	1.793575 
3232.000000	1.793789 
3231.000000	1.794075 
3230.000000	1.794409 
3229.000000	1.794767 
3228.000000	1.795077 
3227.000000	1.795268 
3226.000000	1.795339 
3225.000000	1.795291 
3224.000000	1.795125 
3223.000000	1.794981 
3222.000000	1.794815 
3221.000000	1.794672 
3220.000000	1.794600 
3219.000000	1.794528 
3218.000000	1.794528 
3217.000000	1.794576 
3216.000000	1.794624 
3215.000000	1.794695 
3214.000000	1.794767 
3213.000000	1.794815 
3212.000000	1.794862 
3211.000000	1.794934 
3210.000000	1.795005 
3209.000000	1.795101 
3208.000000	1.795220 
3207.000000	1.795363 
3206.000000	1.795578 
3205.000000	1.795887 
3204.000000	1.796221 
3203.000000	1.796603 
3202.000000	1.796984 
3201.000000	1.797294 
3200.000000	1.797533 
3199.000000	1.797723 
3198.000000	1.797866 
3197.000000	1.797986 
3196.000000	1.798105 
3195.000000	1.798295 
3194.000000	1.798629 
3193.000000	1.799082 
3192.000000	1.799702 
3191.000000	1.800394 
3190.000000	1.801133 
3189.000000	1.801896 
3188.000000	1.802587 
3187.000000	1.803159 
3186.000000	1.803612 
3185.000000	1.803874 
3184.000000	1.804041 
3183.000000	1.804065 
3182.000000	1.804089 
3181.000000	1.804065 
3180.000000	1.804065 
3179.000000	1.804065 
3178.000000	1.804137 
3177.000000	1.804184 
3176.000000	1.804232 
3175.000000	1.804256 
3174.000000	1.804280 
3173.000000	1.804351 
3172.000000	1.804447 
3171.000000	1.804590 
3170.000000	1.804804 
3169.000000	1.805138 
3168.000000	1.805543 
3167.000000	1.806020 
3166.000000	1.806521 
3165.000000	1.807022 
3164.000000	1.807522 
3163.000000	1.808023 
3162.000000	1.808547 
3161.000000	1.809144 
3160.000000	1.809763 
3159.000000	1.810550 
3158.000000	1.811408 
3157.000000	1.812386 
3156.000000	1.813435 
3155.000000	1.814532 
3154.000000	1.815605 
3153.000000	1.816654 
3152.000000	1.817631 
3151.000000	1.818561 
3150.000000	1.819443 
3149.000000	1.820278 
3148.000000	1.821160 
3147.000000	1.822090 
3146.000000	1.823091 
3145.000000	1.824164 
3144.000000	1.825356 
3143.000000	1.826572 
3142.000000	1.827764 
3141.000000	1.828932 
3140.000000	1.830029 
3139.000000	1.831054 
3138.000000	1.831960 
3137.000000	1.832795 
3136.000000	1.833581 
3135.000000	1.834344 
3134.000000	1.835155 
3133.000000	1.836061 
3132.000000	1.837038 
3131.000000	1.838088 
3130.000000	1.839256 
3129.000000	1.840448 
3128.000000	1.841688 
3127.000000	1.842927 
3126.000000	1.844096 
3125.000000	1.845288 
3124.000000	1.846528 
3123.000000	1.847839 
3122.000000	1.849222 
3121.000000	1.850700 
3120.000000	1.852321 
3119.000000	1.854014 
3118.000000	1.855754 
3117.000000	1.857495 
3116.000000	1.859188 
3115.000000	1.860833 
3114.000000	1.862359 
3113.000000	1.863741 
3112.000000	1.865029 
3111.000000	1.866269 
3110.000000	1.867437 
3109.000000	1.868605 
3108.000000	1.869821 
3107.000000	1.871085 
3106.000000	1.872515 
3105.000000	1.874041 
3104.000000	1.875710 
3103.000000	1.877522 
3102.000000	1.879429 
3101.000000	1.881361 
3100.000000	1.883292 
3099.000000	1.885247 
3098.000000	1.887154 
3097.000000	1.888990 
3096.000000	1.890778 
3095.000000	1.892542 
3094.000000	1.894330 
3093.000000	1.896190 
3092.000000	1.898145 
3091.000000	1.900243 
3090.000000	1.902508 
3089.000000	1.904916 
3088.000000	1.907420 
3087.000000	1.909923 
3086.000000	1.912331 
3085.000000	1.914691 
3084.000000	1.916837 
3083.000000	1.918816 
3082.000000	1.920676 
3081.000000	1.922392 
3080.000000	1.923990 
3079.000000	1.925516 
3078.000000	1.926970 
3077.000000	1.928353 
3076.000000	1.929688 
3075.000000	1.930928 
3074.000000	1.932096 
3073.000000	1.933169 
3072.000000	1.934266 
3071.000000	1.935315 
3070.000000	1.936435 
3069.000000	1.937651 
3068.000000	1.938891 
3067.000000	1.940226 
3066.000000	1.941657 
3065.000000	1.943182 
3064.000000	1.944732 
3063.000000	1.946377 
3062.000000	1.948094 
3061.000000	1.949906 
3060.000000	1.951813 
3059.000000	1.953816 
3058.000000	1.955866 
3057.000000	1.957964 
3056.000000	1.960062 
3055.000000	1.962065 
3054.000000	1.964020 
3053.000000	1.965808 
3052.000000	1.967501 
3051.000000	1.969099 
3050.000000	1.970624 
3049.000000	1.972150 
3048.000000	1.973605 
3047.000000	1.975011 
3046.000000	1.976346 
3045.000000	1.977586 
3044.000000	1.978707 
3043.000000	1.979708 
3042.000000	1.980566 
3041.000000	1.981329 
3040.000000	1.981997 
3039.000000	1.982688 
3038.000000	1.983356 
3037.000000	1.984000 
3036.000000	1.984667 
3035.000000	1.985263 
3034.000000	1.985716 
3033.000000	1.985955 
3032.000000	1.985907 
3031.000000	1.985454 
3030.000000	1.984643 
3029.000000	1.983428 
3028.000000	1.981830 
3027.000000	1.979875 
3026.000000	1.977610 
3025.000000	1.975178 
3024.000000	1.972651 
3023.000000	1.970219 
3022.000000	1.968002 
3021.000000	1.966214 
3020.000000	1.965045 
3019.000000	1.964664 
3018.000000	1.965188 
3017.000000	1.966738 
3016.000000	1.969289 
3015.000000	1.972794 
3014.000000	1.977062 
3013.000000	1.981949 
3012.000000	1.987171 
3011.000000	1.992535 
3010.000000	1.997780 
3009.000000	2.002763 
3008.000000	2.007365 
3007.000000	2.011513 
3006.000000	2.015209 
3005.000000	2.018523 
3004.000000	2.021503 
3003.000000	2.024197 
3002.000000	2.026653 
3001.000000	2.028870 
3000.000000	2.030920 
2999.000000	2.032804 
2998.000000	2.034473 
2997.000000	2.035903 
2996.000000	2.037096 
2995.000000	2.038049 
2994.000000	2.038788 
2993.000000	2.039241 
2992.000000	2.039527 
2991.000000	2.039623 
2990.000000	2.039527 
2989.000000	2.039170 
2988.000000	2.038598 
2987.000000	2.037763 
2986.000000	2.036666 
2985.000000	2.035236 
2984.000000	2.033543 
2983.000000	2.031564 
2982.000000	2.029323 
2981.000000	2.026844 
2980.000000	2.024197 
2979.000000	2.021265 
2978.000000	2.017998 
2977.000000	2.014422 
2976.000000	2.010416 
2975.000000	2.005910 
2974.000000	2.000904 
2973.000000	1.995420 
2972.000000	1.989579 
2971.000000	1.983428 
2970.000000	1.977133 
2969.000000	1.970934 
2968.000000	1.964950 
2967.000000	1.959276 
2966.000000	1.954054 
2965.000000	1.949405 
2964.000000	1.945281 
2963.000000	1.941704 
2962.000000	1.938724 
2961.000000	1.936316 
2960.000000	1.934385 
2959.000000	1.932907 
2958.000000	1.931810 
2957.000000	1.931023 
2956.000000	1.930403 
2955.000000	1.929879 
2954.000000	1.929235 
2953.000000	1.928400 
2952.000000	1.927232 
2951.000000	1.925587 
2950.000000	1.923298 
2949.000000	1.920270 
2948.000000	1.916384 
2947.000000	1.911592 
2946.000000	1.905775 
2945.000000	1.899027 
2944.000000	1.891422 
2943.000000	1.883029 
2942.000000	1.874065 
2941.000000	1.864767 
2940.000000	1.855397 
2939.000000	1.846075 
2938.000000	1.837015 
2937.000000	1.828384 
2936.000000	1.820206 
2935.000000	1.812458 
2934.000000	1.805114 
2933.000000	1.798176 
2932.000000	1.791691 
2931.000000	1.785683 
2930.000000	1.780295 
2929.000000	1.775765 
2928.000000	1.772356 
2927.000000	1.770401 
2926.000000	1.770162 
2925.000000	1.771879 
2924.000000	1.775646 
2923.000000	1.781487 
2922.000000	1.789259 
2921.000000	1.798772 
2920.000000	1.809668 
2919.000000	1.821589 
2918.000000	1.834130 
2917.000000	1.846885 
2916.000000	1.859521 
2915.000000	1.871705 
2914.000000	1.883196 
2913.000000	1.893830 
2912.000000	1.903510 
2911.000000	1.912188 
2910.000000	1.919865 
2909.000000	1.926755 
2908.000000	1.932907 
2907.000000	1.938438 
2906.000000	1.943564 
2905.000000	1.948356 
2904.000000	1.952886 
2903.000000	1.957178 
2902.000000	1.961278 
2901.000000	1.965141 
2900.000000	1.968765 
2899.000000	1.972198 
2898.000000	1.975464 
2897.000000	1.978540 
2896.000000	1.981544 
2895.000000	1.984477 
2894.000000	1.987361 
2893.000000	1.990246 
2892.000000	1.993155 
2891.000000	1.996040 
2890.000000	1.998877 
2889.000000	2.001667 
2888.000000	2.004384 
2887.000000	2.006936 
2886.000000	2.009224 
2885.000000	2.011251 
2884.000000	2.012920 
2883.000000	2.014136 
2882.000000	2.014875 
2881.000000	2.015066 
2880.000000	2.014732 
2879.000000	2.013850 
2878.000000	2.012395 
2877.000000	2.010369 
2876.000000	2.007675 
2875.000000	2.004289 
2874.000000	2.000141 
2873.000000	1.995134 
2872.000000	1.989221 
2871.000000	1.982355 
2870.000000	1.974630 
2869.000000	1.966214 
2868.000000	1.957273 
2867.000000	1.948142 
2866.000000	1.939249 
2865.000000	1.930975 
2864.000000	1.923704 
2863.000000	1.917958 
2862.000000	1.914000 
2861.000000	1.912117 
2860.000000	1.912355 
2859.000000	1.914763 
2858.000000	1.919126 
2857.000000	1.925301 
2856.000000	1.932978 
2855.000000	1.941823 
2854.000000	1.951479 
2853.000000	1.961731 
2852.000000	1.972317 
2851.000000	1.983022 
2850.000000	1.993608 
2849.000000	2.004003 
2848.000000	2.014136 
2847.000000	2.023887 
2846.000000	2.033138 
2845.000000	2.041864 
2844.000000	2.049994 
2843.000000	2.057576 
2842.000000	2.064514 
2841.000000	2.070927 
2840.000000	2.076840 
2839.000000	2.082252 
2838.000000	2.087211 
2837.000000	2.091860 
2836.000000	2.096223 
2835.000000	2.100300 
2834.000000	2.104139 
2833.000000	2.107834 
2832.000000	2.111339 
2831.000000	2.114748 
2830.000000	2.118039 
2829.000000	2.121281 
2828.000000	2.124500 
2827.000000	2.127718 
2826.000000	2.130937 
2825.000000	2.134156 
2824.000000	2.137327 
2823.000000	2.140426 
2822.000000	2.143430 
2821.000000	2.146315 
2820.000000	2.149033 
2819.000000	2.151632 
2818.000000	2.154111 
2817.000000	2.156496 
2816.000000	2.158832 
2815.000000	2.161121 
2814.000000	2.163410 
2813.000000	2.165651 
2812.000000	2.167940 
2811.000000	2.170181 
2810.000000	2.172422 
2809.000000	2.174544 
2808.000000	2.176642 
2807.000000	2.178645 
2806.000000	2.180528 
2805.000000	2.182316 
2804.000000	2.184081 
2803.000000	2.185773 
2802.000000	2.187418 
2801.000000	2.189040 
2800.000000	2.190661 
2799.000000	2.192330 
2798.000000	2.193975 
2797.000000	2.195668 
2796.000000	2.197384 
2795.000000	2.199172 
2794.000000	2.200961 
2793.000000	2.202796 
2792.000000	2.204608 
2791.000000	2.206444 
2790.000000	2.208280 
2789.000000	2.210068 
2788.000000	2.211833 
2787.000000	2.213597 
2786.000000	2.215290 
2785.000000	2.216982 
2784.000000	2.218675 
2783.000000	2.220392 
2782.000000	2.222132 
2781.000000	2.223896 
2780.000000	2.225756 
2779.000000	2.227711 
2778.000000	2.229690 
2777.000000	2.231764 
2776.000000	2.233886 
2775.000000	2.235984 
2774.000000	2.238011 
2773.000000	2.239942 
2772.000000	2.241730 
2771.000000	2.243304 
2770.000000	2.244663 
2769.000000	2.245807 
2768.000000	2.246737 
2767.000000	2.247548 
2766.000000	2.248215 
2765.000000	2.248883 
2764.000000	2.249574 
2763.000000	2.250289 
2762.000000	2.251100 
2761.000000	2.251958 
2760.000000	2.252864 
2759.000000	2.253818 
2758.000000	2.254796 
2757.000000	2.255773 
2756.000000	2.256727 
2755.000000	2.257609 
2754.000000	2.258419 
2753.000000	2.259111 
2752.000000	2.259731 
2751.000000	2.260208 
2750.000000	2.260613 
2749.000000	2.260971 
2748.000000	2.261304 
2747.000000	2.261686 
2746.000000	2.262067 
2745.000000	2.262473 
2744.000000	2.262878 
2743.000000	2.263212 
2742.000000	2.263450 
2741.000000	2.263522 
2740.000000	2.263474 
2739.000000	2.263283 
2738.000000	2.262997 
2737.000000	2.262735 
2736.000000	2.262496 
2735.000000	2.262353 
2734.000000	2.262282 
2733.000000	2.262401 
2732.000000	2.262592 
2731.000000	2.262759 
2730.000000	2.262926 
2729.000000	2.263021 
2728.000000	2.263021 
2727.000000	2.262949 
2726.000000	2.262830 
2725.000000	2.262639 
2724.000000	2.262449 
2723.000000	2.262353 
2722.000000	2.262282 
2721.000000	2.262234 
2720.000000	2.262187 
2719.000000	2.262091 
2718.000000	2.261924 
2717.000000	2.261662 
2716.000000	2.261352 
2715.000000	2.261018 
2714.000000	2.260708 
2713.000000	2.260398 
2712.000000	2.260112 
2711.000000	2.259826 
2710.000000	2.259516 
2709.000000	2.259087 
2708.000000	2.258515 
2707.000000	2.257728 
2706.000000	2.256774 
2705.000000	2.255630 
2704.000000	2.254390 
2703.000000	2.253150 
2702.000000	2.252030 
2701.000000	2.251076 
2700.000000	2.250313 
2699.000000	2.249789 
2698.000000	2.249455 
2697.000000	2.249264 
2696.000000	2.249169 
2695.000000	2.249121 
2694.000000	2.249026 
2693.000000	2.248883 
2692.000000	2.248620 
2691.000000	2.248287 
2690.000000	2.247881 
2689.000000	2.247381 
2688.000000	2.246880 
2687.000000	2.246379 
2686.000000	2.245903 
2685.000000	2.245402 
2684.000000	2.244901 
2683.000000	2.244377 
2682.000000	2.243852 
2681.000000	2.243256 
2680.000000	2.242588 
2679.000000	2.241897 
2678.000000	2.241206 
2677.000000	2.240490 
2676.000000	2.239823 
2675.000000	2.239227 
2674.000000	2.238678 
2673.000000	2.238130 
2672.000000	2.237629 
2671.000000	2.237057 
2670.000000	2.236461 
2669.000000	2.235817 
2668.000000	2.235102 
2667.000000	2.234387 
2666.000000	2.233648 
2665.000000	2.232885 
2664.000000	2.232146 
2663.000000	2.231383 
2662.000000	2.230596 
2661.000000	2.229762 
2660.000000	2.228879 
2659.000000	2.227997 
2658.000000	2.227091 
2657.000000	2.226305 
2656.000000	2.225613 
2655.000000	2.225136 
2654.000000	2.224850 
2653.000000	2.224731 
2652.000000	2.224826 
2651.000000	2.225089 
2650.000000	2.225375 
2649.000000	2.225661 
2648.000000	2.225923 
2647.000000	2.226090 
2646.000000	2.226138 
2645.000000	2.226114 
2644.000000	2.225947 
2643.000000	2.225732 
2642.000000	2.225470 
2641.000000	2.225160 
2640.000000	2.224922 
2639.000000	2.224731 
2638.000000	2.224588 
2637.000000	2.224516 
2636.000000	2.224516 
2635.000000	2.224564 
2634.000000	2.224659 
2633.000000	2.224802 
2632.000000	2.224922 
2631.000000	2.224993 
2630.000000	2.225017 
2629.000000	2.224969 
2628.000000	2.224850 
2627.000000	2.224755 
2626.000000	2.224683 
2625.000000	2.224683 
2624.000000	2.224779 
2623.000000	2.225041 
2622.000000	2.225446 
2621.000000	2.225923 
2620.000000	2.226543 
2619.000000	2.227234 
2618.000000	2.227878 
2617.000000	2.228474 
2616.000000	2.228975 
2615.000000	2.229356 
2614.000000	2.229642 
2613.000000	2.229833 
2612.000000	2.230000 
2611.000000	2.230215 
2610.000000	2.230453 
2609.000000	2.230739 
2608.000000	2.231097 
2607.000000	2.231526 
2606.000000	2.231979 
2605.000000	2.232408 
2604.000000	2.232789 
2603.000000	2.233099 
2602.000000	2.233314 
2601.000000	2.233481 
2600.000000	2.233529 
2599.000000	2.233552 
2598.000000	2.233505 
2597.000000	2.233481 
2596.000000	2.233457 
2595.000000	2.233529 
2594.000000	2.233648 
2593.000000	2.233910 
2592.000000	2.234339 
2591.000000	2.234935 
2590.000000	2.235722 
2589.000000	2.236723 
2588.000000	2.237892 
2587.000000	2.239227 
2586.000000	2.240705 
2585.000000	2.242326 
2584.000000	2.244067 
2583.000000	2.245903 
2582.000000	2.247738 
2581.000000	2.249598 
2580.000000	2.251434 
2579.000000	2.253246 
2578.000000	2.254986 
2577.000000	2.256703 
2576.000000	2.258372 
2575.000000	2.259993 
2574.000000	2.261567 
2573.000000	2.263188 
2572.000000	2.264761 
2571.000000	2.266359 
2570.000000	2.267861 
2569.000000	2.269339 
2568.000000	2.270722 
2567.000000	2.271986 
2566.000000	2.273178 
2565.000000	2.274322 
2564.000000	2.275443 
2563.000000	2.276587 
2562.000000	2.277779 
2561.000000	2.279043 
2560.000000	2.280378 
2559.000000	2.281761 
2558.000000	2.283143 
2557.000000	2.284526 
2556.000000	2.285838 
2555.000000	2.287101 
2554.000000	2.288341 
2553.000000	2.289557 
2552.000000	2.290821 
2551.000000	2.292132 
2550.000000	2.293491 
2549.000000	2.294874 
2548.000000	2.296257 
2547.000000	2.297663 
2546.000000	2.298998 
2545.000000	2.300310 
2544.000000	2.301573 
2543.000000	2.302789 
2542.000000	2.303957 
2541.000000	2.305102 
2540.000000	2.306199 
2539.000000	2.307248 
2538.000000	2.308273 
2537.000000	2.309226 
2536.000000	2.310109 
2535.000000	2.310895 
2534.000000	2.311611 
2533.000000	2.312278 
2532.000000	2.312970 
2531.000000	2.313661 
2530.000000	2.314424 
2529.000000	2.315282 
2528.000000	2.316260 
2527.000000	2.317285 
2526.000000	2.318406 
2525.000000	2.319550 
2524.000000	2.320647 
2523.000000	2.321720 
2522.000000	2.322649 
2521.000000	2.323484 
2520.000000	2.324199 
2519.000000	2.324795 
2518.000000	2.325248 
2517.000000	2.325630 
2516.000000	2.325940 
2515.000000	2.326202 
2514.000000	2.326440 
2513.000000	2.326726 
2512.000000	2.327036 
2511.000000	2.327418 
2510.000000	2.327919 
2509.000000	2.328491 
2508.000000	2.329158 
2507.000000	2.329897 
2506.000000	2.330660 
2505.000000	2.331423 
2504.000000	2.332115 
2503.000000	2.332687 
2502.000000	2.333188 
2501.000000	2.333545 
2500.000000	2.333784 
2499.000000	2.333903 
2498.000000	2.333950 
2497.000000	2.333927 
2496.000000	2.333784 
2495.000000	2.333521 
2494.000000	2.333235 
2493.000000	2.332878 
2492.000000	2.332377 
2491.000000	2.331876 
2490.000000	2.331304 
2489.000000	2.330732 
2488.000000	2.330255 
2487.000000	2.329802 
2486.000000	2.329444 
2485.000000	2.329206 
2484.000000	2.328968 
2483.000000	2.328753 
2482.000000	2.328610 
2481.000000	2.328443 
2480.000000	2.328205 
2479.000000	2.327966 
2478.000000	2.327632 
2477.000000	2.327251 
2476.000000	2.326750 
2475.000000	2.326178 
2474.000000	2.325558 
2473.000000	2.324867 
2472.000000	2.324128 
2471.000000	2.323389 
2470.000000	2.322626 
2469.000000	2.321863 
2468.000000	2.321147 
2467.000000	2.320432 
2466.000000	2.319741 
2465.000000	2.319097 
2464.000000	2.318453 
2463.000000	2.317833 
2462.000000	2.317166 
2461.000000	2.316451 
2460.000000	2.315711 
2459.000000	2.314901 
2458.000000	2.314019 
2457.000000	2.313041 
2456.000000	2.312016 
2455.000000	2.310919 
2454.000000	2.309799 
2453.000000	2.308607 
2452.000000	2.307415 
2451.000000	2.306199 
2450.000000	2.305030 
2449.000000	2.303862 
2448.000000	2.302765 
2447.000000	2.301716 
2446.000000	2.300715 
2445.000000	2.299761 
2444.000000	2.298855 
2443.000000	2.297973 
2442.000000	2.297115 
2441.000000	2.296233 
2440.000000	2.295303 
2439.000000	2.294278 
2438.000000	2.293181 
2437.000000	2.292013 
2436.000000	2.290821 
2435.000000	2.289581 
2434.000000	2.288365 
2433.000000	2.287173 
2432.000000	2.286028 
2431.000000	2.284932 
2430.000000	2.283859 
2429.000000	2.282834 
2428.000000	2.281832 
2427.000000	2.280855 
2426.000000	2.279853 
2425.000000	2.278900 
2424.000000	2.277898 
2423.000000	2.276921 
2422.000000	2.275991 
2421.000000	2.275061 
2420.000000	2.274131 
2419.000000	2.273201 
2418.000000	2.272224 
2417.000000	2.271246 
2416.000000	2.270269 
2415.000000	2.269291 
2414.000000	2.268385 
2413.000000	2.267527 
2412.000000	2.266788 
2411.000000	2.266144 
2410.000000	2.265620 
2409.000000	2.265167 
2408.000000	2.264785 
2407.000000	2.264404 
2406.000000	2.263975 
2405.000000	2.263498 
2404.000000	2.262926 
2403.000000	2.262306 
2402.000000	2.261638 
2401.000000	2.260947 
2400.000000	2.260279 
2399.000000	2.259588 
2398.000000	2.258968 
2397.000000	2.258396 
2396.000000	2.257823 
2395.000000	2.257275 
2394.000000	2.256703 
2393.000000	2.256155 
2392.000000	2.255558 
2391.000000	2.254962 
2390.000000	2.254390 
2389.000000	2.253842 
2388.000000	2.253365 
2387.000000	2.252912 
2386.000000	2.252554 
2385.000000	2.252221 
2384.000000	2.251863 
2383.000000	2.251458 
2382.000000	2.250909 
2381.000000	2.250266 
2380.000000	2.249479 
2379.000000	2.248573 
2378.000000	2.247500 
2377.000000	2.246379 
2376.000000	2.245187 
2375.000000	2.243971 
2374.000000	2.242803 
2373.000000	2.241683 
2372.000000	2.240610 
2371.000000	2.239608 
2370.000000	2.238750 
2369.000000	2.237939 
2368.000000	2.237248 
2367.000000	2.236676 
2366.000000	2.236270 
2365.000000	2.236008 
2364.000000	2.235913 
2363.000000	2.236056 
2362.000000	2.236461 
2361.000000	2.237224 
2360.000000	2.238368 
2359.000000	2.239918 
2358.000000	2.241802 
2357.000000	2.244043 
2356.000000	2.246546 
2355.000000	2.249264 
2354.000000	2.252006 
2353.000000	2.254700 
2352.000000	2.257204 
2351.000000	2.259421 
2350.000000	2.261304 
2349.000000	2.262902 
2348.000000	2.264165 
2347.000000	2.265167 
2346.000000	2.266001 
2345.000000	2.266764 
2344.000000	2.267479 
2343.000000	2.268195 
2342.000000	2.268958 
2341.000000	2.269768 
2340.000000	2.270650 
2339.000000	2.271604 
2338.000000	2.272629 
2337.000000	2.273774 
2336.000000	2.274990 
2335.000000	2.276325 
2334.000000	2.277803 
2333.000000	2.279400 
2332.000000	2.281141 
2331.000000	2.283000 
2330.000000	2.285003 
2329.000000	2.287149 
2328.000000	2.289366 
2327.000000	2.291655 
2326.000000	2.294063 
2325.000000	2.296543 
2324.000000	2.299022 
2323.000000	2.301478 
2322.000000	2.303886 
2321.000000	2.306199 
2320.000000	2.308416 
2319.000000	2.310514 
2318.000000	2.312445 
2317.000000	2.314281 
2316.000000	2.316045 
2315.000000	2.317738 
2314.000000	2.319359 
2313.000000	2.321028 
2312.000000	2.322745 
2311.000000	2.324509 
2310.000000	2.326345 
2309.000000	2.328252 
2308.000000	2.330231 
2307.000000	2.332234 
2306.000000	2.334237 
2305.000000	2.336192 
2304.000000	2.338099 
2303.000000	2.339911 
2302.000000	2.341604 
2301.000000	2.343249 
2300.000000	2.344799 
2299.000000	2.346277 
2298.000000	2.347755 
2297.000000	2.349209 
2296.000000	2.350640 
2295.000000	2.352070 
2294.000000	2.353501 
2293.000000	2.354979 
2292.000000	2.356386 
2291.000000	2.357745 
2290.000000	2.359080 
2289.000000	2.360415 
2288.000000	2.361655 
2287.000000	2.362871 
2286.000000	2.364039 
2285.000000	2.365136 
2284.000000	2.366137 
2283.000000	2.367091 
2282.000000	2.367973 
2281.000000	2.368807 
2280.000000	2.369594 
2279.000000	2.370381 
2278.000000	2.371168 
2277.000000	2.372002 
2276.000000	2.372884 
2275.000000	2.373814 
2274.000000	2.374720 
2273.000000	2.375650 
2272.000000	2.376484 
2271.000000	2.377271 
2270.000000	2.377963 
2269.000000	2.378535 
2268.000000	2.379035 
2267.000000	2.379465 
2266.000000	2.379822 
2265.000000	2.380156 
2264.000000	2.380466 
2263.000000	2.380800 
2262.000000	2.381181 
2261.000000	2.381539 
2260.000000	2.381920 
2259.000000	2.382302 
2258.000000	2.382683 
2257.000000	2.383041 
2256.000000	2.383399 
2255.000000	2.383708 
2254.000000	2.383995 
2253.000000	2.384233 
2252.000000	2.384471 
2251.000000	2.384662 
2250.000000	2.384853 
2249.000000	2.385020 
2248.000000	2.385187 
2247.000000	2.385354 
2246.000000	2.385520 
2245.000000	2.385687 
2244.000000	2.385854 
2243.000000	2.386045 
2242.000000	2.386236 
2241.000000	2.386450 
2240.000000	2.386689 
2239.000000	2.386927 
2238.000000	2.387142 
2237.000000	2.387332 
2236.000000	2.387475 
2235.000000	2.387499 
2234.000000	2.387404 
2233.000000	2.387142 
2232.000000	2.386736 
2231.000000	2.386212 
2230.000000	2.385568 
2229.000000	2.384877 
2228.000000	2.384185 
2227.000000	2.383518 
2226.000000	2.382874 
2225.000000	2.382302 
2224.000000	2.381730 
2223.000000	2.381181 
2222.000000	2.380561 
2221.000000	2.379894 
2220.000000	2.379179 
2219.000000	2.378439 
2218.000000	2.377653 
2217.000000	2.376937 
2216.000000	2.376317 
2215.000000	2.375745 
2214.000000	2.375197 
2213.000000	2.374672 
2212.000000	2.374124 
2211.000000	2.373504 
2210.000000	2.372765 
2209.000000	2.371931 
2208.000000	2.371001 
2207.000000	2.369999 
2206.000000	2.368998 
2205.000000	2.368044 
2204.000000	2.367138 
2203.000000	2.366280 
2202.000000	2.365493 
2201.000000	2.364754 
2200.000000	2.363991 
2199.000000	2.363252 
2198.000000	2.362465 
2197.000000	2.361679 
2196.000000	2.360868 
2195.000000	2.360057 
2194.000000	2.359223 
2193.000000	2.358412 
2192.000000	2.357625 
2191.000000	2.356839 
2190.000000	2.356123 
2189.000000	2.355432 
2188.000000	2.354764 
2187.000000	2.354145 
2186.000000	2.353549 
2185.000000	2.352976 
2184.000000	2.352452 
2183.000000	2.351903 
2182.000000	2.351355 
2181.000000	2.350783 
2180.000000	2.350163 
2179.000000	2.349519 
2178.000000	2.348780 
2177.000000	2.347970 
2176.000000	2.347087 
2175.000000	2.346110 
2174.000000	2.345085 
2173.000000	2.344059 
2172.000000	2.343034 
2171.000000	2.342009 
2170.000000	2.341079 
2169.000000	2.340245 
2168.000000	2.339529 
2167.000000	2.338933 
2166.000000	2.338576 
2165.000000	2.338433 
2164.000000	2.338600 
2163.000000	2.339100 
2162.000000	2.339768 
2161.000000	2.340674 
2160.000000	2.341604 
2159.000000	2.342557 
2158.000000	2.343320 
2157.000000	2.343916 
2156.000000	2.344274 
2155.000000	2.344465 
2154.000000	2.344489 
2153.000000	2.344417 
2152.000000	2.344274 
2151.000000	2.344155 
2150.000000	2.343964 
2149.000000	2.343750 
2148.000000	2.343511 
2147.000000	2.343177 
2146.000000	2.342796 
2145.000000	2.342414 
2144.000000	2.342033 
2143.000000	2.341723 
2142.000000	2.341508 
2141.000000	2.341389 
2140.000000	2.341318 
2139.000000	2.341294 
2138.000000	2.341270 
2137.000000	2.341222 
2136.000000	2.341127 
2135.000000	2.340960 
2134.000000	2.340722 
2133.000000	2.340435 
2132.000000	2.340126 
2131.000000	2.339768 
2130.000000	2.339458 
2129.000000	2.339148 
2128.000000	2.338886 
2127.000000	2.338647 
2126.000000	2.338457 
2125.000000	2.338290 
2124.000000	2.338194 
2123.000000	2.338194 
2122.000000	2.338290 
2121.000000	2.338457 
2120.000000	2.338719 
2119.000000	2.339053 
2118.000000	2.339458 
2117.000000	2.339887 
2116.000000	2.340340 
2115.000000	2.340793 
2114.000000	2.341151 
2113.000000	2.341485 
2112.000000	2.341771 
2111.000000	2.342033 
2110.000000	2.342319 
2109.000000	2.342629 
2108.000000	2.342963 
2107.000000	2.343320 
2106.000000	2.343702 
2105.000000	2.344036 
2104.000000	2.344322 
2103.000000	2.344560 
2102.000000	2.344679 
2101.000000	2.344703 
2100.000000	2.344727 
2099.000000	2.344679 
2098.000000	2.344608 
2097.000000	2.344536 
2096.000000	2.344441 
2095.000000	2.344322 
2094.000000	2.344202 
2093.000000	2.344059 
2092.000000	2.343916 
2091.000000	2.343797 
2090.000000	2.343678 
2089.000000	2.343678 
2088.000000	2.343773 
2087.000000	2.343988 
2086.000000	2.344346 
2085.000000	2.344870 
2084.000000	2.345561 
2083.000000	2.346348 
2082.000000	2.347254 
2081.000000	2.348303 
2080.000000	2.349495 
2079.000000	2.350807 
2078.000000	2.352261 
2077.000000	2.353882 
2076.000000	2.355670 
2075.000000	2.357530 
2074.000000	2.359509 
2073.000000	2.361607 
2072.000000	2.363705 
2071.000000	2.365875 
2070.000000	2.367997 
2069.000000	2.370095 
2068.000000	2.372193 
2067.000000	2.374219 
2066.000000	2.376246 
2065.000000	2.378225 
2064.000000	2.380204 
2063.000000	2.382183 
2062.000000	2.384138 
2061.000000	2.386093 
2060.000000	2.388119 
2059.000000	2.390146 
2058.000000	2.392196 
2057.000000	2.394294 
2056.000000	2.396368 
2055.000000	2.398419 
2054.000000	2.400326 
2053.000000	2.402186 
2052.000000	2.403879 
2051.000000	2.405524 
2050.000000	2.407026 
2049.000000	2.408528 
2048.000000	2.410101 
2047.000000	2.411818 
2046.000000	2.413678 
2045.000000	2.415728 
2044.000000	2.417922 
2043.000000	2.420258 
2042.000000	2.422618 
2041.000000	2.424979 
2040.000000	2.427220 
2039.000000	2.429270 
2038.000000	2.431106 
2037.000000	2.432703 
2036.000000	2.434134 
2035.000000	2.435421 
2034.000000	2.436566 
2033.000000	2.437615 
2032.000000	2.438640 
2031.000000	2.439641 
2030.000000	2.440643 
2029.000000	2.441620 
2028.000000	2.442574 
2027.000000	2.443504 
2026.000000	2.444434 
2025.000000	2.445363 
2024.000000	2.446317 
2023.000000	2.447295 
2022.000000	2.448320 
2021.000000	2.449369 
2020.000000	2.450394 
2019.000000	2.451372 
2018.000000	2.452254 
2017.000000	2.453064 
2016.000000	2.453708 
2015.000000	2.454185 
2014.000000	2.454566 
2013.000000	2.454829 
2012.000000	2.455115 
2011.000000	2.455401 
2010.000000	2.455735 
2009.000000	2.456164 
2008.000000	2.456712 
2007.000000	2.457308 
2006.000000	2.457904 
2005.000000	2.458524 
2004.000000	2.459096 
2003.000000	2.459621 
2002.000000	2.460074 
2001.000000	2.460479 
2000.000000	2.460837 
1999.000000	2.461171 
1998.000000	2.461409 
1997.000000	2.461600 
1996.000000	2.461695 
1995.000000	2.461695 
1994.000000	2.461600 
1993.000000	2.461409 
1992.000000	2.461147 
1991.000000	2.460813 
1990.000000	2.460408 
1989.000000	2.460002 
1988.000000	2.459573 
1987.000000	2.459073 
1986.000000	2.458548 
1985.000000	2.457952 
1984.000000	2.457308 
1983.000000	2.456593 
1982.000000	2.455782 
1981.000000	2.454924 
1980.000000	2.453994 
1979.000000	2.453017 
1978.000000	2.451968 
1977.000000	2.450847 
1976.000000	2.449703 
1975.000000	2.448463 
1974.000000	2.447175 
1973.000000	2.445840 
1972.000000	2.444481 
1971.000000	2.443170 
1970.000000	2.441930 
1969.000000	2.440762 
1968.000000	2.439665 
1967.000000	2.438664 
1966.000000	2.437734 
1965.000000	2.436900 
1964.000000	2.436113 
1963.000000	2.435350 
1962.000000	2.434635 
1961.000000	2.433943 
1960.000000	2.433300 
1959.000000	2.432632 
1958.000000	2.432012 
1957.000000	2.431368 
1956.000000	2.430748 
1955.000000	2.430105 
1954.000000	2.429413 
1953.000000	2.428722 
1952.000000	2.428030 
1951.000000	2.427339 
1950.000000	2.426552 
1949.000000	2.425742 
1948.000000	2.424860 
1947.000000	2.423954 
1946.000000	2.423000 
1945.000000	2.422022 
1944.000000	2.421116 
1943.000000	2.420258 
1942.000000	2.419519 
1941.000000	2.418899 
1940.000000	2.418375 
1939.000000	2.417922 
1938.000000	2.417469 
1937.000000	2.416992 
1936.000000	2.416396 
1935.000000	2.415704 
1934.000000	2.414870 
1933.000000	2.413988 
1932.000000	2.413010 
1931.000000	2.412056 
1930.000000	2.411079 
1929.000000	2.410078 
1928.000000	2.409076 
1927.000000	2.408051 
1926.000000	2.406859 
1925.000000	2.405595 
1924.000000	2.404165 
1923.000000	2.402639 
1922.000000	2.401041 
1921.000000	2.399420 
1920.000000	2.397823 
1919.000000	2.396273 
1918.000000	2.394819 
1917.000000	2.393531 
1916.000000	2.392387 
1915.000000	2.391338 
1914.000000	2.390384 
1913.000000	2.389502 
1912.000000	2.388668 
1911.000000	2.387857 
1910.000000	2.387022 
1909.000000	2.386236 
1908.000000	2.385449 
1907.000000	2.384543 
1906.000000	2.383637 
1905.000000	2.382707 
1904.000000	2.381706 
1903.000000	2.380728 
1902.000000	2.379751 
1901.000000	2.378845 
1900.000000	2.377939 
1899.000000	2.377080 
1898.000000	2.376270 
1897.000000	2.375435 
1896.000000	2.374672 
1895.000000	2.373909 
1894.000000	2.373194 
1893.000000	2.372598 
1892.000000	2.372145 
1891.000000	2.371931 
1890.000000	2.372002 
1889.000000	2.372384 
1888.000000	2.373051 
1887.000000	2.373981 
1886.000000	2.375030 
1885.000000	2.376151 
1884.000000	2.377200 
1883.000000	2.378129 
1882.000000	2.378892 
1881.000000	2.379417 
1880.000000	2.379751 
1879.000000	2.379918 
1878.000000	2.379965 
1877.000000	2.379870 
1876.000000	2.379727 
1875.000000	2.379441 
1874.000000	2.379131 
1873.000000	2.378797 
1872.000000	2.378511 
1871.000000	2.378344 
1870.000000	2.378392 
1869.000000	2.378726 
1868.000000	2.379393 
1867.000000	2.380418 
1866.000000	2.381801 
1865.000000	2.383327 
1864.000000	2.385044 
1863.000000	2.386736 
1862.000000	2.388358 
1861.000000	2.389836 
1860.000000	2.391076 
1859.000000	2.392125 
1858.000000	2.393031 
1857.000000	2.393770 
1856.000000	2.394437 
1855.000000	2.395009 
1854.000000	2.395486 
1853.000000	2.395844 
1852.000000	2.396035 
1851.000000	2.396082 
1850.000000	2.395892 
1849.000000	2.395629 
1848.000000	2.395367 
1847.000000	2.395248 
1846.000000	2.395391 
1845.000000	2.395939 
1844.000000	2.396941 
1843.000000	2.398371 
1842.000000	2.400183 
1841.000000	2.402210 
1840.000000	2.404284 
1839.000000	2.406263 
1838.000000	2.407932 
1837.000000	2.409267 
1836.000000	2.410197 
1835.000000	2.410745 
1834.000000	2.411007 
1833.000000	2.411079 
1832.000000	2.411103 
1831.000000	2.411198 
1830.000000	2.411484 
1829.000000	2.411985 
1828.000000	2.412748 
1827.000000	2.413821 
1826.000000	2.415108 
1825.000000	2.416563 
1824.000000	2.418088 
1823.000000	2.419638 
1822.000000	2.421116 
1821.000000	2.422475 
1820.000000	2.423667 
1819.000000	2.424645 
1818.000000	2.425456 
1817.000000	2.426147 
1816.000000	2.426719 
1815.000000	2.427268 
1814.000000	2.427840 
1813.000000	2.428531 
1812.000000	2.429294 
1811.000000	2.430129 
1810.000000	2.430963 
1809.000000	2.431726 
1808.000000	2.432394 
1807.000000	2.432870 
1806.000000	2.433133 
1805.000000	2.433204 
1804.000000	2.433156 
1803.000000	2.432966 
1802.000000	2.432703 
1801.000000	2.432394 
1800.000000	2.432036 
1799.000000	2.431607 
1798.000000	2.431106 
1797.000000	2.430534 
1796.000000	2.429986 
1795.000000	2.429485 
1794.000000	2.429080 
1793.000000	2.428865 
1792.000000	2.428865 
1791.000000	2.429056 
1790.000000	2.429413 
1789.000000	2.429890 
1788.000000	2.430343 
1787.000000	2.430772 
1786.000000	2.431154 
1785.000000	2.431416 
1784.000000	2.431488 
1783.000000	2.431368 
1782.000000	2.431011 
1781.000000	2.430343 
1780.000000	2.429246 
1779.000000	2.427697 
1778.000000	2.425622 
1777.000000	2.423143 
1776.000000	2.420425 
1775.000000	2.417659 
1774.000000	2.415108 
1773.000000	2.413082 
1772.000000	2.411723 
1771.000000	2.411079 
1770.000000	2.411127 
1769.000000	2.411675 
1768.000000	2.412462 
1767.000000	2.413201 
1766.000000	2.413725 
1765.000000	2.413845 
1764.000000	2.413535 
1763.000000	2.412843 
1762.000000	2.411794 
1761.000000	2.410483 
1760.000000	2.408885 
1759.000000	2.407026 
1758.000000	2.404856 
1757.000000	2.402329 
1756.000000	2.399444 
1755.000000	2.396225 
1754.000000	2.392768 
1753.000000	2.389192 
1752.000000	2.385687 
1751.000000	2.382397 
1750.000000	2.379393 
1749.000000	2.376651 
1748.000000	2.374100 
1747.000000	2.371621 
1746.000000	2.369022 
1745.000000	2.366137 
1744.000000	2.362823 
1743.000000	2.358961 
1742.000000	2.354526 
1741.000000	2.349543 
1740.000000	2.344179 
1739.000000	2.338719 
1738.000000	2.333378 
1737.000000	2.328515 
1736.000000	2.324461 
1735.000000	2.321529 
1734.000000	2.319908 
1733.000000	2.319574 
1732.000000	2.320384 
1731.000000	2.322101 
1730.000000	2.324318 
1729.000000	2.326583 
1728.000000	2.328395 
1727.000000	2.329373 
1726.000000	2.329206 
1725.000000	2.327728 
1724.000000	2.324986 
1723.000000	2.321147 
1722.000000	2.316546 
1721.000000	2.311635 
1720.000000	2.306914 
1719.000000	2.302742 
1718.000000	2.299547 
1717.000000	2.297520 
1716.000000	2.296614 
1715.000000	2.296686 
1714.000000	2.297401 
1713.000000	2.298331 
1712.000000	2.299022 
1711.000000	2.299022 
1710.000000	2.298092 
1709.000000	2.296042 
1708.000000	2.292823 
1707.000000	2.288532 
1706.000000	2.283287 
1705.000000	2.277326 
1704.000000	2.270913 
1703.000000	2.264475 
1702.000000	2.258276 
1701.000000	2.252769 
1700.000000	2.248382 
1699.000000	2.245450 
1698.000000	2.244138 
1697.000000	2.244448 
1696.000000	2.246165 
1695.000000	2.248811 
1694.000000	2.251791 
1693.000000	2.254366 
1692.000000	2.255940 
1691.000000	2.256083 
1690.000000	2.254700 
1689.000000	2.251887 
1688.000000	2.248144 
1687.000000	2.244043 
1686.000000	2.240204 
1685.000000	2.237129 
1684.000000	2.235150 
1683.000000	2.234339 
1682.000000	2.234435 
1681.000000	2.235031 
1680.000000	2.235627 
1679.000000	2.235865 
1678.000000	2.235412 
1677.000000	2.234244 
1676.000000	2.232384 
1675.000000	2.230167 
1674.000000	2.227735 
1673.000000	2.225399 
1672.000000	2.223300 
1671.000000	2.221536 
1670.000000	2.220010 
1669.000000	2.218699 
1668.000000	2.217531 
1667.000000	2.216410 
1666.000000	2.215242 
1665.000000	2.213954 
1664.000000	2.212429 
1663.000000	2.210474 
1662.000000	2.207851 
1661.000000	2.204370 
1660.000000	2.199840 
1659.000000	2.194261 
1658.000000	2.187800 
1657.000000	2.180814 
1656.000000	2.173829 
1655.000000	2.167367 
1654.000000	2.162027 
1653.000000	2.158045 
1652.000000	2.155661 
1651.000000	2.154779 
1650.000000	2.155160 
1649.000000	2.156376 
1648.000000	2.157998 
1647.000000	2.159667 
1646.000000	2.161026 
1645.000000	2.161788 
1644.000000	2.161788 
1643.000000	2.160930 
1642.000000	2.159237 
1641.000000	2.156734 
1640.000000	2.153611 
1639.000000	2.150034 
1638.000000	2.146387 
1637.000000	2.142858 
1636.000000	2.139806 
1635.000000	2.137303 
1634.000000	2.135372 
1633.000000	2.133870 
1632.000000	2.132511 
1631.000000	2.130985 
1630.000000	2.129077 
1629.000000	2.126550 
1628.000000	2.123332 
1627.000000	2.119445 
1626.000000	2.114844 
1625.000000	2.109646 
1624.000000	2.103829 
1623.000000	2.097487 
1622.000000	2.090525 
1621.000000	2.082991 
1620.000000	2.074909 
1619.000000	2.066254 
1618.000000	2.057123 
1617.000000	2.047586 
1616.000000	2.037811 
1615.000000	2.027916 
1614.000000	2.017974 
1613.000000	2.008295 
1612.000000	1.999068 
1611.000000	1.990580 
1610.000000	1.983213 
1609.000000	1.977252 
1608.000000	1.973032 
1607.000000	1.970672 
1606.000000	1.970267 
1605.000000	1.971650 
1604.000000	1.974558 
1603.000000	1.978635 
1602.000000	1.983451 
1601.000000	1.988601 
1600.000000	1.993680 
1599.000000	1.998496 
1598.000000	2.002835 
1597.000000	2.006554 
1596.000000	2.009606 
1595.000000	2.012014 
1594.000000	2.013802 
1593.000000	2.015066 
1592.000000	2.015757 
1591.000000	2.016019 
1590.000000	2.015900 
1589.000000	2.015399 
1588.000000	2.014541 
1587.000000	2.013301 
1586.000000	2.011632 
1585.000000	2.009439 
1584.000000	2.006673 
1583.000000	2.003407 
1582.000000	1.999711 
1581.000000	1.995706 
1580.000000	1.991653 
1579.000000	1.987838 
1578.000000	1.984500 
1577.000000	1.981878 
1576.000000	1.980042 
1575.000000	1.978969 
1574.000000	1.978540 
1573.000000	1.978516 
1572.000000	1.978683 
1571.000000	1.978683 
1570.000000	1.978230 
1569.000000	1.976966 
1568.000000	1.974582 
1567.000000	1.970934 
1566.000000	1.965808 
1565.000000	1.959371 
1564.000000	1.951909 
1563.000000	1.943922 
1562.000000	1.936078 
1561.000000	1.929068 
1560.000000	1.923727 
1559.000000	1.920580 
1558.000000	1.919865 
1557.000000	1.921606 
1556.000000	1.925444 
1555.000000	1.930809 
1554.000000	1.936912 
1553.000000	1.943016 
1552.000000	1.948499 
1551.000000	1.952791 
1550.000000	1.955652 
1549.000000	1.957011 
1548.000000	1.957082 
1547.000000	1.956176 
1546.000000	1.954936 
1545.000000	1.953935 
1544.000000	1.953983 
1543.000000	1.955699 
1542.000000	1.959657 
1541.000000	1.966190 
1540.000000	1.975297 
1539.000000	1.986813 
1538.000000	2.000260 
1537.000000	2.014899 
1536.000000	2.030014 
1535.000000	2.044844 
1534.000000	2.058744 
1533.000000	2.071166 
1532.000000	2.081799 
1531.000000	2.090573 
1530.000000	2.097487 
1529.000000	2.102589 
1528.000000	2.106046 
1527.000000	2.108168 
1526.000000	2.109193 
1525.000000	2.109360 
1524.000000	2.108931 
1523.000000	2.108144 
1522.000000	2.107214 
1521.000000	2.106237 
1520.000000	2.105259 
1519.000000	2.104234 
1518.000000	2.103114 
1517.000000	2.101802 
1516.000000	2.100086 
1515.000000	2.097773 
1514.000000	2.094793 
1513.000000	2.091026 
1512.000000	2.086448 
1511.000000	2.080917 
1510.000000	2.074480 
1509.000000	2.066826 
1508.000000	2.057719 
1507.000000	2.046346 
1506.000000	2.032017 
1505.000000	2.013754 
1504.000000	1.990771 
1503.000000	1.962399 
1502.000000	1.928663 
1501.000000	1.890158 
1500.000000	1.848435 
1499.000000	1.805639 
1498.000000	1.764488 
1497.000000	1.727914 
1496.000000	1.698637 
1495.000000	1.678705 
1494.000000	1.669287 
1493.000000	1.670575 
1492.000000	1.681900 
1491.000000	1.701617 
1490.000000	1.727604 
1489.000000	1.757526 
1488.000000	1.789259 
1487.000000	1.820850 
1486.000000	1.850676 
1485.000000	1.877689 
1484.000000	1.901268 
1483.000000	1.921081 
1482.000000	1.937055 
1481.000000	1.949405 
1480.000000	1.958394 
1479.000000	1.964569 
1478.000000	1.968431 
1477.000000	1.970553 
1476.000000	1.971316 
1475.000000	1.971316 
1474.000000	1.970887 
1473.000000	1.970195 
1472.000000	1.969170 
1471.000000	1.967906 
1470.000000	1.966214 
1469.000000	1.963853 
1468.000000	1.960563 
1467.000000	1.956152 
1466.000000	1.950407 
1465.000000	1.942920 
1464.000000	1.933646 
1463.000000	1.922297 
1462.000000	1.908898 
1461.000000	1.893448 
1460.000000	1.876187 
1459.000000	1.857566 
1458.000000	1.838302 
1457.000000	1.819324 
1456.000000	1.801443 
1455.000000	1.785731 
1454.000000	1.773118 
1453.000000	1.764464 
1452.000000	1.760125 
1451.000000	1.760196 
1450.000000	1.764512 
1449.000000	1.772475 
1448.000000	1.783108 
1447.000000	1.795363 
1446.000000	1.808094 
1445.000000	1.820302 
1444.000000	1.831102 
1443.000000	1.840043 
1442.000000	1.846933 
1441.000000	1.851892 
1440.000000	1.855206 
1439.000000	1.857399 
1438.000000	1.858925 
1437.000000	1.860237 
1436.000000	1.861500 
1435.000000	1.862859 
1434.000000	1.864314 
1433.000000	1.865720 
1432.000000	1.867032 
1431.000000	1.868128 
1430.000000	1.868844 
1429.000000	1.869177 
1428.000000	1.869082 
1427.000000	1.868510 
1426.000000	1.867437 
1425.000000	1.865887 
1424.000000	1.863932 
1423.000000	1.861596 
1422.000000	1.858997 
1421.000000	1.856303 
1420.000000	1.853585 
1419.000000	1.850914 
1418.000000	1.848196 
1417.000000	1.845264 
1416.000000	1.841783 
1415.000000	1.837420 
1414.000000	1.831817 
1413.000000	1.824688 
1412.000000	1.815819 
1411.000000	1.805353 
1410.000000	1.793479 
1409.000000	1.780724 
1408.000000	1.767730 
1407.000000	1.755332 
1406.000000	1.744270 
1405.000000	1.735329 
1404.000000	1.728940 
1403.000000	1.725506 
1402.000000	1.725006 
1401.000000	1.727342 
1400.000000	1.732087 
1399.000000	1.738739 
1398.000000	1.746702 
1397.000000	1.755356 
1396.000000	1.764035 
1395.000000	1.772165 
1394.000000	1.779198 
1393.000000	1.784801 
1392.000000	1.788735 
1391.000000	1.790928 
1390.000000	1.791548 
1389.000000	1.790904 
1388.000000	1.789498 
1387.000000	1.787829 
1386.000000	1.786494 
1385.000000	1.785945 
1384.000000	1.786398 
1383.000000	1.787948 
1382.000000	1.790499 
1381.000000	1.793742 
1380.000000	1.797342 
1379.000000	1.800942 
1378.000000	1.804280 
1377.000000	1.807236 
1376.000000	1.809644 
1375.000000	1.811623 
1374.000000	1.813220 
1373.000000	1.814484 
1372.000000	1.815438 
1371.000000	1.816153 
1370.000000	1.816606 
1369.000000	1.816797 
1368.000000	1.816773 
1367.000000	1.816558 
1366.000000	1.816225 
1365.000000	1.815867 
1364.000000	1.815605 
1363.000000	1.815485 
1362.000000	1.815509 
1361.000000	1.815652 
1360.000000	1.815819 
1359.000000	1.815962 
1358.000000	1.815986 
1357.000000	1.815867 
1356.000000	1.815581 
1355.000000	1.815176 
1354.000000	1.814675 
1353.000000	1.814150 
1352.000000	1.813673 
1351.000000	1.813268 
1350.000000	1.812958 
1349.000000	1.812672 
1348.000000	1.812481 
1347.000000	1.812314 
1346.000000	1.812171 
1345.000000	1.812100 
1344.000000	1.812148 
1343.000000	1.812481 
1342.000000	1.813101 
1341.000000	1.814126 
1340.000000	1.815676 
1339.000000	1.817703 
1338.000000	1.820182 
1337.000000	1.823043 
1336.000000	1.826143 
1335.000000	1.829385 
1334.000000	1.832580 
1333.000000	1.835656 
1332.000000	1.838517 
1331.000000	1.841068 
1330.000000	1.843309 
1329.000000	1.845240 
1328.000000	1.846861 
1327.000000	1.848196 
1326.000000	1.849389 
1325.000000	1.850390 
1324.000000	1.851272 
1323.000000	1.852130 
1322.000000	1.852917 
1321.000000	1.853728 
1320.000000	1.854491 
1319.000000	1.855278 
1318.000000	1.856017 
1317.000000	1.856660 
1316.000000	1.857185 
1315.000000	1.857590 
1314.000000	1.857852 
1313.000000	1.857995 
1312.000000	1.857995 
1311.000000	1.857900 
1310.000000	1.857781 
1309.000000	1.857614 
1308.000000	1.857495 
1307.000000	1.857399 
1306.000000	1.857328 
1305.000000	1.857256 
1304.000000	1.857209 
1303.000000	1.857185 
1302.000000	1.857161 
1301.000000	1.857113 
1300.000000	1.857066 
1299.000000	1.857042 
1298.000000	1.857018 
1297.000000	1.856970 
1296.000000	1.856827 
1295.000000	1.856637 
1294.000000	1.856398 
1293.000000	1.856064 
1292.000000	1.855635 
1291.000000	1.855158 
1290.000000	1.854658 
1289.000000	1.854205 
1288.000000	1.853823 
1287.000000	1.853466 
1286.000000	1.853203 
1285.000000	1.852893 
1284.000000	1.852464 
1283.000000	1.851844 
1282.000000	1.850938 
1281.000000	1.849675 
1280.000000	1.847863 
1279.000000	1.845526 
1278.000000	1.842522 
1277.000000	1.838874 
1276.000000	1.834392 
1275.000000	1.829075 
1274.000000	1.822757 
1273.000000	1.815414 
1272.000000	1.806950 
1271.000000	1.797366 
1270.000000	1.786804 
1269.000000	1.775455 
1268.000000	1.763701 
1267.000000	1.752042 
1266.000000	1.741051 
1265.000000	1.731348 
1264.000000	1.723647 
1263.000000	1.718473 
1262.000000	1.716184 
1261.000000	1.716947 
1260.000000	1.720714 
1259.000000	1.727175 
1258.000000	1.735806 
1257.000000	1.745939 
1256.000000	1.756930 
1255.000000	1.768088 
1254.000000	1.778912 
1253.000000	1.788949 
1252.000000	1.797986 
1251.000000	1.805901 
1250.000000	1.812672 
1249.000000	1.818394 
1248.000000	1.823210 
1247.000000	1.827168 
1246.000000	1.830387 
1245.000000	1.832866 
1244.000000	1.834774 
1243.000000	1.836085 
1242.000000	1.836919 
1241.000000	1.837301 
1240.000000	1.837325 
1239.000000	1.837086 
1238.000000	1.836681 
1237.000000	1.836109 
1236.000000	1.835465 
1235.000000	1.834726 
1234.000000	1.833868 
1233.000000	1.832842 
1232.000000	1.831650 
1231.000000	1.830220 
1230.000000	1.828575 
1229.000000	1.826715 
1228.000000	1.824617 
1227.000000	1.822280 
1226.000000	1.819729 
1225.000000	1.816987 
1224.000000	1.814079 
1223.000000	1.810860 
1222.000000	1.807427 
1221.000000	1.803636 
1220.000000	1.799511 
1219.000000	1.794981 
1218.000000	1.790046 
1217.000000	1.784849 
1216.000000	1.779460 
1215.000000	1.774072 
1214.000000	1.768803 
1213.000000	1.763892 
1212.000000	1.759433 
1211.000000	1.755547 
1210.000000	1.752328 
1209.000000	1.749753 
1208.000000	1.747798 
1207.000000	1.746416 
1206.000000	1.745486 
1205.000000	1.744937 
1204.000000	1.744604 
1203.000000	1.744461 
1202.000000	1.744413 
1201.000000	1.744413 
1200.000000	1.744389 
1199.000000	1.744318 
1198.000000	1.744174 
1197.000000	1.743912 
1196.000000	1.743459 
1195.000000	1.742839 
1194.000000	1.741957 
1193.000000	1.740860 
1192.000000	1.739478 
1191.000000	1.737856 
1190.000000	1.735997 
1189.000000	1.733946 
1188.000000	1.731705 
1187.000000	1.729345 
1186.000000	1.726913 
1185.000000	1.724433 
1184.000000	1.721978 
1183.000000	1.719522 
1182.000000	1.717066 
1181.000000	1.714611 
1180.000000	1.712083 
1179.000000	1.709485 
1178.000000	1.706767 
1177.000000	1.703834 
1176.000000	1.700687 
1175.000000	1.697230 
1174.000000	1.693534 
1173.000000	1.689553 
1172.000000	1.685357 
1171.000000	1.680898 
1170.000000	1.676344 
1169.000000	1.671648 
1168.000000	1.666879 
1167.000000	1.662087 
1166.000000	1.657271 
1165.000000	1.652479 
1164.000000	1.647734 
1163.000000	1.643037 
1162.000000	1.638507 
1161.000000	1.634192 
1160.000000	1.630187 
1159.000000	1.626586 
1158.000000	1.623415 
1157.000000	1.620745 
1156.000000	1.618552 
1155.000000	1.616740 
1154.000000	1.615285 
1153.000000	1.614069 
1152.000000	1.612973 
1151.000000	1.611924 
1150.000000	1.610779 
1149.000000	1.609444 
1148.000000	1.607894 
1147.000000	1.606082 
1146.000000	1.604008 
1145.000000	1.601672 
1144.000000	1.599073 
1143.000000	1.596236 
1142.000000	1.593232 
1141.000000	1.590013 
1140.000000	1.586699 
1139.000000	1.583218 
1138.000000	1.579666 
1137.000000	1.576018 
1136.000000	1.572299 
1135.000000	1.568460 
1134.000000	1.564502 
1133.000000	1.560378 
1132.000000	1.556134 
1131.000000	1.551699 
1130.000000	1.547169 
1129.000000	1.542496 
1128.000000	1.537704 
1127.000000	1.532912 
1126.000000	1.528048 
1125.000000	1.523137 
1124.000000	1.518177 
1123.000000	1.513147 
1122.000000	1.508045 
1121.000000	1.502823 
1120.000000	1.497554 
1119.000000	1.492214 
1118.000000	1.486825 
1117.000000	1.481461 
1116.000000	1.476120 
1115.000000	1.470899 
1114.000000	1.465868 
1113.000000	1.461076 
1112.000000	1.456594 
1111.000000	1.452445 
1110.000000	1.448655 
1109.000000	1.445341 
1108.000000	1.442432 
1107.000000	1.439857 
1106.000000	1.437616 
1105.000000	1.435637 
1104.000000	1.433897 
1103.000000	1.432275 
1102.000000	1.430773 
1101.000000	1.429343 
1100.000000	1.428031 
1099.000000	1.426768 
1098.000000	1.425576 
1097.000000	1.424431 
1096.000000	1.423430 
1095.000000	1.422524 
1094.000000	1.421833 
1093.000000	1.421380 
1092.000000	1.421236 
1091.000000	1.421427 
1090.000000	1.421833 
1089.000000	1.422500 
1088.000000	1.423263 
1087.000000	1.423931 
1086.000000	1.424527 
1085.000000	1.424789 
1084.000000	1.424789 
1083.000000	1.424527 
1082.000000	1.424074 
1081.000000	1.423597 
1080.000000	1.423215 
1079.000000	1.423072 
1078.000000	1.423239 
1077.000000	1.423859 
1076.000000	1.424860 
1075.000000	1.426196 
1074.000000	1.427841 
1073.000000	1.429677 
1072.000000	1.431608 
1071.000000	1.433515 
1070.000000	1.435351 
1069.000000	1.436948 
1068.000000	1.438260 
1067.000000	1.439189 
1066.000000	1.439642 
1065.000000	1.439523 
1064.000000	1.438641 
1063.000000	1.436710 
1062.000000	1.433467 
1061.000000	1.428580 
1060.000000	1.421594 
1059.000000	1.412272 
1058.000000	1.400470 
1057.000000	1.386427 
1056.000000	1.370644 
1055.000000	1.353955 
1054.000000	1.337575 
1053.000000	1.322793 
1052.000000	1.310968 
1051.000000	1.302981 
1050.000000	1.299595 
1049.000000	1.300859 
1048.000000	1.306438 
1047.000000	1.315402 
1046.000000	1.326632 
1045.000000	1.338815 
1044.000000	1.350831 
1043.000000	1.361656 
1042.000000	1.370692 
1041.000000	1.377606 
1040.000000	1.382398 
1039.000000	1.385307 
1038.000000	1.386690 
1037.000000	1.386833 
1036.000000	1.386094 
1035.000000	1.384735 
1034.000000	1.382970 
1033.000000	1.380896 
1032.000000	1.378560 
1031.000000	1.376128 
1030.000000	1.373648 
1029.000000	1.371192 
1028.000000	1.368808 
1027.000000	1.366639 
1026.000000	1.364707 
1025.000000	1.363062 
1024.000000	1.361727 
1023.000000	1.360797 
1022.000000	1.360273 
1021.000000	1.360177 
1020.000000	1.360511 
1019.000000	1.361298 
1018.000000	1.362538 
1017.000000	1.364159 
1016.000000	1.366138 
1015.000000	1.368427 
1014.000000	1.371026 
1013.000000	1.373815 
1012.000000	1.376724 
1011.000000	1.379680 
1010.000000	1.382660 
1009.000000	1.385498 
1008.000000	1.388168 
1007.000000	1.390647 
1006.000000	1.392865 
1005.000000	1.394796 
1004.000000	1.396489 
1003.000000	1.397871 
1002.000000	1.398968 
1001.000000	1.399850 
1000.000000	1.400470 
999.000000	 1.400828 
998.000000	 1.400923 
997.000000	 1.400732 
996.000000	 1.400279 
995.000000	 1.399636 
994.000000	 1.398777 
993.000000	 1.397752 
992.000000	 1.396584 
991.000000	 1.395320 
990.000000	 1.393938 
989.000000	 1.392459 
988.000000	 1.390886 
987.000000	 1.389217 
986.000000	 1.387453 
985.000000	 1.385593 
984.000000	 1.383686 
983.000000	 1.381754 
982.000000	 1.379847 
981.000000	 1.377916 
980.000000	 1.376008 
979.000000	 1.374101 
978.000000	 1.372146 
977.000000	 1.370143 
976.000000	 1.367998 
975.000000	 1.365661 
974.000000	 1.363134 
973.000000	 1.360344 
972.000000	 1.357316 
971.000000	 1.354074 
970.000000	 1.350641 
969.000000	 1.347041 
968.000000	 1.343345 
967.000000	 1.339626 
966.000000	 1.335930 
965.000000	 1.332211 
964.000000	 1.328563 
963.000000	 1.324939 
962.000000	 1.321339 
961.000000	 1.317787 
960.000000	 1.314234 
959.000000	 1.310682 
958.000000	 1.307129 
957.000000	 1.303577 
956.000000	 1.300001 
955.000000	 1.296472 
954.000000	 1.292920 
953.000000	 1.289415 
952.000000	 1.285934 
951.000000	 1.282596 
950.000000	 1.279425 
949.000000	 1.276421 
948.000000	 1.273679 
947.000000	 1.271295 
946.000000	 1.269102 
945.000000	 1.267194 
944.000000	 1.265430 
943.000000	 1.263833 
942.000000	 1.262259 
941.000000	 1.260662 
940.000000	 1.259016 
939.000000	 1.257252 
938.000000	 1.255393 
937.000000	 1.253414 
936.000000	 1.251411 
935.000000	 1.249361 
934.000000	 1.247262 
933.000000	 1.245141 
932.000000	 1.242971 
931.000000	 1.240730 
930.000000	 1.238489 
929.000000	 1.236200 
928.000000	 1.233935 
927.000000	 1.231646 
926.000000	 1.229381 
925.000000	 1.227092 
924.000000	 1.224803 
923.000000	 1.222467 
922.000000	 1.220035 
921.000000	 1.217436 
920.000000	 1.214623 
919.000000	 1.211524 
918.000000	 1.208138 
917.000000	 1.204490 
916.000000	 1.200628 
915.000000	 1.196575 
914.000000	 1.192498 
913.000000	 1.188468 
912.000000	 1.184582 
911.000000	 1.180887 
910.000000	 1.177453 
909.000000	 1.174306 
908.000000	 1.171445 
907.000000	 1.168847 
906.000000	 1.166486 
905.000000	 1.164340 
904.000000	 1.162362 
903.000000	 1.160502 
902.000000	 1.158738 
901.000000	 1.157093 
900.000000	 1.155519 
899.000000	 1.153993 
898.000000	 1.152515 
897.000000	 1.151037 
896.000000	 1.149535 
895.000000	 1.147913 
894.000000	 1.145982 
893.000000	 1.143670 
892.000000	 1.140832 
891.000000	 1.137304 
890.000000	 1.132917 
889.000000	 1.127576 
888.000000	 1.121330 
887.000000	 1.114153 
886.000000	 1.106119 
885.000000	 1.097393 
884.000000	 1.088166 
883.000000	 1.078677 
882.000000	 1.069259 
881.000000	 1.060128 
880.000000	 1.051640 
879.000000	 1.044106 
878.000000	 1.037883 
877.000000	 1.033258 
876.000000	 1.030349 
875.000000	 1.029324 
874.000000	 1.030182 
873.000000	 1.032781 
872.000000	 1.036906 
871.000000	 1.042246 
870.000000	 1.048445 
869.000000	 1.055121 
868.000000	 1.061868 
867.000000	 1.068425 
866.000000	 1.074433 
865.000000	 1.079702 
864.000000	 1.084232 
863.000000	 1.087927 
862.000000	 1.090788 
861.000000	 1.092791 
860.000000	 1.094031 
859.000000	 1.094627 
858.000000	 1.094651 
857.000000	 1.094150 
856.000000	 1.093220 
855.000000	 1.091980 
854.000000	 1.090502 
853.000000	 1.088857 
852.000000	 1.087117 
851.000000	 1.085329 
850.000000	 1.083612 
849.000000	 1.081895 
848.000000	 1.080203 
847.000000	 1.078510 
846.000000	 1.076769 
845.000000	 1.074910 
844.000000	 1.072835 
843.000000	 1.070451 
842.000000	 1.067519 
841.000000	 1.063871 
840.000000	 1.059317 
839.000000	 1.053595 
838.000000	 1.046466 
837.000000	 1.037645 
836.000000	 1.026964 
835.000000	 1.014232 
834.000000	 0.999450 
833.000000	 0.982713 
832.000000	 0.964283 
831.000000	 0.944709 
830.000000	 0.924682 
829.000000	 0.905084 
828.000000	 0.887012 
827.000000	 0.871467 
826.000000	 0.859332 
825.000000	 0.851392 
824.000000	 0.847935 
823.000000	 0.848984 
822.000000	 0.854086 
821.000000	 0.862574 
820.000000	 0.873398 
819.000000	 0.885534 
818.000000	 0.897932 
817.000000	 0.909709 
816.000000	 0.920224 
815.000000	 0.929069 
814.000000	 0.936126 
813.000000	 0.941419 
812.000000	 0.945115 
811.000000	 0.947499 
810.000000	 0.948905 
809.000000	 0.949501 
808.000000	 0.949549 
807.000000	 0.949287 
806.000000	 0.948858 
805.000000	 0.948309 
804.000000	 0.947833 
803.000000	 0.947427 
802.000000	 0.947237 
801.000000	 0.947237 
800.000000	 0.947451 
799.000000	 0.947976 
798.000000	 0.948810 
797.000000	 0.949931 
796.000000	 0.951409 
795.000000	 0.953197 
794.000000	 0.955295 
793.000000	 0.957632 
792.000000	 0.960135 
791.000000	 0.962781 
790.000000	 0.965452 
789.000000	 0.968074 
788.000000	 0.970506 
787.000000	 0.972723 
786.000000	 0.974678 
785.000000	 0.976276 
784.000000	 0.977563 
783.000000	 0.978493 
782.000000	 0.979113 
781.000000	 0.979399 
780.000000	 0.979423 
779.000000	 0.979208 
778.000000	 0.978803 
777.000000	 0.978231 
776.000000	 0.977540 
775.000000	 0.976824 
774.000000	 0.976037 
773.000000	 0.975227 
772.000000	 0.974464 
771.000000	 0.973749 
770.000000	 0.973057 
769.000000	 0.972414 
768.000000	 0.971746 
767.000000	 0.971055 
766.000000	 0.970339 
765.000000	 0.969552 
764.000000	 0.968718 
763.000000	 0.967812 
762.000000	 0.966858 
761.000000	 0.965857 
760.000000	 0.964832 
759.000000	 0.963807 
758.000000	 0.962758 
757.000000	 0.961661 
756.000000	 0.960540 
755.000000	 0.959420 
754.000000	 0.958228 
753.000000	 0.956988 
752.000000	 0.955700 
751.000000	 0.954389 
750.000000	 0.953030 
749.000000	 0.951623 
748.000000	 0.950169 
747.000000	 0.948643 
746.000000	 0.947022 
745.000000	 0.945258 
744.000000	 0.943374 
743.000000	 0.941371 
742.000000	 0.939273 
741.000000	 0.937056 
740.000000	 0.934791 
739.000000	 0.932502 
738.000000	 0.930142 
737.000000	 0.927782 
736.000000	 0.925326 
735.000000	 0.922822 
734.000000	 0.920176 
733.000000	 0.917363 
732.000000	 0.914430 
731.000000	 0.911331 
730.000000	 0.908112 
729.000000	 0.904870 
728.000000	 0.901627 
727.000000	 0.898408 
726.000000	 0.895309 
725.000000	 0.892376 
724.000000	 0.889587 
723.000000	 0.886893 
722.000000	 0.884294 
721.000000	 0.881743 
720.000000	 0.879216 
719.000000	 0.876688 
718.000000	 0.874066 
717.000000	 0.871396 
716.000000	 0.868654 
715.000000	 0.865793 
714.000000	 0.862884 
713.000000	 0.859928 
712.000000	 0.856876 
711.000000	 0.853729 
710.000000	 0.850558 
709.000000	 0.847339 
708.000000	 0.844025 
707.000000	 0.840640 
706.000000	 0.837159 
705.000000	 0.833559 
704.000000	 0.829839 
703.000000	 0.826025 
702.000000	 0.822019 
701.000000	 0.817799 
700.000000	 0.813388 
699.000000	 0.808668 
698.000000	 0.803494 
697.000000	 0.797843 
696.000000	 0.791549 
695.000000	 0.784659 
694.000000	 0.777268 
693.000000	 0.769472 
692.000000	 0.761532 
691.000000	 0.753855 
690.000000	 0.746846 
689.000000	 0.740885 
688.000000	 0.736188 
687.000000	 0.732946 
686.000000	 0.731134 
685.000000	 0.730586 
684.000000	 0.730991 
683.000000	 0.732016 
682.000000	 0.733256 
681.000000	 0.734400 
680.000000	 0.735211 
679.000000	 0.735497 
678.000000	 0.735187 
677.000000	 0.734329 
676.000000	 0.732946 
675.000000	 0.731229 
674.000000	 0.729179 
673.000000	 0.726914 
672.000000	 0.724554 
671.000000	 0.722169 
670.000000	 0.719785 
669.000000	 0.717520 
668.000000	 0.715279 
667.000000	 0.713109 
666.000000	 0.710964 
665.000000	 0.708770 
664.000000	 0.706529 
663.000000	 0.704216 
662.000000	 0.701808 
661.000000	 0.699329 
660.000000	 0.696849 
659.000000	 0.694394 
658.000000	 0.691914 
657.000000	 0.689482 
656.000000	 0.687050 
655.000000	 0.684618 
654.000000	 0.682139 
653.000000	 0.679612 
652.000000	 0.676941 
651.000000	 0.674152 
650.000000	 0.671267 
649.000000	 0.668311 
648.000000	 0.665283 
647.000000	 0.662231 
646.000000	 0.659203 
645.000000	 0.656223 
644.000000	 0.653314 
643.000000	 0.650501 
642.000000	 0.647807 
641.000000	 0.645136 
640.000000	 0.642585 
639.000000	 0.640082 
638.000000	 0.637602 
637.000000	 0.635147 
636.000000	 0.632739 
635.000000	 0.630331 
634.000000	 0.627851 
633.000000	 0.625371 
632.000000	 0.622844 
631.000000	 0.620293 
630.000000	 0.617742 
629.000000	 0.615143 
628.000000	 0.612568 
627.000000	 0.609970 
626.000000	 0.607442 
625.000000	 0.604915 
624.000000	 0.602388 
623.000000	 0.599837 
622.000000	 0.597167 
621.000000	 0.594329 
620.000000	 0.591254 
619.000000	 0.587964 
618.000000	 0.584387 
617.000000	 0.580453 
616.000000	 0.576210 
615.000000	 0.571656 
614.000000	 0.566816 
613.000000	 0.561738 
612.000000	 0.556492 
611.000000	 0.551199 
610.000000	 0.545978 
609.000000	 0.541019 
608.000000	 0.536513 
607.000000	 0.532603 
606.000000	 0.529456 
605.000000	 0.527119 
604.000000	 0.525569 
603.000000	 0.524687 
602.000000	 0.524401 
601.000000	 0.524449 
600.000000	 0.524640 
599.000000	 0.524830 
598.000000	 0.524806 
597.000000	 0.524544 
596.000000	 0.523924 
595.000000	 0.523018 
594.000000	 0.521826 
593.000000	 0.520443 
592.000000	 0.518965 
591.000000	 0.517392 
590.000000	 0.515842 
589.000000	 0.514316 
588.000000	 0.512909 
587.000000	 0.511527 
586.000000	 0.510215 
585.000000	 0.508928 
584.000000	 0.507712 
583.000000	 0.506520 
582.000000	 0.505375 
581.000000	 0.504255 
580.000000	 0.503206 
579.000000	 0.502228 
578.000000	 0.501346 
577.000000	 0.500559 
576.000000	 0.499892 
575.000000	 0.499343 
574.000000	 0.498890 
573.000000	 0.498437 
572.000000	 0.497961 
571.000000	 0.497341 
570.000000	 0.496578 
569.000000	 0.495624 
568.000000	 0.494337 
567.000000	 0.492835 
566.000000	 0.491023 
565.000000	 0.489020 
564.000000	 0.486826 
563.000000	 0.484585 
562.000000	 0.482320 
561.000000	 0.480079 
560.000000	 0.477910 
559.000000	 0.475883 
558.000000	 0.473976 
557.000000	 0.472211 
556.000000	 0.470590 
555.000000	 0.469112 
554.000000	 0.467753 
553.000000	 0.466489 
552.000000	 0.465250 
551.000000	 0.463986 
550.000000	 0.462651 
549.000000	 0.461244 
548.000000	 0.459694 
547.000000	 0.457954 
546.000000	 0.456118 
545.000000	 0.454163 
544.000000	 0.452136 
543.000000	 0.450086 
542.000000	 0.448012 
541.000000	 0.445961 
540.000000	 0.444006 
539.000000	 0.442099 
538.000000	 0.440263 
537.000000	 0.438404 
536.000000	 0.436592 
535.000000	 0.434684 
534.000000	 0.432682 
533.000000	 0.430512 
532.000000	 0.428247 
531.000000	 0.425815 
530.000000	 0.423264 
529.000000	 0.420618 
528.000000	 0.417900 
527.000000	 0.415134 
526.000000	 0.412440 
525.000000	 0.409793 
524.000000	 0.407266 
523.000000	 0.404834 
522.000000	 0.402450 
521.000000	 0.400114 
520.000000	 0.397777 
519.000000	 0.395417 
518.000000	 0.393056 
517.000000	 0.390672 
516.000000	 0.388288 
515.000000	 0.385951 
514.000000	 0.383663 
513.000000	 0.381445 
512.000000	 0.379300 
511.000000	 0.377202 
510.000000	 0.375080 
509.000000	 0.372910 
508.000000	 0.370621 
507.000000	 0.368165 
506.000000	 0.365519 
505.000000	 0.362610 
504.000000	 0.359535 
503.000000	 0.356292 
502.000000	 0.352931 
501.000000	 0.349545 
500.000000	 0.346136 
499.000000	 0.342726 
498.000000	 0.339317 
497.000000	 0.335884 
496.000000	 0.332403 
495.000000	 0.328898 
494.000000	 0.325345 
493.000000	 0.321793 
492.000000	 0.318264 
491.000000	 0.314760 
490.000000	 0.311303 
489.000000	 0.307869 
488.000000	 0.304508 
487.000000	 0.301122 
486.000000	 0.297713 
485.000000	 0.294184 
484.000000	 0.290560 
483.000000	 0.286746 
482.000000	 0.282812 
481.000000	 0.278806 
480.000000	 0.274801 
479.000000	 0.270843 
478.000000	 0.267028 
477.000000	 0.263404 
476.000000	 0.260019 
475.000000	 0.256919 
474.000000	 0.254106 
473.000000	 0.251531 
472.000000	 0.249099 
471.000000	 0.246787 
470.000000	 0.244474 
469.000000	 0.242066 
468.000000	 0.239491 
467.000000	 0.236725 
466.000000	 0.233697 
465.000000	 0.230407 
464.000000	 0.226879 
463.000000	 0.223112 
462.000000	 0.219178 
461.000000	 0.215196 
460.000000	 0.211191 
459.000000	 0.207209 
458.000000	 0.203323 
457.000000	 0.199532 
456.000000	 0.195837 
455.000000	 0.192260 
454.000000	 0.188755 
453.000000	 0.185370 
452.000000	 0.182127 
451.000000	 0.178980 
450.000000	 0.176024 
449.000000	 0.173282 
448.000000	 0.170683 
447.000000	 0.168251 
446.000000	 0.165915 
445.000000	 0.163626 
444.000000	 0.161314 
443.000000	 0.158882 
442.000000	 0.156331 
441.000000	 0.153660 
440.000000	 0.150823 
439.000000	 0.147867 
438.000000	 0.144839 
437.000000	 0.141763 
436.000000	 0.138664 
435.000000	 0.135517 
434.000000	 0.132346 
433.000000	 0.129103 
432.000000	 0.125837 
431.000000	 0.122523 
430.000000	 0.119161 
429.000000	 0.115799 
428.000000	 0.112438 
427.000000	 0.109148 
426.000000	 0.105953 
425.000000	 0.102853 
424.000000	 0.099849 
423.000000	 0.096940 
422.000000	 0.094103 
421.000000	 0.091338 
420.000000	 0.088548 
419.000000	 0.085759 
418.000000	 0.082945 
417.000000	 0.080060 
416.000000	 0.077152 
415.000000	 0.074172 
414.000000	 0.071191 
413.000000	 0.068235 
412.000000	 0.065326 
411.000000	 0.062489 
410.000000	 0.059771 
409.000000	 0.057244 
408.000000	 0.054860 
407.000000	 0.052595 
406.000000	 0.050449 
405.000000	 0.048327 
404.000000	 0.046277 
403.000000	 0.044226 
402.000000	 0.042152 
401.000000	 0.040054 
400.000000	 0.037956 
399.000000	 0.035881 
398.000000	 0.033903 
397.000000	 0.032043 
396.000000	 0.030303 
395.000000	 0.028777 
394.000000	 0.027418 
393.000000	 0.026249 
392.000000	 0.025224 
391.000000	 0.024390 
390.000000	 0.023651 
389.000000	 0.022959 
388.000000	 0.022315 
387.000000	 0.021648 
386.000000	 0.020861 
385.000000	 0.019884 
384.000000	 0.018739 
383.000000	 0.017476 
382.000000	 0.016117 
381.000000	 0.014734 
380.000000	 0.013446 
379.000000	 0.012302 
378.000000	 0.011372 
377.000000	 0.010609 
376.000000	 0.009989 
375.000000	 0.009489 
374.000000	 0.009012 
373.000000	 0.008511 
372.000000	 0.007987 
371.000000	 0.007438 
370.000000	 0.006914 

