PE IR       SPECTRUM    SPECTRUM    ASCII       PEDS        1.60        
  -1
BZ097A~1.ASC
17/04/07
16:53:18.00
17/04/07
16:53:18.00
tln
$BZ1503107-1_e0124$<ebV0>[-23.3,12.1,10.0,0.0,27,1,0]
370.000000
64









2002,4.07    
MIRTGS : RIGHTBACK : INTERNAL 2
MIR : ON : INTERNAL 2
OPTKBR

0.200000
8
8.000000
FILLER
SINGLE
SPECTRUM
UNLOCKED 256

DOUBLE

COMBINED
1
0
0


1.000000
BACKG


1
0
TRUE
51149
0
LEFT NOT FITTED RIGHT NOT FITTED 0
NONE
NONE
15600
12.000000
4.427000
51148
TRUE
1 0 8 72 0 0 0 0 

15798.010000






#HDR
-1
-1
#GR
CM-1
EGY
0.00002384185791015625
0.0
5000.000000
-1.000000
4631
8
2.464175
0.008201
#DATA
5000.000000	0.774908 
4999.000000	0.773549 
4998.000000	0.772452 
4997.000000	0.771713 
4996.000000	0.771403 
4995.000000	0.771570 
4994.000000	0.772166 
4993.000000	0.773024 
4992.000000	0.774121 
4991.000000	0.775241 
4990.000000	0.776314 
4989.000000	0.777268 
4988.000000	0.778031 
4987.000000	0.778651 
4986.000000	0.779175 
4985.000000	0.779700 
4984.000000	0.780272 
4983.000000	0.780940 
4982.000000	0.781726 
4981.000000	0.782608 
4980.000000	0.783586 
4979.000000	0.784611 
4978.000000	0.785589 
4977.000000	0.786495 
4976.000000	0.787329 
4975.000000	0.788044 
4974.000000	0.788664 
4973.000000	0.789141 
4972.000000	0.789546 
4971.000000	0.789880 
4970.000000	0.790143 
4969.000000	0.790452 
4968.000000	0.790739 
4967.000000	0.791120 
4966.000000	0.791549 
4965.000000	0.792050 
4964.000000	0.792622 
4963.000000	0.793194 
4962.000000	0.793766 
4961.000000	0.794315 
4960.000000	0.794792 
4959.000000	0.795221 
4958.000000	0.795626 
4957.000000	0.796008 
4956.000000	0.796389 
4955.000000	0.796794 
4954.000000	0.797200 
4953.000000	0.797653 
4952.000000	0.798106 
4951.000000	0.798559 
4950.000000	0.799012 
4949.000000	0.799489 
4948.000000	0.799965 
4947.000000	0.800418 
4946.000000	0.800871 
4945.000000	0.801324 
4944.000000	0.801706 
4943.000000	0.801968 
4942.000000	0.802159 
4941.000000	0.802254 
4940.000000	0.802278 
4939.000000	0.802254 
4938.000000	0.802230 
4937.000000	0.802206 
4936.000000	0.802230 
4935.000000	0.802302 
4934.000000	0.802421 
4933.000000	0.802564 
4932.000000	0.802755 
4931.000000	0.803017 
4930.000000	0.803327 
4929.000000	0.803732 
4928.000000	0.804281 
4927.000000	0.804948 
4926.000000	0.805687 
4925.000000	0.806522 
4924.000000	0.807380 
4923.000000	0.808215 
4922.000000	0.808978 
4921.000000	0.809574 
4920.000000	0.809979 
4919.000000	0.810217 
4918.000000	0.810313 
4917.000000	0.810289 
4916.000000	0.810217 
4915.000000	0.810194 
4914.000000	0.810217 
4913.000000	0.810432 
4912.000000	0.810837 
4911.000000	0.811433 
4910.000000	0.812172 
4909.000000	0.813007 
4908.000000	0.813865 
4907.000000	0.814628 
4906.000000	0.815200 
4905.000000	0.815582 
4904.000000	0.815773 
4903.000000	0.815820 
4902.000000	0.815820 
4901.000000	0.815796 
4900.000000	0.815868 
4899.000000	0.816082 
4898.000000	0.816440 
4897.000000	0.816965 
4896.000000	0.817584 
4895.000000	0.818347 
4894.000000	0.819158 
4893.000000	0.819993 
4892.000000	0.820827 
4891.000000	0.821614 
4890.000000	0.822353 
4889.000000	0.823020 
4888.000000	0.823616 
4887.000000	0.824093 
4886.000000	0.824522 
4885.000000	0.824880 
4884.000000	0.825190 
4883.000000	0.825500 
4882.000000	0.825858 
4881.000000	0.826287 
4880.000000	0.826811 
4879.000000	0.827431 
4878.000000	0.828146 
4877.000000	0.828957 
4876.000000	0.829792 
4875.000000	0.830650 
4874.000000	0.831508 
4873.000000	0.832295 
4872.000000	0.833034 
4871.000000	0.833702 
4870.000000	0.834369 
4869.000000	0.834989 
4868.000000	0.835633 
4867.000000	0.836253 
4866.000000	0.836896 
4865.000000	0.837492 
4864.000000	0.838065 
4863.000000	0.838565 
4862.000000	0.839018 
4861.000000	0.839400 
4860.000000	0.839734 
4859.000000	0.840091 
4858.000000	0.840497 
4857.000000	0.840950 
4856.000000	0.841546 
4855.000000	0.842237 
4854.000000	0.843024 
4853.000000	0.843834 
4852.000000	0.844645 
4851.000000	0.845456 
4850.000000	0.846195 
4849.000000	0.846815 
4848.000000	0.847363 
4847.000000	0.847840 
4846.000000	0.848269 
4845.000000	0.848674 
4844.000000	0.849103 
4843.000000	0.849628 
4842.000000	0.850200 
4841.000000	0.850892 
4840.000000	0.851655 
4839.000000	0.852513 
4838.000000	0.853443 
4837.000000	0.854372 
4836.000000	0.855278 
4835.000000	0.856113 
4834.000000	0.856852 
4833.000000	0.857448 
4832.000000	0.857949 
4831.000000	0.858402 
4830.000000	0.858807 
4829.000000	0.859260 
4828.000000	0.859808 
4827.000000	0.860500 
4826.000000	0.861263 
4825.000000	0.862097 
4824.000000	0.862979 
4823.000000	0.863814 
4822.000000	0.864601 
4821.000000	0.865292 
4820.000000	0.865912 
4819.000000	0.866460 
4818.000000	0.866961 
4817.000000	0.867486 
4816.000000	0.868034 
4815.000000	0.868630 
4814.000000	0.869250 
4813.000000	0.869870 
4812.000000	0.870513 
4811.000000	0.871181 
4810.000000	0.871872 
4809.000000	0.872588 
4808.000000	0.873374 
4807.000000	0.874161 
4806.000000	0.875020 
4805.000000	0.875854 
4804.000000	0.876593 
4803.000000	0.877261 
4802.000000	0.877857 
4801.000000	0.878357 
4800.000000	0.878787 
4799.000000	0.879192 
4798.000000	0.879573 
4797.000000	0.880026 
4796.000000	0.880551 
4795.000000	0.881195 
4794.000000	0.881934 
4793.000000	0.882792 
4792.000000	0.883698 
4791.000000	0.884628 
4790.000000	0.885510 
4789.000000	0.886321 
4788.000000	0.887084 
4787.000000	0.887703 
4786.000000	0.888204 
4785.000000	0.888609 
4784.000000	0.888943 
4783.000000	0.889158 
4782.000000	0.889372 
4781.000000	0.889563 
4780.000000	0.889778 
4779.000000	0.890088 
4778.000000	0.890421 
4777.000000	0.890827 
4776.000000	0.891280 
4775.000000	0.891804 
4774.000000	0.892329 
4773.000000	0.892829 
4772.000000	0.893330 
4771.000000	0.893807 
4770.000000	0.894260 
4769.000000	0.894737 
4768.000000	0.895237 
4767.000000	0.895857 
4766.000000	0.896549 
4765.000000	0.897383 
4764.000000	0.898313 
4763.000000	0.899338 
4762.000000	0.900387 
4761.000000	0.901389 
4760.000000	0.902295 
4759.000000	0.903081 
4758.000000	0.903820 
4757.000000	0.904464 
4756.000000	0.905060 
4755.000000	0.905680 
4754.000000	0.906348 
4753.000000	0.907063 
4752.000000	0.907826 
4751.000000	0.908541 
4750.000000	0.909233 
4749.000000	0.909686 
4748.000000	0.909972 
4747.000000	0.909972 
4746.000000	0.909733 
4745.000000	0.909304 
4744.000000	0.908756 
4743.000000	0.908184 
4742.000000	0.907683 
4741.000000	0.907325 
4740.000000	0.907135 
4739.000000	0.907135 
4738.000000	0.907325 
4737.000000	0.907731 
4736.000000	0.908207 
4735.000000	0.908803 
4734.000000	0.909376 
4733.000000	0.909900 
4732.000000	0.910353 
4731.000000	0.910735 
4730.000000	0.911045 
4729.000000	0.911283 
4728.000000	0.911569 
4727.000000	0.911831 
4726.000000	0.912189 
4725.000000	0.912594 
4724.000000	0.913071 
4723.000000	0.913596 
4722.000000	0.914025 
4721.000000	0.914454 
4720.000000	0.914764 
4719.000000	0.914978 
4718.000000	0.915074 
4717.000000	0.915098 
4716.000000	0.915098 
4715.000000	0.915098 
4714.000000	0.915145 
4713.000000	0.915288 
4712.000000	0.915455 
4711.000000	0.915718 
4710.000000	0.916028 
4709.000000	0.916409 
4708.000000	0.916814 
4707.000000	0.917291 
4706.000000	0.917816 
4705.000000	0.918364 
4704.000000	0.918912 
4703.000000	0.919389 
4702.000000	0.919818 
4701.000000	0.920081 
4700.000000	0.920128 
4699.000000	0.919985 
4698.000000	0.919604 
4697.000000	0.919032 
4696.000000	0.918316 
4695.000000	0.917530 
4694.000000	0.916719 
4693.000000	0.915980 
4692.000000	0.915384 
4691.000000	0.915002 
4690.000000	0.914835 
4689.000000	0.914931 
4688.000000	0.915193 
4687.000000	0.915551 
4686.000000	0.915956 
4685.000000	0.916266 
4684.000000	0.916385 
4683.000000	0.916314 
4682.000000	0.916075 
4681.000000	0.915741 
4680.000000	0.915408 
4679.000000	0.915169 
4678.000000	0.915145 
4677.000000	0.915336 
4676.000000	0.915765 
4675.000000	0.916481 
4674.000000	0.917315 
4673.000000	0.918197 
4672.000000	0.919055 
4671.000000	0.919866 
4670.000000	0.920581 
4669.000000	0.921201 
4668.000000	0.921702 
4667.000000	0.922155 
4666.000000	0.922536 
4665.000000	0.922846 
4664.000000	0.923061 
4663.000000	0.923156 
4662.000000	0.923085 
4661.000000	0.922918 
4660.000000	0.922632 
4659.000000	0.922298 
4658.000000	0.921964 
4657.000000	0.921702 
4656.000000	0.921583 
4655.000000	0.921630 
4654.000000	0.921797 
4653.000000	0.922107 
4652.000000	0.922513 
4651.000000	0.922942 
4650.000000	0.923371 
4649.000000	0.923800 
4648.000000	0.924205 
4647.000000	0.924563 
4646.000000	0.924849 
4645.000000	0.925111 
4644.000000	0.925326 
4643.000000	0.925469 
4642.000000	0.925564 
4641.000000	0.925683 
4640.000000	0.925779 
4639.000000	0.925922 
4638.000000	0.926160 
4637.000000	0.926494 
4636.000000	0.926876 
4635.000000	0.927329 
4634.000000	0.927782 
4633.000000	0.928211 
4632.000000	0.928592 
4631.000000	0.928950 
4630.000000	0.929284 
4629.000000	0.929665 
4628.000000	0.930142 
4627.000000	0.930714 
4626.000000	0.931406 
4625.000000	0.932192 
4624.000000	0.933027 
4623.000000	0.933885 
4622.000000	0.934720 
4621.000000	0.935554 
4620.000000	0.936317 
4619.000000	0.937032 
4618.000000	0.937724 
4617.000000	0.938391 
4616.000000	0.939035 
4615.000000	0.939702 
4614.000000	0.940322 
4613.000000	0.940895 
4612.000000	0.941467 
4611.000000	0.941920 
4610.000000	0.942325 
4609.000000	0.942659 
4608.000000	0.942945 
4607.000000	0.943160 
4606.000000	0.943303 
4605.000000	0.943470 
4604.000000	0.943636 
4603.000000	0.943827 
4602.000000	0.944161 
4601.000000	0.944590 
4600.000000	0.945162 
4599.000000	0.945878 
4598.000000	0.946688 
4597.000000	0.947546 
4596.000000	0.948381 
4595.000000	0.949192 
4594.000000	0.949931 
4593.000000	0.950551 
4592.000000	0.951075 
4591.000000	0.951528 
4590.000000	0.951933 
4589.000000	0.952386 
4588.000000	0.952959 
4587.000000	0.953626 
4586.000000	0.954437 
4585.000000	0.955343 
4584.000000	0.956273 
4583.000000	0.957226 
4582.000000	0.958132 
4581.000000	0.958895 
4580.000000	0.959515 
4579.000000	0.959944 
4578.000000	0.960278 
4577.000000	0.960588 
4576.000000	0.960922 
4575.000000	0.961399 
4574.000000	0.962090 
4573.000000	0.962996 
4572.000000	0.964117 
4571.000000	0.965428 
4570.000000	0.966835 
4569.000000	0.968194 
4568.000000	0.969481 
4567.000000	0.970625 
4566.000000	0.971531 
4565.000000	0.972270 
4564.000000	0.972819 
4563.000000	0.973200 
4562.000000	0.973439 
4561.000000	0.973629 
4560.000000	0.973773 
4559.000000	0.973892 
4558.000000	0.974011 
4557.000000	0.974154 
4556.000000	0.974297 
4555.000000	0.974416 
4554.000000	0.974607 
4553.000000	0.974869 
4552.000000	0.975203 
4551.000000	0.975704 
4550.000000	0.976324 
4549.000000	0.977039 
4548.000000	0.977921 
4547.000000	0.978922 
4546.000000	0.979924 
4545.000000	0.980925 
4544.000000	0.981903 
4543.000000	0.982785 
4542.000000	0.983595 
4541.000000	0.984358 
4540.000000	0.985050 
4539.000000	0.985717 
4538.000000	0.986361 
4537.000000	0.986981 
4536.000000	0.987601 
4535.000000	0.988149 
4534.000000	0.988674 
4533.000000	0.989151 
4532.000000	0.989556 
4531.000000	0.989937 
4530.000000	0.990271 
4529.000000	0.990653 
4528.000000	0.990986 
4527.000000	0.991296 
4526.000000	0.991582 
4525.000000	0.991797 
4524.000000	0.991964 
4523.000000	0.992083 
4522.000000	0.992202 
4521.000000	0.992345 
4520.000000	0.992584 
4519.000000	0.992941 
4518.000000	0.993466 
4517.000000	0.994157 
4516.000000	0.995016 
4515.000000	0.995922 
4514.000000	0.996851 
4513.000000	0.997710 
4512.000000	0.998473 
4511.000000	0.999140 
4510.000000	0.999665 
4509.000000	1.000118 
4508.000000	1.000499 
4507.000000	1.000809 
4506.000000	1.001071 
4505.000000	1.001310 
4504.000000	1.001501 
4503.000000	1.001620 
4502.000000	1.001787 
4501.000000	1.002025 
4500.000000	1.002311 
4499.000000	1.002693 
4498.000000	1.003217 
4497.000000	1.003861 
4496.000000	1.004624 
4495.000000	1.005458 
4494.000000	1.006269 
4493.000000	1.007080 
4492.000000	1.007795 
4491.000000	1.008391 
4490.000000	1.008844 
4489.000000	1.009130 
4488.000000	1.009321 
4487.000000	1.009368 
4486.000000	1.009321 
4485.000000	1.009225 
4484.000000	1.009154 
4483.000000	1.009106 
4482.000000	1.009249 
4481.000000	1.009488 
4480.000000	1.009941 
4479.000000	1.010513 
4478.000000	1.011180 
4477.000000	1.011896 
4476.000000	1.012587 
4475.000000	1.013183 
4474.000000	1.013588 
4473.000000	1.013755 
4472.000000	1.013612 
4471.000000	1.013183 
4470.000000	1.012444 
4469.000000	1.011586 
4468.000000	1.010751 
4467.000000	1.010036 
4466.000000	1.009583 
4465.000000	1.009368 
4464.000000	1.009345 
4463.000000	1.009345 
4462.000000	1.009249 
4461.000000	1.008892 
4460.000000	1.008272 
4459.000000	1.007342 
4458.000000	1.006174 
4457.000000	1.004886 
4456.000000	1.003623 
4455.000000	1.002478 
4454.000000	1.001548 
4453.000000	1.000881 
4452.000000	1.000452 
4451.000000	1.000261 
4450.000000	1.000261 
4449.000000	1.000523 
4448.000000	1.000952 
4447.000000	1.001691 
4446.000000	1.002693 
4445.000000	1.003956 
4444.000000	1.005363 
4443.000000	1.006793 
4442.000000	1.007962 
4441.000000	1.008605 
4440.000000	1.008486 
4439.000000	1.007556 
4438.000000	1.005840 
4437.000000	1.003861 
4436.000000	1.002454 
4435.000000	1.002717 
4434.000000	1.005959 
4433.000000	1.013183 
4432.000000	1.024889 
4431.000000	1.040768 
4430.000000	1.059699 
4429.000000	1.079869 
4428.000000	1.099181 
4427.000000	1.115536 
4426.000000	1.127505 
4425.000000	1.134347 
4424.000000	1.136279 
4423.000000	1.134157 
4422.000000	1.129364 
4421.000000	1.123237 
4420.000000	1.116776 
4419.000000	1.110506 
4418.000000	1.104450 
4417.000000	1.098275 
4416.000000	1.091599 
4415.000000	1.084041 
4414.000000	1.075720 
4413.000000	1.067090 
4412.000000	1.058721 
4411.000000	1.051282 
4410.000000	1.045250 
4409.000000	1.040911 
4408.000000	1.038241 
4407.000000	1.037049 
4406.000000	1.036930 
4405.000000	1.037383 
4404.000000	1.038026 
4403.000000	1.038646 
4402.000000	1.038932 
4401.000000	1.038861 
4400.000000	1.038479 
4399.000000	1.037812 
4398.000000	1.037001 
4397.000000	1.036238 
4396.000000	1.035642 
4395.000000	1.035356 
4394.000000	1.035380 
4393.000000	1.035737 
4392.000000	1.036453 
4391.000000	1.037478 
4390.000000	1.038646 
4389.000000	1.039862 
4388.000000	1.041078 
4387.000000	1.042246 
4386.000000	1.043319 
4385.000000	1.044344 
4384.000000	1.045227 
4383.000000	1.045989 
4382.000000	1.046586 
4381.000000	1.046967 
4380.000000	1.047158 
4379.000000	1.047229 
4378.000000	1.047182 
4377.000000	1.047134 
4376.000000	1.047182 
4375.000000	1.047348 
4374.000000	1.047658 
4373.000000	1.048135 
4372.000000	1.048755 
4371.000000	1.049423 
4370.000000	1.050090 
4369.000000	1.050639 
4368.000000	1.051044 
4367.000000	1.051259 
4366.000000	1.051306 
4365.000000	1.051211 
4364.000000	1.050996 
4363.000000	1.050782 
4362.000000	1.050662 
4361.000000	1.050662 
4360.000000	1.050901 
4359.000000	1.051378 
4358.000000	1.052141 
4357.000000	1.053214 
4356.000000	1.054549 
4355.000000	1.056146 
4354.000000	1.057887 
4353.000000	1.059794 
4352.000000	1.061701 
4351.000000	1.063561 
4350.000000	1.065254 
4349.000000	1.066875 
4348.000000	1.068329 
4347.000000	1.069688 
4346.000000	1.071023 
4345.000000	1.072311 
4344.000000	1.073646 
4343.000000	1.075005 
4342.000000	1.076388 
4341.000000	1.077699 
4340.000000	1.078867 
4339.000000	1.079893 
4338.000000	1.080727 
4337.000000	1.081371 
4336.000000	1.081919 
4335.000000	1.082396 
4334.000000	1.082921 
4333.000000	1.083564 
4332.000000	1.084351 
4331.000000	1.085329 
4330.000000	1.086425 
4329.000000	1.087617 
4328.000000	1.088905 
4327.000000	1.090216 
4326.000000	1.091551 
4325.000000	1.092863 
4324.000000	1.094198 
4323.000000	1.095533 
4322.000000	1.096892 
4321.000000	1.098275 
4320.000000	1.099634 
4319.000000	1.101040 
4318.000000	1.102495 
4317.000000	1.103925 
4316.000000	1.105356 
4315.000000	1.106762 
4314.000000	1.108169 
4313.000000	1.109480 
4312.000000	1.110720 
4311.000000	1.111912 
4310.000000	1.113033 
4309.000000	1.114058 
4308.000000	1.115059 
4307.000000	1.116013 
4306.000000	1.116943 
4305.000000	1.117873 
4304.000000	1.118803 
4303.000000	1.119709 
4302.000000	1.120638 
4301.000000	1.121664 
4300.000000	1.122808 
4299.000000	1.124048 
4298.000000	1.125454 
4297.000000	1.127028 
4296.000000	1.128697 
4295.000000	1.130461 
4294.000000	1.132202 
4293.000000	1.133871 
4292.000000	1.135444 
4291.000000	1.136827 
4290.000000	1.138067 
4289.000000	1.139163 
4288.000000	1.140165 
4287.000000	1.141119 
4286.000000	1.142072 
4285.000000	1.143002 
4284.000000	1.143980 
4283.000000	1.144957 
4282.000000	1.145982 
4281.000000	1.147055 
4280.000000	1.148128 
4279.000000	1.149225 
4278.000000	1.150274 
4277.000000	1.151275 
4276.000000	1.152181 
4275.000000	1.153063 
4274.000000	1.153850 
4273.000000	1.154613 
4272.000000	1.155328 
4271.000000	1.156067 
4270.000000	1.156830 
4269.000000	1.157665 
4268.000000	1.158547 
4267.000000	1.159477 
4266.000000	1.160430 
4265.000000	1.161336 
4264.000000	1.162195 
4263.000000	1.163029 
4262.000000	1.163816 
4261.000000	1.164627 
4260.000000	1.165509 
4259.000000	1.166462 
4258.000000	1.167488 
4257.000000	1.168608 
4256.000000	1.169872 
4255.000000	1.171135 
4254.000000	1.172399 
4253.000000	1.173615 
4252.000000	1.174759 
4251.000000	1.175808 
4250.000000	1.176738 
4249.000000	1.177620 
4248.000000	1.178359 
4247.000000	1.179075 
4246.000000	1.179742 
4245.000000	1.180410 
4244.000000	1.181054 
4243.000000	1.181697 
4242.000000	1.182341 
4241.000000	1.182985 
4240.000000	1.183629 
4239.000000	1.184272 
4238.000000	1.184916 
4237.000000	1.185560 
4236.000000	1.186180 
4235.000000	1.186871 
4234.000000	1.187562 
4233.000000	1.188325 
4232.000000	1.189112 
4231.000000	1.189970 
4230.000000	1.190781 
4229.000000	1.191592 
4228.000000	1.192331 
4227.000000	1.192975 
4226.000000	1.193499 
4225.000000	1.193857 
4224.000000	1.194167 
4223.000000	1.194429 
4222.000000	1.194643 
4221.000000	1.194882 
4220.000000	1.195263 
4219.000000	1.195645 
4218.000000	1.196122 
4217.000000	1.196646 
4216.000000	1.197147 
4215.000000	1.197648 
4214.000000	1.198101 
4213.000000	1.198530 
4212.000000	1.198887 
4211.000000	1.199245 
4210.000000	1.199626 
4209.000000	1.200008 
4208.000000	1.200437 
4207.000000	1.200866 
4206.000000	1.201295 
4205.000000	1.201725 
4204.000000	1.202130 
4203.000000	1.202559 
4202.000000	1.203012 
4201.000000	1.203536 
4200.000000	1.204109 
4199.000000	1.204776 
4198.000000	1.205539 
4197.000000	1.206326 
4196.000000	1.207089 
4195.000000	1.207804 
4194.000000	1.208424 
4193.000000	1.208925 
4192.000000	1.209354 
4191.000000	1.209664 
4190.000000	1.209926 
4189.000000	1.210141 
4188.000000	1.210403 
4187.000000	1.210689 
4186.000000	1.211071 
4185.000000	1.211571 
4184.000000	1.212191 
4183.000000	1.212906 
4182.000000	1.213788 
4181.000000	1.214718 
4180.000000	1.215696 
4179.000000	1.216626 
4178.000000	1.217508 
4177.000000	1.218295 
4176.000000	1.219010 
4175.000000	1.219630 
4174.000000	1.220178 
4173.000000	1.220726 
4172.000000	1.221299 
4171.000000	1.221871 
4170.000000	1.222467 
4169.000000	1.223087 
4168.000000	1.223707 
4167.000000	1.224303 
4166.000000	1.224875 
4165.000000	1.225376 
4164.000000	1.225829 
4163.000000	1.226210 
4162.000000	1.226615 
4161.000000	1.226949 
4160.000000	1.227283 
4159.000000	1.227641 
4158.000000	1.228046 
4157.000000	1.228594 
4156.000000	1.229238 
4155.000000	1.230072 
4154.000000	1.231002 
4153.000000	1.232051 
4152.000000	1.233148 
4151.000000	1.234292 
4150.000000	1.235318 
4149.000000	1.236248 
4148.000000	1.237010 
4147.000000	1.237583 
4146.000000	1.237964 
4145.000000	1.238298 
4144.000000	1.238560 
4143.000000	1.238822 
4142.000000	1.239109 
4141.000000	1.239490 
4140.000000	1.239991 
4139.000000	1.240658 
4138.000000	1.241397 
4137.000000	1.242256 
4136.000000	1.243162 
4135.000000	1.244068 
4134.000000	1.245021 
4133.000000	1.245951 
4132.000000	1.246809 
4131.000000	1.247620 
4130.000000	1.248359 
4129.000000	1.248955 
4128.000000	1.249456 
4127.000000	1.249837 
4126.000000	1.250171 
4125.000000	1.250457 
4124.000000	1.250791 
4123.000000	1.251196 
4122.000000	1.251816 
4121.000000	1.252675 
4120.000000	1.253771 
4119.000000	1.255083 
4118.000000	1.256513 
4117.000000	1.257967 
4116.000000	1.259303 
4115.000000	1.260495 
4114.000000	1.261544 
4113.000000	1.262402 
4112.000000	1.263213 
4111.000000	1.263999 
4110.000000	1.264882 
4109.000000	1.265859 
4108.000000	1.267027 
4107.000000	1.268315 
4106.000000	1.269626 
4105.000000	1.270985 
4104.000000	1.272273 
4103.000000	1.273488 
4102.000000	1.274609 
4101.000000	1.275730 
4100.000000	1.276850 
4099.000000	1.278018 
4098.000000	1.279258 
4097.000000	1.280546 
4096.000000	1.281905 
4095.000000	1.283311 
4094.000000	1.284718 
4093.000000	1.286077 
4092.000000	1.287436 
4091.000000	1.288747 
4090.000000	1.290059 
4089.000000	1.291346 
4088.000000	1.292657 
4087.000000	1.293992 
4086.000000	1.295399 
4085.000000	1.296782 
4084.000000	1.298213 
4083.000000	1.299691 
4082.000000	1.301193 
4081.000000	1.302671 
4080.000000	1.304173 
4079.000000	1.305651 
4078.000000	1.307082 
4077.000000	1.308512 
4076.000000	1.309895 
4075.000000	1.311230 
4074.000000	1.312518 
4073.000000	1.313781 
4072.000000	1.315069 
4071.000000	1.316428 
4070.000000	1.317811 
4069.000000	1.319241 
4068.000000	1.320743 
4067.000000	1.322317 
4066.000000	1.323866 
4065.000000	1.325416 
4064.000000	1.326894 
4063.000000	1.328325 
4062.000000	1.329660 
4061.000000	1.330947 
4060.000000	1.332211 
4059.000000	1.333546 
4058.000000	1.334881 
4057.000000	1.336288 
4056.000000	1.337838 
4055.000000	1.339435 
4054.000000	1.341056 
4053.000000	1.342606 
4052.000000	1.344084 
4051.000000	1.345443 
4050.000000	1.346659 
4049.000000	1.347804 
4048.000000	1.348876 
4047.000000	1.349973 
4046.000000	1.351070 
4045.000000	1.352214 
4044.000000	1.353430 
4043.000000	1.354694 
4042.000000	1.355957 
4041.000000	1.357150 
4040.000000	1.358270 
4039.000000	1.359319 
4038.000000	1.360249 
4037.000000	1.361155 
4036.000000	1.362037 
4035.000000	1.362967 
4034.000000	1.363968 
4033.000000	1.365065 
4032.000000	1.366281 
4031.000000	1.367616 
4030.000000	1.369071 
4029.000000	1.370596 
4028.000000	1.372194 
4027.000000	1.373767 
4026.000000	1.375317 
4025.000000	1.376819 
4024.000000	1.378226 
4023.000000	1.379561 
4022.000000	1.380801 
4021.000000	1.381993 
4020.000000	1.383137 
4019.000000	1.384282 
4018.000000	1.385450 
4017.000000	1.386666 
4016.000000	1.387882 
4015.000000	1.389122 
4014.000000	1.390361 
4013.000000	1.391506 
4012.000000	1.392579 
4011.000000	1.393580 
4010.000000	1.394462 
4009.000000	1.395249 
4008.000000	1.395964 
4007.000000	1.396632 
4006.000000	1.397252 
4005.000000	1.397871 
4004.000000	1.398491 
4003.000000	1.399159 
4002.000000	1.399827 
4001.000000	1.400494 
4000.000000	1.401162 
3999.000000	1.401805 
3998.000000	1.402425 
3997.000000	1.402974 
3996.000000	1.403427 
3995.000000	1.403808 
3994.000000	1.404142 
3993.000000	1.404404 
3992.000000	1.404666 
3991.000000	1.404953 
3990.000000	1.405262 
3989.000000	1.405644 
3988.000000	1.406145 
3987.000000	1.406741 
3986.000000	1.407456 
3985.000000	1.408243 
3984.000000	1.409101 
3983.000000	1.410007 
3982.000000	1.410937 
3981.000000	1.411795 
3980.000000	1.412558 
3979.000000	1.413297 
3978.000000	1.413869 
3977.000000	1.414418 
3976.000000	1.414942 
3975.000000	1.415491 
3974.000000	1.416087 
3973.000000	1.416802 
3972.000000	1.417613 
3971.000000	1.418519 
3970.000000	1.419448 
3969.000000	1.420378 
3968.000000	1.421213 
3967.000000	1.421952 
3966.000000	1.422476 
3965.000000	1.422882 
3964.000000	1.423144 
3963.000000	1.423335 
3962.000000	1.423525 
3961.000000	1.423764 
3960.000000	1.424098 
3959.000000	1.424527 
3958.000000	1.425051 
3957.000000	1.425647 
3956.000000	1.426267 
3955.000000	1.426911 
3954.000000	1.427555 
3953.000000	1.428174 
3952.000000	1.428723 
3951.000000	1.429200 
3950.000000	1.429510 
3949.000000	1.429772 
3948.000000	1.429891 
3947.000000	1.429963 
3946.000000	1.429963 
3945.000000	1.429986 
3944.000000	1.430058 
3943.000000	1.430201 
3942.000000	1.430392 
3941.000000	1.430606 
3940.000000	1.430869 
3939.000000	1.431131 
3938.000000	1.431345 
3937.000000	1.431465 
3936.000000	1.431560 
3935.000000	1.431655 
3934.000000	1.431798 
3933.000000	1.432013 
3932.000000	1.432371 
3931.000000	1.432847 
3930.000000	1.433420 
3929.000000	1.434040 
3928.000000	1.434588 
3927.000000	1.434993 
3926.000000	1.435160 
3925.000000	1.435112 
3924.000000	1.434826 
3923.000000	1.434421 
3922.000000	1.433968 
3921.000000	1.433563 
3920.000000	1.433396 
3919.000000	1.433515 
3918.000000	1.433849 
3917.000000	1.434516 
3916.000000	1.435327 
3915.000000	1.436185 
3914.000000	1.437020 
3913.000000	1.437687 
3912.000000	1.438117 
3911.000000	1.438260 
3910.000000	1.438188 
3909.000000	1.437878 
3908.000000	1.437425 
3907.000000	1.436924 
3906.000000	1.436471 
3905.000000	1.436185 
3904.000000	1.436114 
3903.000000	1.436305 
3902.000000	1.436758 
3901.000000	1.437425 
3900.000000	1.438307 
3899.000000	1.439261 
3898.000000	1.440191 
3897.000000	1.440954 
3896.000000	1.441478 
3895.000000	1.441764 
3894.000000	1.441764 
3893.000000	1.441550 
3892.000000	1.441264 
3891.000000	1.441001 
3890.000000	1.440906 
3889.000000	1.441049 
3888.000000	1.441526 
3887.000000	1.442337 
3886.000000	1.443433 
3885.000000	1.444745 
3884.000000	1.446223 
3883.000000	1.447725 
3882.000000	1.449179 
3881.000000	1.450538 
3880.000000	1.451683 
3879.000000	1.452612 
3878.000000	1.453256 
3877.000000	1.453733 
3876.000000	1.454019 
3875.000000	1.454162 
3874.000000	1.454257 
3873.000000	1.454353 
3872.000000	1.454472 
3871.000000	1.454687 
3870.000000	1.454973 
3869.000000	1.455378 
3868.000000	1.455855 
3867.000000	1.456522 
3866.000000	1.457238 
3865.000000	1.458001 
3864.000000	1.458787 
3863.000000	1.459479 
3862.000000	1.459956 
3861.000000	1.460194 
3860.000000	1.460051 
3859.000000	1.459622 
3858.000000	1.458930 
3857.000000	1.458191 
3856.000000	1.457571 
3855.000000	1.457357 
3854.000000	1.457738 
3853.000000	1.458859 
3852.000000	1.460742 
3851.000000	1.463317 
3850.000000	1.466345 
3849.000000	1.469540 
3848.000000	1.472640 
3847.000000	1.475405 
3846.000000	1.477599 
3845.000000	1.479101 
3844.000000	1.480007 
3843.000000	1.480317 
3842.000000	1.480197 
3841.000000	1.479911 
3840.000000	1.479578 
3839.000000	1.479482 
3838.000000	1.479792 
3837.000000	1.480579 
3836.000000	1.481890 
3835.000000	1.483702 
3834.000000	1.485872 
3833.000000	1.488280 
3832.000000	1.490831 
3831.000000	1.493287 
3830.000000	1.495599 
3829.000000	1.497602 
3828.000000	1.499295 
3827.000000	1.500630 
3826.000000	1.501584 
3825.000000	1.502227 
3824.000000	1.502585 
3823.000000	1.502728 
3822.000000	1.502799 
3821.000000	1.502847 
3820.000000	1.503062 
3819.000000	1.503610 
3818.000000	1.504564 
3817.000000	1.506018 
3816.000000	1.507949 
3815.000000	1.510238 
3814.000000	1.512789 
3813.000000	1.515364 
3812.000000	1.517796 
3811.000000	1.519870 
3810.000000	1.521492 
3809.000000	1.522612 
3808.000000	1.523280 
3807.000000	1.523566 
3806.000000	1.523637 
3805.000000	1.523661 
3804.000000	1.523804 
3803.000000	1.524209 
3802.000000	1.524996 
3801.000000	1.526284 
3800.000000	1.528096 
3799.000000	1.530337 
3798.000000	1.533055 
3797.000000	1.536059 
3796.000000	1.539206 
3795.000000	1.542353 
3794.000000	1.545238 
3793.000000	1.547765 
3792.000000	1.549792 
3791.000000	1.551222 
3790.000000	1.552009 
3789.000000	1.552248 
3788.000000	1.552009 
3787.000000	1.551461 
3786.000000	1.550793 
3785.000000	1.550173 
3784.000000	1.549720 
3783.000000	1.549673 
3782.000000	1.549983 
3781.000000	1.550674 
3780.000000	1.551723 
3779.000000	1.552987 
3778.000000	1.554393 
3777.000000	1.555705 
3776.000000	1.556944 
3775.000000	1.558017 
3774.000000	1.558923 
3773.000000	1.559734 
3772.000000	1.560497 
3771.000000	1.561236 
3770.000000	1.562047 
3769.000000	1.562905 
3768.000000	1.563835 
3767.000000	1.564764 
3766.000000	1.565718 
3765.000000	1.566600 
3764.000000	1.567387 
3763.000000	1.568078 
3762.000000	1.568579 
3761.000000	1.568865 
3760.000000	1.568913 
3759.000000	1.568675 
3758.000000	1.568126 
3757.000000	1.567292 
3756.000000	1.566123 
3755.000000	1.564860 
3754.000000	1.563477 
3753.000000	1.562094 
3752.000000	1.560807 
3751.000000	1.559758 
3750.000000	1.558995 
3749.000000	1.558613 
3748.000000	1.558589 
3747.000000	1.559042 
3746.000000	1.559901 
3745.000000	1.561164 
3744.000000	1.562762 
3743.000000	1.564526 
3742.000000	1.566362 
3741.000000	1.568150 
3740.000000	1.569724 
3739.000000	1.571011 
3738.000000	1.572036 
3737.000000	1.572823 
3736.000000	1.573491 
3735.000000	1.574110 
3734.000000	1.574850 
3733.000000	1.575732 
3732.000000	1.576805 
3731.000000	1.578021 
3730.000000	1.579308 
3729.000000	1.580548 
3728.000000	1.581692 
3727.000000	1.582717 
3726.000000	1.583576 
3725.000000	1.584267 
3724.000000	1.584839 
3723.000000	1.585292 
3722.000000	1.585578 
3721.000000	1.585769 
3720.000000	1.585769 
3719.000000	1.585555 
3718.000000	1.585078 
3717.000000	1.584410 
3716.000000	1.583576 
3715.000000	1.582694 
3714.000000	1.581859 
3713.000000	1.581215 
3712.000000	1.580882 
3711.000000	1.580858 
3710.000000	1.581192 
3709.000000	1.581859 
3708.000000	1.582694 
3707.000000	1.583600 
3706.000000	1.584553 
3705.000000	1.585412 
3704.000000	1.586198 
3703.000000	1.586937 
3702.000000	1.587605 
3701.000000	1.588153 
3700.000000	1.588582 
3699.000000	1.588845 
3698.000000	1.588869 
3697.000000	1.588606 
3696.000000	1.588010 
3695.000000	1.587080 
3694.000000	1.585984 
3693.000000	1.584815 
3692.000000	1.583719 
3691.000000	1.582860 
3690.000000	1.582360 
3689.000000	1.582312 
3688.000000	1.582646 
3687.000000	1.583337 
3686.000000	1.584124 
3685.000000	1.584887 
3684.000000	1.585435 
3683.000000	1.585578 
3682.000000	1.585245 
3681.000000	1.584434 
3680.000000	1.583218 
3679.000000	1.581764 
3678.000000	1.580238 
3677.000000	1.578831 
3676.000000	1.577711 
3675.000000	1.576995 
3674.000000	1.576852 
3673.000000	1.577234 
3672.000000	1.578092 
3671.000000	1.579380 
3670.000000	1.581001 
3669.000000	1.582813 
3668.000000	1.584672 
3667.000000	1.586389 
3666.000000	1.587867 
3665.000000	1.588964 
3664.000000	1.589608 
3663.000000	1.589798 
3662.000000	1.589560 
3661.000000	1.588964 
3660.000000	1.588153 
3659.000000	1.587200 
3658.000000	1.586222 
3657.000000	1.585221 
3656.000000	1.584267 
3655.000000	1.583337 
3654.000000	1.582527 
3653.000000	1.581811 
3652.000000	1.581263 
3651.000000	1.581001 
3650.000000	1.581072 
3649.000000	1.581525 
3648.000000	1.582431 
3647.000000	1.583647 
3646.000000	1.585102 
3645.000000	1.586627 
3644.000000	1.588010 
3643.000000	1.589155 
3642.000000	1.589965 
3641.000000	1.590371 
3640.000000	1.590442 
3639.000000	1.590228 
3638.000000	1.589798 
3637.000000	1.589202 
3636.000000	1.588559 
3635.000000	1.587939 
3634.000000	1.587343 
3633.000000	1.586818 
3632.000000	1.586461 
3631.000000	1.586341 
3630.000000	1.586484 
3629.000000	1.586890 
3628.000000	1.587605 
3627.000000	1.588487 
3626.000000	1.589488 
3625.000000	1.590514 
3624.000000	1.591420 
3623.000000	1.592183 
3622.000000	1.592826 
3621.000000	1.593303 
3620.000000	1.593661 
3619.000000	1.593947 
3618.000000	1.594257 
3617.000000	1.594543 
3616.000000	1.594781 
3615.000000	1.595091 
3614.000000	1.595330 
3613.000000	1.595568 
3612.000000	1.595854 
3611.000000	1.596212 
3610.000000	1.596641 
3609.000000	1.597166 
3608.000000	1.597833 
3607.000000	1.598644 
3606.000000	1.599550 
3605.000000	1.600480 
3604.000000	1.601433 
3603.000000	1.602339 
3602.000000	1.603198 
3601.000000	1.603960 
3600.000000	1.604676 
3599.000000	1.605319 
3598.000000	1.605916 
3597.000000	1.606464 
3596.000000	1.606965 
3595.000000	1.607394 
3594.000000	1.607799 
3593.000000	1.608109 
3592.000000	1.608371 
3591.000000	1.608681 
3590.000000	1.608967 
3589.000000	1.609373 
3588.000000	1.609921 
3587.000000	1.610612 
3586.000000	1.611471 
3585.000000	1.612448 
3584.000000	1.613497 
3583.000000	1.614594 
3582.000000	1.615667 
3581.000000	1.616692 
3580.000000	1.617598 
3579.000000	1.618385 
3578.000000	1.619005 
3577.000000	1.619482 
3576.000000	1.619768 
3575.000000	1.619911 
3574.000000	1.619887 
3573.000000	1.619720 
3572.000000	1.619529 
3571.000000	1.619338 
3570.000000	1.619195 
3569.000000	1.619243 
3568.000000	1.619529 
3567.000000	1.620125 
3566.000000	1.620936 
3565.000000	1.621985 
3564.000000	1.623225 
3563.000000	1.624560 
3562.000000	1.625895 
3561.000000	1.627135 
3560.000000	1.628279 
3559.000000	1.629233 
3558.000000	1.629996 
3557.000000	1.630568 
3556.000000	1.630973 
3555.000000	1.631283 
3554.000000	1.631498 
3553.000000	1.631665 
3552.000000	1.631855 
3551.000000	1.632070 
3550.000000	1.632332 
3549.000000	1.632714 
3548.000000	1.633167 
3547.000000	1.633691 
3546.000000	1.634216 
3545.000000	1.634740 
3544.000000	1.635193 
3543.000000	1.635432 
3542.000000	1.635527 
3541.000000	1.635479 
3540.000000	1.635289 
3539.000000	1.635050 
3538.000000	1.634812 
3537.000000	1.634645 
3536.000000	1.634573 
3535.000000	1.634645 
3534.000000	1.634836 
3533.000000	1.635146 
3532.000000	1.635503 
3531.000000	1.635932 
3530.000000	1.636314 
3529.000000	1.636743 
3528.000000	1.637125 
3527.000000	1.637482 
3526.000000	1.637864 
3525.000000	1.638197 
3524.000000	1.638555 
3523.000000	1.638889 
3522.000000	1.639151 
3521.000000	1.639318 
3520.000000	1.639413 
3519.000000	1.639437 
3518.000000	1.639389 
3517.000000	1.639270 
3516.000000	1.639175 
3515.000000	1.639056 
3514.000000	1.638913 
3513.000000	1.638722 
3512.000000	1.638531 
3511.000000	1.638293 
3510.000000	1.638031 
3509.000000	1.637721 
3508.000000	1.637339 
3507.000000	1.636958 
3506.000000	1.636505 
3505.000000	1.636099 
3504.000000	1.635694 
3503.000000	1.635313 
3502.000000	1.634907 
3501.000000	1.634526 
3500.000000	1.634120 
3499.000000	1.633691 
3498.000000	1.633238 
3497.000000	1.632761 
3496.000000	1.632261 
3495.000000	1.631784 
3494.000000	1.631331 
3493.000000	1.630878 
3492.000000	1.630473 
3491.000000	1.630043 
3490.000000	1.629614 
3489.000000	1.629209 
3488.000000	1.628756 
3487.000000	1.628279 
3486.000000	1.627755 
3485.000000	1.627182 
3484.000000	1.626586 
3483.000000	1.625990 
3482.000000	1.625394 
3481.000000	1.624846 
3480.000000	1.624369 
3479.000000	1.623964 
3478.000000	1.623630 
3477.000000	1.623368 
3476.000000	1.623106 
3475.000000	1.622843 
3474.000000	1.622581 
3473.000000	1.622247 
3472.000000	1.621890 
3471.000000	1.621460 
3470.000000	1.621007 
3469.000000	1.620531 
3468.000000	1.620030 
3467.000000	1.619505 
3466.000000	1.618957 
3465.000000	1.618385 
3464.000000	1.617741 
3463.000000	1.617074 
3462.000000	1.616358 
3461.000000	1.615571 
3460.000000	1.614737 
3459.000000	1.613855 
3458.000000	1.612949 
3457.000000	1.611995 
3456.000000	1.611065 
3455.000000	1.610112 
3454.000000	1.609182 
3453.000000	1.608276 
3452.000000	1.607441 
3451.000000	1.606655 
3450.000000	1.605916 
3449.000000	1.605200 
3448.000000	1.604509 
3447.000000	1.603841 
3446.000000	1.603221 
3445.000000	1.602602 
3444.000000	1.602005 
3443.000000	1.601433 
3442.000000	1.600861 
3441.000000	1.600313 
3440.000000	1.599812 
3439.000000	1.599359 
3438.000000	1.598978 
3437.000000	1.598644 
3436.000000	1.598405 
3435.000000	1.598238 
3434.000000	1.598167 
3433.000000	1.598215 
3432.000000	1.598334 
3431.000000	1.598453 
3430.000000	1.598572 
3429.000000	1.598668 
3428.000000	1.598668 
3427.000000	1.598525 
3426.000000	1.598286 
3425.000000	1.598000 
3424.000000	1.597642 
3423.000000	1.597332 
3422.000000	1.597142 
3421.000000	1.597094 
3420.000000	1.597285 
3419.000000	1.597666 
3418.000000	1.598215 
3417.000000	1.598906 
3416.000000	1.599645 
3415.000000	1.600313 
3414.000000	1.600933 
3413.000000	1.601409 
3412.000000	1.601767 
3411.000000	1.602053 
3410.000000	1.602315 
3409.000000	1.602602 
3408.000000	1.603007 
3407.000000	1.603651 
3406.000000	1.604390 
3405.000000	1.605296 
3404.000000	1.606369 
3403.000000	1.607489 
3402.000000	1.608538 
3401.000000	1.609587 
3400.000000	1.610445 
3399.000000	1.611232 
3398.000000	1.611900 
3397.000000	1.612520 
3396.000000	1.613068 
3395.000000	1.613616 
3394.000000	1.614212 
3393.000000	1.614809 
3392.000000	1.615452 
3391.000000	1.616096 
3390.000000	1.616740 
3389.000000	1.617312 
3388.000000	1.617836 
3387.000000	1.618361 
3386.000000	1.618885 
3385.000000	1.619386 
3384.000000	1.619911 
3383.000000	1.620459 
3382.000000	1.621007 
3381.000000	1.621603 
3380.000000	1.622200 
3379.000000	1.622748 
3378.000000	1.623249 
3377.000000	1.623678 
3376.000000	1.624011 
3375.000000	1.624298 
3374.000000	1.624560 
3373.000000	1.624941 
3372.000000	1.625490 
3371.000000	1.626300 
3370.000000	1.627397 
3369.000000	1.628804 
3368.000000	1.630449 
3367.000000	1.632356 
3366.000000	1.634335 
3365.000000	1.636362 
3364.000000	1.638364 
3363.000000	1.640295 
3362.000000	1.642155 
3361.000000	1.644015 
3360.000000	1.645898 
3359.000000	1.647901 
3358.000000	1.649951 
3357.000000	1.652121 
3356.000000	1.654291 
3355.000000	1.656436 
3354.000000	1.658415 
3353.000000	1.660251 
3352.000000	1.661825 
3351.000000	1.663231 
3350.000000	1.664471 
3349.000000	1.665639 
3348.000000	1.666712 
3347.000000	1.667809 
3346.000000	1.668953 
3345.000000	1.670169 
3344.000000	1.671433 
3343.000000	1.672744 
3342.000000	1.674032 
3341.000000	1.675343 
3340.000000	1.676630 
3339.000000	1.677966 
3338.000000	1.679301 
3337.000000	1.680636 
3336.000000	1.681995 
3335.000000	1.683330 
3334.000000	1.684594 
3333.000000	1.685810 
3332.000000	1.686978 
3331.000000	1.688098 
3330.000000	1.689195 
3329.000000	1.690340 
3328.000000	1.691555 
3327.000000	1.692938 
3326.000000	1.694512 
3325.000000	1.696228 
3324.000000	1.698088 
3323.000000	1.700067 
3322.000000	1.702070 
3321.000000	1.704120 
3320.000000	1.706075 
3319.000000	1.707983 
3318.000000	1.709699 
3317.000000	1.711273 
3316.000000	1.712679 
3315.000000	1.713943 
3314.000000	1.715087 
3313.000000	1.716160 
3312.000000	1.717162 
3311.000000	1.718187 
3310.000000	1.719260 
3309.000000	1.720452 
3308.000000	1.721715 
3307.000000	1.723122 
3306.000000	1.724648 
3305.000000	1.726269 
3304.000000	1.727962 
3303.000000	1.729655 
3302.000000	1.731348 
3301.000000	1.733088 
3300.000000	1.734805 
3299.000000	1.736521 
3298.000000	1.738238 
3297.000000	1.739954 
3296.000000	1.741623 
3295.000000	1.743221 
3294.000000	1.744747 
3293.000000	1.746177 
3292.000000	1.747417 
3291.000000	1.748538 
3290.000000	1.749539 
3289.000000	1.750373 
3288.000000	1.751112 
3287.000000	1.751804 
3286.000000	1.752519 
3285.000000	1.753258 
3284.000000	1.754093 
3283.000000	1.755023 
3282.000000	1.756119 
3281.000000	1.757287 
3280.000000	1.758575 
3279.000000	1.759982 
3278.000000	1.761436 
3277.000000	1.762962 
3276.000000	1.764488 
3275.000000	1.765990 
3274.000000	1.767468 
3273.000000	1.768898 
3272.000000	1.770281 
3271.000000	1.771569 
3270.000000	1.772832 
3269.000000	1.773977 
3268.000000	1.775050 
3267.000000	1.776003 
3266.000000	1.776885 
3265.000000	1.777648 
3264.000000	1.778340 
3263.000000	1.778984 
3262.000000	1.779627 
3261.000000	1.780176 
3260.000000	1.780748 
3259.000000	1.781320 
3258.000000	1.781892 
3257.000000	1.782488 
3256.000000	1.783132 
3255.000000	1.783776 
3254.000000	1.784539 
3253.000000	1.785302 
3252.000000	1.786184 
3251.000000	1.787090 
3250.000000	1.788043 
3249.000000	1.788973 
3248.000000	1.789808 
3247.000000	1.790571 
3246.000000	1.791238 
3245.000000	1.791763 
3244.000000	1.792216 
3243.000000	1.792597 
3242.000000	1.793026 
3241.000000	1.793432 
3240.000000	1.793932 
3239.000000	1.794505 
3238.000000	1.795148 
3237.000000	1.795887 
3236.000000	1.796603 
3235.000000	1.797294 
3234.000000	1.797890 
3233.000000	1.798343 
3232.000000	1.798629 
3231.000000	1.798748 
3230.000000	1.798748 
3229.000000	1.798605 
3228.000000	1.798439 
3227.000000	1.798248 
3226.000000	1.798176 
3225.000000	1.798200 
3224.000000	1.798439 
3223.000000	1.798844 
3222.000000	1.799345 
3221.000000	1.799964 
3220.000000	1.800584 
3219.000000	1.801156 
3218.000000	1.801657 
3217.000000	1.802039 
3216.000000	1.802253 
3215.000000	1.802444 
3214.000000	1.802515 
3213.000000	1.802539 
3212.000000	1.802539 
3211.000000	1.802515 
3210.000000	1.802492 
3209.000000	1.802420 
3208.000000	1.802349 
3207.000000	1.802277 
3206.000000	1.802229 
3205.000000	1.802253 
3204.000000	1.802349 
3203.000000	1.802515 
3202.000000	1.802778 
3201.000000	1.803088 
3200.000000	1.803469 
3199.000000	1.803851 
3198.000000	1.804161 
3197.000000	1.804423 
3196.000000	1.804637 
3195.000000	1.804757 
3194.000000	1.804828 
3193.000000	1.804852 
3192.000000	1.804876 
3191.000000	1.804947 
3190.000000	1.805067 
3189.000000	1.805257 
3188.000000	1.805520 
3187.000000	1.805853 
3186.000000	1.806211 
3185.000000	1.806521 
3184.000000	1.806879 
3183.000000	1.807141 
3182.000000	1.807355 
3181.000000	1.807498 
3180.000000	1.807665 
3179.000000	1.807808 
3178.000000	1.807975 
3177.000000	1.808190 
3176.000000	1.808476 
3175.000000	1.808786 
3174.000000	1.809167 
3173.000000	1.809573 
3172.000000	1.809954 
3171.000000	1.810359 
3170.000000	1.810765 
3169.000000	1.811194 
3168.000000	1.811671 
3167.000000	1.812148 
3166.000000	1.812696 
3165.000000	1.813316 
3164.000000	1.813983 
3163.000000	1.814699 
3162.000000	1.815462 
3161.000000	1.816225 
3160.000000	1.816987 
3159.000000	1.817750 
3158.000000	1.818418 
3157.000000	1.819062 
3156.000000	1.819658 
3155.000000	1.820254 
3154.000000	1.820802 
3153.000000	1.821398 
3152.000000	1.822018 
3151.000000	1.822733 
3150.000000	1.823496 
3149.000000	1.824331 
3148.000000	1.825213 
3147.000000	1.826119 
3146.000000	1.827025 
3145.000000	1.827931 
3144.000000	1.828813 
3143.000000	1.829695 
3142.000000	1.830577 
3141.000000	1.831507 
3140.000000	1.832461 
3139.000000	1.833438 
3138.000000	1.834440 
3137.000000	1.835489 
3136.000000	1.836609 
3135.000000	1.837730 
3134.000000	1.838874 
3133.000000	1.840019 
3132.000000	1.841115 
3131.000000	1.842236 
3130.000000	1.843237 
3129.000000	1.844263 
3128.000000	1.845240 
3127.000000	1.846265 
3126.000000	1.847386 
3125.000000	1.848578 
3124.000000	1.849937 
3123.000000	1.851415 
3122.000000	1.853036 
3121.000000	1.854777 
3120.000000	1.856565 
3119.000000	1.858353 
3118.000000	1.860070 
3117.000000	1.861763 
3116.000000	1.863336 
3115.000000	1.864790 
3114.000000	1.866173 
3113.000000	1.867532 
3112.000000	1.868867 
3111.000000	1.870226 
3110.000000	1.871585 
3109.000000	1.872992 
3108.000000	1.874423 
3107.000000	1.875901 
3106.000000	1.877379 
3105.000000	1.878833 
3104.000000	1.880264 
3103.000000	1.881718 
3102.000000	1.883196 
3101.000000	1.884722 
3100.000000	1.886343 
3099.000000	1.888179 
3098.000000	1.890206 
3097.000000	1.892471 
3096.000000	1.895022 
3095.000000	1.897764 
3094.000000	1.900672 
3093.000000	1.903653 
3092.000000	1.906633 
3091.000000	1.909470 
3090.000000	1.912188 
3089.000000	1.914668 
3088.000000	1.916956 
3087.000000	1.919054 
3086.000000	1.920986 
3085.000000	1.922821 
3084.000000	1.924514 
3083.000000	1.926112 
3082.000000	1.927661 
3081.000000	1.929116 
3080.000000	1.930475 
3079.000000	1.931738 
3078.000000	1.932930 
3077.000000	1.934075 
3076.000000	1.935243 
3075.000000	1.936411 
3074.000000	1.937603 
3073.000000	1.938819 
3072.000000	1.940107 
3071.000000	1.941418 
3070.000000	1.942729 
3069.000000	1.944041 
3068.000000	1.945352 
3067.000000	1.946592 
3066.000000	1.947760 
3065.000000	1.948952 
3064.000000	1.950120 
3063.000000	1.951336 
3062.000000	1.952672 
3061.000000	1.954126 
3060.000000	1.955723 
3059.000000	1.957464 
3058.000000	1.959347 
3057.000000	1.961326 
3056.000000	1.963376 
3055.000000	1.965451 
3054.000000	1.967525 
3053.000000	1.969599 
3052.000000	1.971626 
3051.000000	1.973605 
3050.000000	1.975560 
3049.000000	1.977467 
3048.000000	1.979303 
3047.000000	1.981067 
3046.000000	1.982688 
3045.000000	1.984190 
3044.000000	1.985526 
3043.000000	1.986646 
3042.000000	1.987600 
3041.000000	1.988387 
3040.000000	1.989006 
3039.000000	1.989507 
3038.000000	1.989936 
3037.000000	1.990270 
3036.000000	1.990556 
3035.000000	1.990771 
3034.000000	1.990938 
3033.000000	1.990962 
3032.000000	1.990842 
3031.000000	1.990532 
3030.000000	1.989960 
3029.000000	1.989126 
3028.000000	1.987957 
3027.000000	1.986432 
3026.000000	1.984596 
3025.000000	1.982498 
3024.000000	1.980280 
3023.000000	1.978063 
3022.000000	1.976108 
3021.000000	1.974511 
3020.000000	1.973509 
3019.000000	1.973295 
3018.000000	1.973938 
3017.000000	1.975512 
3016.000000	1.977968 
3015.000000	1.981282 
3014.000000	1.985239 
3013.000000	1.989722 
3012.000000	1.994490 
3011.000000	1.999402 
3010.000000	2.004265 
3009.000000	2.008867 
3008.000000	2.013206 
3007.000000	2.017140 
3006.000000	2.020740 
3005.000000	2.023959 
3004.000000	2.026915 
3003.000000	2.029633 
3002.000000	2.032113 
3001.000000	2.034354 
3000.000000	2.036476 
2999.000000	2.038359 
2998.000000	2.040004 
2997.000000	2.041316 
2996.000000	2.042388 
2995.000000	2.043128 
2994.000000	2.043581 
2993.000000	2.043700 
2992.000000	2.043604 
2991.000000	2.043318 
2990.000000	2.042818 
2989.000000	2.042198 
2988.000000	2.041411 
2987.000000	2.040433 
2986.000000	2.039337 
2985.000000	2.038121 
2984.000000	2.036762 
2983.000000	2.035236 
2982.000000	2.033543 
2981.000000	2.031660 
2980.000000	2.029585 
2979.000000	2.027225 
2978.000000	2.024602 
2977.000000	2.021622 
2976.000000	2.018260 
2975.000000	2.014374 
2974.000000	2.010035 
2973.000000	2.005171 
2972.000000	1.999783 
2971.000000	1.993942 
2970.000000	1.987695 
2969.000000	1.981258 
2968.000000	1.974821 
2967.000000	1.968550 
2966.000000	1.962661 
2965.000000	1.957368 
2964.000000	1.952815 
2963.000000	1.948952 
2962.000000	1.945829 
2961.000000	1.943373 
2960.000000	1.941466 
2959.000000	1.939964 
2958.000000	1.938748 
2957.000000	1.937723 
2956.000000	1.936769 
2955.000000	1.935791 
2954.000000	1.934671 
2953.000000	1.933383 
2952.000000	1.931810 
2951.000000	1.929855 
2950.000000	1.927304 
2949.000000	1.924204 
2948.000000	1.920413 
2947.000000	1.915812 
2946.000000	1.910328 
2945.000000	1.903963 
2944.000000	1.896858 
2943.000000	1.889061 
2942.000000	1.880574 
2941.000000	1.871657 
2940.000000	1.862478 
2939.000000	1.853132 
2938.000000	1.843857 
2937.000000	1.834797 
2936.000000	1.826047 
2935.000000	1.817703 
2934.000000	1.809835 
2933.000000	1.802420 
2932.000000	1.795554 
2931.000000	1.789331 
2930.000000	1.783847 
2929.000000	1.779294 
2928.000000	1.775956 
2927.000000	1.774096 
2926.000000	1.773929 
2925.000000	1.775717 
2924.000000	1.779508 
2923.000000	1.785326 
2922.000000	1.793074 
2921.000000	1.802515 
2920.000000	1.813364 
2919.000000	1.825165 
2918.000000	1.837587 
2917.000000	1.850175 
2916.000000	1.862645 
2915.000000	1.874637 
2914.000000	1.885986 
2913.000000	1.896548 
2912.000000	1.906275 
2911.000000	1.915073 
2910.000000	1.923084 
2909.000000	1.930308 
2908.000000	1.936793 
2907.000000	1.942658 
2906.000000	1.948022 
2905.000000	1.953005 
2904.000000	1.957654 
2903.000000	1.962041 
2902.000000	1.966214 
2901.000000	1.970171 
2900.000000	1.973938 
2899.000000	1.977539 
2898.000000	1.980948 
2897.000000	1.984167 
2896.000000	1.987218 
2895.000000	1.990103 
2894.000000	1.992869 
2893.000000	1.995515 
2892.000000	1.998114 
2891.000000	2.000665 
2890.000000	2.003097 
2889.000000	2.005481 
2888.000000	2.007770 
2887.000000	2.009916 
2886.000000	2.011919 
2885.000000	2.013754 
2884.000000	2.015328 
2883.000000	2.016639 
2882.000000	2.017617 
2881.000000	2.018213 
2880.000000	2.018404 
2879.000000	2.018094 
2878.000000	2.017211 
2877.000000	2.015709 
2876.000000	2.013468 
2875.000000	2.010440 
2874.000000	2.006554 
2873.000000	2.001690 
2872.000000	1.995778 
2871.000000	1.988863 
2870.000000	1.980972 
2869.000000	1.972246 
2868.000000	1.962971 
2867.000000	1.953434 
2866.000000	1.944041 
2865.000000	1.935315 
2864.000000	1.927733 
2863.000000	1.921796 
2862.000000	1.917791 
2861.000000	1.916074 
2860.000000	1.916623 
2859.000000	1.919388 
2858.000000	1.924157 
2857.000000	1.930618 
2856.000000	1.938366 
2855.000000	1.947140 
2854.000000	1.956510 
2853.000000	1.966261 
2852.000000	1.976251 
2851.000000	1.986312 
2850.000000	1.996397 
2849.000000	2.006387 
2848.000000	2.016282 
2847.000000	2.025985 
2846.000000	2.035379 
2845.000000	2.044367 
2844.000000	2.052903 
2843.000000	2.060890 
2842.000000	2.068281 
2841.000000	2.075099 
2840.000000	2.081418 
2839.000000	2.087259 
2838.000000	2.092623 
2837.000000	2.097582 
2836.000000	2.102231 
2835.000000	2.106595 
2834.000000	2.110671 
2833.000000	2.114462 
2832.000000	2.118062 
2831.000000	2.121472 
2830.000000	2.124714 
2829.000000	2.127814 
2828.000000	2.130818 
2827.000000	2.133750 
2826.000000	2.136611 
2825.000000	2.139401 
2824.000000	2.142190 
2823.000000	2.145004 
2822.000000	2.147865 
2821.000000	2.150702 
2820.000000	2.153539 
2819.000000	2.156400 
2818.000000	2.159237 
2817.000000	2.162051 
2816.000000	2.164697 
2815.000000	2.167296 
2814.000000	2.169656 
2813.000000	2.171802 
2812.000000	2.173805 
2811.000000	2.175569 
2810.000000	2.177214 
2809.000000	2.178740 
2808.000000	2.180194 
2807.000000	2.181673 
2806.000000	2.183246 
2805.000000	2.184915 
2804.000000	2.186679 
2803.000000	2.188563 
2802.000000	2.190566 
2801.000000	2.192568 
2800.000000	2.194595 
2799.000000	2.196574 
2798.000000	2.198481 
2797.000000	2.200269 
2796.000000	2.201938 
2795.000000	2.203536 
2794.000000	2.205061 
2793.000000	2.206540 
2792.000000	2.207970 
2791.000000	2.209448 
2790.000000	2.211046 
2789.000000	2.212738 
2788.000000	2.214574 
2787.000000	2.216601 
2786.000000	2.218699 
2785.000000	2.220940 
2784.000000	2.223229 
2783.000000	2.225542 
2782.000000	2.227807 
2781.000000	2.229976 
2780.000000	2.232027 
2779.000000	2.233958 
2778.000000	2.235770 
2777.000000	2.237462 
2776.000000	2.239108 
2775.000000	2.240681 
2774.000000	2.242279 
2773.000000	2.243876 
2772.000000	2.245473 
2771.000000	2.247047 
2770.000000	2.248573 
2769.000000	2.250051 
2768.000000	2.251410 
2767.000000	2.252650 
2766.000000	2.253746 
2765.000000	2.254700 
2764.000000	2.255606 
2763.000000	2.256441 
2762.000000	2.257275 
2761.000000	2.258086 
2760.000000	2.258896 
2759.000000	2.259707 
2758.000000	2.260470 
2757.000000	2.261161 
2756.000000	2.261781 
2755.000000	2.262330 
2754.000000	2.262854 
2753.000000	2.263355 
2752.000000	2.263879 
2751.000000	2.264380 
2750.000000	2.264928 
2749.000000	2.265548 
2748.000000	2.266144 
2747.000000	2.266740 
2746.000000	2.267265 
2745.000000	2.267789 
2744.000000	2.268290 
2743.000000	2.268719 
2742.000000	2.269077 
2741.000000	2.269458 
2740.000000	2.269840 
2739.000000	2.270150 
2738.000000	2.270412 
2737.000000	2.270627 
2736.000000	2.270793 
2735.000000	2.270889 
2734.000000	2.270889 
2733.000000	2.270865 
2732.000000	2.270793 
2731.000000	2.270698 
2730.000000	2.270603 
2729.000000	2.270531 
2728.000000	2.270436 
2727.000000	2.270340 
2726.000000	2.270269 
2725.000000	2.270102 
2724.000000	2.269935 
2723.000000	2.269673 
2722.000000	2.269363 
2721.000000	2.268981 
2720.000000	2.268528 
2719.000000	2.267980 
2718.000000	2.267432 
2717.000000	2.266836 
2716.000000	2.266192 
2715.000000	2.265524 
2714.000000	2.264833 
2713.000000	2.264094 
2712.000000	2.263307 
2711.000000	2.262473 
2710.000000	2.261614 
2709.000000	2.260708 
2708.000000	2.259874 
2707.000000	2.259111 
2706.000000	2.258467 
2705.000000	2.258038 
2704.000000	2.257657 
2703.000000	2.257442 
2702.000000	2.257299 
2701.000000	2.257156 
2700.000000	2.256989 
2699.000000	2.256727 
2698.000000	2.256345 
2697.000000	2.255868 
2696.000000	2.255272 
2695.000000	2.254629 
2694.000000	2.253985 
2693.000000	2.253365 
2692.000000	2.252793 
2691.000000	2.252316 
2690.000000	2.251887 
2689.000000	2.251505 
2688.000000	2.251172 
2687.000000	2.250838 
2686.000000	2.250456 
2685.000000	2.250027 
2684.000000	2.249479 
2683.000000	2.248883 
2682.000000	2.248239 
2681.000000	2.247571 
2680.000000	2.246928 
2679.000000	2.246284 
2678.000000	2.245664 
2677.000000	2.245068 
2676.000000	2.244520 
2675.000000	2.243900 
2674.000000	2.243256 
2673.000000	2.242565 
2672.000000	2.241802 
2671.000000	2.241039 
2670.000000	2.240276 
2669.000000	2.239513 
2668.000000	2.238774 
2667.000000	2.238106 
2666.000000	2.237439 
2665.000000	2.236819 
2664.000000	2.236175 
2663.000000	2.235531 
2662.000000	2.234935 
2661.000000	2.234363 
2660.000000	2.233815 
2659.000000	2.233362 
2658.000000	2.232980 
2657.000000	2.232623 
2656.000000	2.232360 
2655.000000	2.232122 
2654.000000	2.231884 
2653.000000	2.231621 
2652.000000	2.231311 
2651.000000	2.230954 
2650.000000	2.230572 
2649.000000	2.230143 
2648.000000	2.229738 
2647.000000	2.229428 
2646.000000	2.229189 
2645.000000	2.229046 
2644.000000	2.228975 
2643.000000	2.228975 
2642.000000	2.229070 
2641.000000	2.229166 
2640.000000	2.229213 
2639.000000	2.229189 
2638.000000	2.229118 
2637.000000	2.228975 
2636.000000	2.228784 
2635.000000	2.228593 
2634.000000	2.228450 
2633.000000	2.228355 
2632.000000	2.228307 
2631.000000	2.228379 
2630.000000	2.228498 
2629.000000	2.228736 
2628.000000	2.229046 
2627.000000	2.229380 
2626.000000	2.229785 
2625.000000	2.230191 
2624.000000	2.230596 
2623.000000	2.230954 
2622.000000	2.231287 
2621.000000	2.231526 
2620.000000	2.231669 
2619.000000	2.231717 
2618.000000	2.231740 
2617.000000	2.231740 
2616.000000	2.231788 
2615.000000	2.231955 
2614.000000	2.232241 
2613.000000	2.232623 
2612.000000	2.233123 
2611.000000	2.233695 
2610.000000	2.234292 
2609.000000	2.234840 
2608.000000	2.235293 
2607.000000	2.235651 
2606.000000	2.235889 
2605.000000	2.236032 
2604.000000	2.236032 
2603.000000	2.236008 
2602.000000	2.235984 
2601.000000	2.235937 
2600.000000	2.235960 
2599.000000	2.236032 
2598.000000	2.236175 
2597.000000	2.236413 
2596.000000	2.236700 
2595.000000	2.237105 
2594.000000	2.237606 
2593.000000	2.238249 
2592.000000	2.238988 
2591.000000	2.239894 
2590.000000	2.240943 
2589.000000	2.242159 
2588.000000	2.243471 
2587.000000	2.244901 
2586.000000	2.246475 
2585.000000	2.248144 
2584.000000	2.249884 
2583.000000	2.251720 
2582.000000	2.253580 
2581.000000	2.255415 
2580.000000	2.257251 
2579.000000	2.259016 
2578.000000	2.260732 
2577.000000	2.262425 
2576.000000	2.264070 
2575.000000	2.265715 
2574.000000	2.267384 
2573.000000	2.269124 
2572.000000	2.270889 
2571.000000	2.272748 
2570.000000	2.274632 
2569.000000	2.276539 
2568.000000	2.278447 
2567.000000	2.280306 
2566.000000	2.282071 
2565.000000	2.283763 
2564.000000	2.285313 
2563.000000	2.286767 
2562.000000	2.288079 
2561.000000	2.289295 
2560.000000	2.290415 
2559.000000	2.291464 
2558.000000	2.292418 
2557.000000	2.293324 
2556.000000	2.294206 
2555.000000	2.295064 
2554.000000	2.295875 
2553.000000	2.296710 
2552.000000	2.297544 
2551.000000	2.298402 
2550.000000	2.299308 
2549.000000	2.300310 
2548.000000	2.301335 
2547.000000	2.302455 
2546.000000	2.303671 
2545.000000	2.305030 
2544.000000	2.306437 
2543.000000	2.307891 
2542.000000	2.309370 
2541.000000	2.310848 
2540.000000	2.312302 
2539.000000	2.313661 
2538.000000	2.314949 
2537.000000	2.316141 
2536.000000	2.317190 
2535.000000	2.318143 
2534.000000	2.319002 
2533.000000	2.319812 
2532.000000	2.320575 
2531.000000	2.321314 
2530.000000	2.322053 
2529.000000	2.322769 
2528.000000	2.323484 
2527.000000	2.324151 
2526.000000	2.324843 
2525.000000	2.325510 
2524.000000	2.326130 
2523.000000	2.326774 
2522.000000	2.327394 
2521.000000	2.327942 
2520.000000	2.328467 
2519.000000	2.328848 
2518.000000	2.329182 
2517.000000	2.329421 
2516.000000	2.329587 
2515.000000	2.329730 
2514.000000	2.329921 
2513.000000	2.330231 
2512.000000	2.330636 
2511.000000	2.331185 
2510.000000	2.331948 
2509.000000	2.332830 
2508.000000	2.333807 
2507.000000	2.334856 
2506.000000	2.335858 
2505.000000	2.336764 
2504.000000	2.337479 
2503.000000	2.337980 
2502.000000	2.338266 
2501.000000	2.338361 
2500.000000	2.338266 
2499.000000	2.338075 
2498.000000	2.337789 
2497.000000	2.337479 
2496.000000	2.337193 
2495.000000	2.336955 
2494.000000	2.336740 
2493.000000	2.336525 
2492.000000	2.336382 
2491.000000	2.336215 
2490.000000	2.336025 
2489.000000	2.335786 
2488.000000	2.335548 
2487.000000	2.335214 
2486.000000	2.334833 
2485.000000	2.334403 
2484.000000	2.333903 
2483.000000	2.333402 
2482.000000	2.332973 
2481.000000	2.332568 
2480.000000	2.332282 
2479.000000	2.332115 
2478.000000	2.332091 
2477.000000	2.332139 
2476.000000	2.332258 
2475.000000	2.332401 
2474.000000	2.332425 
2473.000000	2.332377 
2472.000000	2.332210 
2471.000000	2.331852 
2470.000000	2.331328 
2469.000000	2.330684 
2468.000000	2.329945 
2467.000000	2.329087 
2466.000000	2.328109 
2465.000000	2.327013 
2464.000000	2.325820 
2463.000000	2.324533 
2462.000000	2.323174 
2461.000000	2.321743 
2460.000000	2.320313 
2459.000000	2.318954 
2458.000000	2.317690 
2457.000000	2.316570 
2456.000000	2.315640 
2455.000000	2.314829 
2454.000000	2.314138 
2453.000000	2.313423 
2452.000000	2.312660 
2451.000000	2.311730 
2450.000000	2.310657 
2449.000000	2.309417 
2448.000000	2.308058 
2447.000000	2.306580 
2446.000000	2.305126 
2445.000000	2.303743 
2444.000000	2.302455 
2443.000000	2.301239 
2442.000000	2.300119 
2441.000000	2.299094 
2440.000000	2.298069 
2439.000000	2.296996 
2438.000000	2.295875 
2437.000000	2.294707 
2436.000000	2.293515 
2435.000000	2.292275 
2434.000000	2.291035 
2433.000000	2.289819 
2432.000000	2.288675 
2431.000000	2.287578 
2430.000000	2.286553 
2429.000000	2.285599 
2428.000000	2.284693 
2427.000000	2.283811 
2426.000000	2.282953 
2425.000000	2.282094 
2424.000000	2.281212 
2423.000000	2.280306 
2422.000000	2.279448 
2421.000000	2.278590 
2420.000000	2.277755 
2419.000000	2.276992 
2418.000000	2.276253 
2417.000000	2.275609 
2416.000000	2.274990 
2415.000000	2.274370 
2414.000000	2.273750 
2413.000000	2.273082 
2412.000000	2.272367 
2411.000000	2.271556 
2410.000000	2.270722 
2409.000000	2.269840 
2408.000000	2.269005 
2407.000000	2.268171 
2406.000000	2.267408 
2405.000000	2.266716 
2404.000000	2.266120 
2403.000000	2.265572 
2402.000000	2.265071 
2401.000000	2.264595 
2400.000000	2.264070 
2399.000000	2.263545 
2398.000000	2.262926 
2397.000000	2.262306 
2396.000000	2.261686 
2395.000000	2.261090 
2394.000000	2.260518 
2393.000000	2.260017 
2392.000000	2.259564 
2391.000000	2.259159 
2390.000000	2.258825 
2389.000000	2.258491 
2388.000000	2.258205 
2387.000000	2.257895 
2386.000000	2.257609 
2385.000000	2.257323 
2384.000000	2.257013 
2383.000000	2.256727 
2382.000000	2.256393 
2381.000000	2.256011 
2380.000000	2.255582 
2379.000000	2.255034 
2378.000000	2.254343 
2377.000000	2.253508 
2376.000000	2.252578 
2375.000000	2.251505 
2374.000000	2.250385 
2373.000000	2.249193 
2372.000000	2.248072 
2371.000000	2.247023 
2370.000000	2.246093 
2369.000000	2.245306 
2368.000000	2.244663 
2367.000000	2.244162 
2366.000000	2.243828 
2365.000000	2.243685 
2364.000000	2.243709 
2363.000000	2.243995 
2362.000000	2.244591 
2361.000000	2.245521 
2360.000000	2.246832 
2359.000000	2.248525 
2358.000000	2.250552 
2357.000000	2.252817 
2356.000000	2.255320 
2355.000000	2.257823 
2354.000000	2.260303 
2353.000000	2.262687 
2352.000000	2.264761 
2351.000000	2.266597 
2350.000000	2.268123 
2349.000000	2.269387 
2348.000000	2.270388 
2347.000000	2.271223 
2346.000000	2.271914 
2345.000000	2.272558 
2344.000000	2.273130 
2343.000000	2.273726 
2342.000000	2.274322 
2341.000000	2.274990 
2340.000000	2.275729 
2339.000000	2.276539 
2338.000000	2.277517 
2337.000000	2.278661 
2336.000000	2.279996 
2335.000000	2.281522 
2334.000000	2.283167 
2333.000000	2.284932 
2332.000000	2.286791 
2331.000000	2.288675 
2330.000000	2.290534 
2329.000000	2.292370 
2328.000000	2.294182 
2327.000000	2.296066 
2326.000000	2.297997 
2325.000000	2.300071 
2324.000000	2.302265 
2323.000000	2.304553 
2322.000000	2.306962 
2321.000000	2.309393 
2320.000000	2.311825 
2319.000000	2.314138 
2318.000000	2.316355 
2317.000000	2.318453 
2316.000000	2.320432 
2315.000000	2.322340 
2314.000000	2.324199 
2313.000000	2.326059 
2312.000000	2.327942 
2311.000000	2.329874 
2310.000000	2.331829 
2309.000000	2.333760 
2308.000000	2.335619 
2307.000000	2.337384 
2306.000000	2.339005 
2305.000000	2.340459 
2304.000000	2.341747 
2303.000000	2.342891 
2302.000000	2.343988 
2301.000000	2.345132 
2300.000000	2.346301 
2299.000000	2.347612 
2298.000000	2.349090 
2297.000000	2.350759 
2296.000000	2.352523 
2295.000000	2.354383 
2294.000000	2.356243 
2293.000000	2.358055 
2292.000000	2.359747 
2291.000000	2.361297 
2290.000000	2.362704 
2289.000000	2.363920 
2288.000000	2.365040 
2287.000000	2.366018 
2286.000000	2.366995 
2285.000000	2.367949 
2284.000000	2.368927 
2283.000000	2.369976 
2282.000000	2.371096 
2281.000000	2.372241 
2280.000000	2.373480 
2279.000000	2.374744 
2278.000000	2.375936 
2277.000000	2.377080 
2276.000000	2.378153 
2275.000000	2.379131 
2274.000000	2.380037 
2273.000000	2.380800 
2272.000000	2.381515 
2271.000000	2.382135 
2270.000000	2.382636 
2269.000000	2.383065 
2268.000000	2.383399 
2267.000000	2.383685 
2266.000000	2.383899 
2265.000000	2.384090 
2264.000000	2.384209 
2263.000000	2.384400 
2262.000000	2.384614 
2261.000000	2.384877 
2260.000000	2.385210 
2259.000000	2.385616 
2258.000000	2.386093 
2257.000000	2.386593 
2256.000000	2.387142 
2255.000000	2.387714 
2254.000000	2.388310 
2253.000000	2.388930 
2252.000000	2.389574 
2251.000000	2.390217 
2250.000000	2.390837 
2249.000000	2.391338 
2248.000000	2.391719 
2247.000000	2.392029 
2246.000000	2.392148 
2245.000000	2.392196 
2244.000000	2.392125 
2243.000000	2.392005 
2242.000000	2.391862 
2241.000000	2.391719 
2240.000000	2.391576 
2239.000000	2.391481 
2238.000000	2.391362 
2237.000000	2.391266 
2236.000000	2.391147 
2235.000000	2.390980 
2234.000000	2.390813 
2233.000000	2.390575 
2232.000000	2.390313 
2231.000000	2.389955 
2230.000000	2.389597 
2229.000000	2.389168 
2228.000000	2.388691 
2227.000000	2.388143 
2226.000000	2.387475 
2225.000000	2.386713 
2224.000000	2.385926 
2223.000000	2.385067 
2222.000000	2.384185 
2221.000000	2.383351 
2220.000000	2.382564 
2219.000000	2.381825 
2218.000000	2.381181 
2217.000000	2.380561 
2216.000000	2.380013 
2215.000000	2.379441 
2214.000000	2.378869 
2213.000000	2.378249 
2212.000000	2.377533 
2211.000000	2.376723 
2210.000000	2.375841 
2209.000000	2.374935 
2208.000000	2.373981 
2207.000000	2.373003 
2206.000000	2.372050 
2205.000000	2.371120 
2204.000000	2.370190 
2203.000000	2.369308 
2202.000000	2.368450 
2201.000000	2.367615 
2200.000000	2.366781 
2199.000000	2.365922 
2198.000000	2.365064 
2197.000000	2.364206 
2196.000000	2.363324 
2195.000000	2.362465 
2194.000000	2.361726 
2193.000000	2.361011 
2192.000000	2.360391 
2191.000000	2.359843 
2190.000000	2.359390 
2189.000000	2.359056 
2188.000000	2.358675 
2187.000000	2.358341 
2186.000000	2.357959 
2185.000000	2.357506 
2184.000000	2.356886 
2183.000000	2.356076 
2182.000000	2.355122 
2181.000000	2.354049 
2180.000000	2.352881 
2179.000000	2.351689 
2178.000000	2.350592 
2177.000000	2.349662 
2176.000000	2.348947 
2175.000000	2.348518 
2174.000000	2.348351 
2173.000000	2.348375 
2172.000000	2.348518 
2171.000000	2.348661 
2170.000000	2.348709 
2169.000000	2.348589 
2168.000000	2.348303 
2167.000000	2.347850 
2166.000000	2.347207 
2165.000000	2.346467 
2164.000000	2.345705 
2163.000000	2.344894 
2162.000000	2.344202 
2161.000000	2.343559 
2160.000000	2.343082 
2159.000000	2.342772 
2158.000000	2.342581 
2157.000000	2.342534 
2156.000000	2.342557 
2155.000000	2.342677 
2154.000000	2.342844 
2153.000000	2.342963 
2152.000000	2.343058 
2151.000000	2.343082 
2150.000000	2.343106 
2149.000000	2.343082 
2148.000000	2.343010 
2147.000000	2.342915 
2146.000000	2.342820 
2145.000000	2.342724 
2144.000000	2.342581 
2143.000000	2.342462 
2142.000000	2.342319 
2141.000000	2.342200 
2140.000000	2.342128 
2139.000000	2.342081 
2138.000000	2.342128 
2137.000000	2.342247 
2136.000000	2.342414 
2135.000000	2.342653 
2134.000000	2.342844 
2133.000000	2.342987 
2132.000000	2.343010 
2131.000000	2.342915 
2130.000000	2.342748 
2129.000000	2.342510 
2128.000000	2.342271 
2127.000000	2.342104 
2126.000000	2.342057 
2125.000000	2.342176 
2124.000000	2.342438 
2123.000000	2.342820 
2122.000000	2.343249 
2121.000000	2.343678 
2120.000000	2.344012 
2119.000000	2.344250 
2118.000000	2.344441 
2117.000000	2.344584 
2116.000000	2.344679 
2115.000000	2.344870 
2114.000000	2.345132 
2113.000000	2.345490 
2112.000000	2.345991 
2111.000000	2.346539 
2110.000000	2.347087 
2109.000000	2.347564 
2108.000000	2.347970 
2107.000000	2.348256 
2106.000000	2.348375 
2105.000000	2.348327 
2104.000000	2.348136 
2103.000000	2.347826 
2102.000000	2.347493 
2101.000000	2.347064 
2100.000000	2.346611 
2099.000000	2.346181 
2098.000000	2.345776 
2097.000000	2.345418 
2096.000000	2.345132 
2095.000000	2.345013 
2094.000000	2.344989 
2093.000000	2.345180 
2092.000000	2.345490 
2091.000000	2.345967 
2090.000000	2.346587 
2089.000000	2.347278 
2088.000000	2.347993 
2087.000000	2.348732 
2086.000000	2.349448 
2085.000000	2.350139 
2084.000000	2.350831 
2083.000000	2.351546 
2082.000000	2.352333 
2081.000000	2.353286 
2080.000000	2.354383 
2079.000000	2.355694 
2078.000000	2.357172 
2077.000000	2.358818 
2076.000000	2.360558 
2075.000000	2.362394 
2074.000000	2.364206 
2073.000000	2.365994 
2072.000000	2.367758 
2071.000000	2.369475 
2070.000000	2.371144 
2069.000000	2.372860 
2068.000000	2.374553 
2067.000000	2.376294 
2066.000000	2.378082 
2065.000000	2.379965 
2064.000000	2.381920 
2063.000000	2.383995 
2062.000000	2.386188 
2061.000000	2.388501 
2060.000000	2.390909 
2059.000000	2.393388 
2058.000000	2.395892 
2057.000000	2.398395 
2056.000000	2.400827 
2055.000000	2.403187 
2054.000000	2.405405 
2053.000000	2.407550 
2052.000000	2.409625 
2051.000000	2.411651 
2050.000000	2.413678 
2049.000000	2.415728 
2048.000000	2.417778 
2047.000000	2.419829 
2046.000000	2.421855 
2045.000000	2.423787 
2044.000000	2.425646 
2043.000000	2.427434 
2042.000000	2.429080 
2041.000000	2.430653 
2040.000000	2.432203 
2039.000000	2.433681 
2038.000000	2.435159 
2037.000000	2.436614 
2036.000000	2.438044 
2035.000000	2.439451 
2034.000000	2.440810 
2033.000000	2.442097 
2032.000000	2.443313 
2031.000000	2.444481 
2030.000000	2.445626 
2029.000000	2.446770 
2028.000000	2.447915 
2027.000000	2.449059 
2026.000000	2.450203 
2025.000000	2.451252 
2024.000000	2.452230 
2023.000000	2.453041 
2022.000000	2.453708 
2021.000000	2.454257 
2020.000000	2.454710 
2019.000000	2.455067 
2018.000000	2.455425 
2017.000000	2.455854 
2016.000000	2.456307 
2015.000000	2.456831 
2014.000000	2.457404 
2013.000000	2.458000 
2012.000000	2.458596 
2011.000000	2.459168 
2010.000000	2.459716 
2009.000000	2.460241 
2008.000000	2.460789 
2007.000000	2.461338 
2006.000000	2.461838 
2005.000000	2.462315 
2004.000000	2.462768 
2003.000000	2.463173 
2002.000000	2.463507 
2001.000000	2.463746 
2000.000000	2.463960 
1999.000000	2.464103 
1998.000000	2.464151 
1997.000000	2.464175 
1996.000000	2.464056 
1995.000000	2.463912 
1994.000000	2.463674 
1993.000000	2.463364 
1992.000000	2.462911 
1991.000000	2.462434 
1990.000000	2.461910 
1989.000000	2.461338 
1988.000000	2.460741 
1987.000000	2.460193 
1986.000000	2.459669 
1985.000000	2.459216 
1984.000000	2.458763 
1983.000000	2.458310 
1982.000000	2.457809 
1981.000000	2.457332 
1980.000000	2.456760 
1979.000000	2.456164 
1978.000000	2.455472 
1977.000000	2.454733 
1976.000000	2.453875 
1975.000000	2.452945 
1974.000000	2.451944 
1973.000000	2.450919 
1972.000000	2.449846 
1971.000000	2.448844 
1970.000000	2.447843 
1969.000000	2.446985 
1968.000000	2.446222 
1967.000000	2.445507 
1966.000000	2.444958 
1965.000000	2.444434 
1964.000000	2.444028 
1963.000000	2.443623 
1962.000000	2.443265 
1961.000000	2.442908 
1960.000000	2.442526 
1959.000000	2.442049 
1958.000000	2.441501 
1957.000000	2.440857 
1956.000000	2.440094 
1955.000000	2.439188 
1954.000000	2.438139 
1953.000000	2.436971 
1952.000000	2.435708 
1951.000000	2.434349 
1950.000000	2.432942 
1949.000000	2.431488 
1948.000000	2.430081 
1947.000000	2.428722 
1946.000000	2.427411 
1945.000000	2.426242 
1944.000000	2.425146 
1943.000000	2.424144 
1942.000000	2.423238 
1941.000000	2.422380 
1940.000000	2.421545 
1939.000000	2.420735 
1938.000000	2.419948 
1937.000000	2.419137 
1936.000000	2.418327 
1935.000000	2.417564 
1934.000000	2.416801 
1933.000000	2.416086 
1932.000000	2.415370 
1931.000000	2.414679 
1930.000000	2.413940 
1929.000000	2.413177 
1928.000000	2.412271 
1927.000000	2.411246 
1926.000000	2.410054 
1925.000000	2.408766 
1924.000000	2.407336 
1923.000000	2.405881 
1922.000000	2.404451 
1921.000000	2.403068 
1920.000000	2.401852 
1919.000000	2.400755 
1918.000000	2.399802 
1917.000000	2.398967 
1916.000000	2.398180 
1915.000000	2.397370 
1914.000000	2.396512 
1913.000000	2.395510 
1912.000000	2.394413 
1911.000000	2.393198 
1910.000000	2.391886 
1909.000000	2.390551 
1908.000000	2.389240 
1907.000000	2.387976 
1906.000000	2.386808 
1905.000000	2.385807 
1904.000000	2.384948 
1903.000000	2.384233 
1902.000000	2.383613 
1901.000000	2.383160 
1900.000000	2.382731 
1899.000000	2.382349 
1898.000000	2.381944 
1897.000000	2.381539 
1896.000000	2.381134 
1895.000000	2.380728 
1894.000000	2.380371 
1893.000000	2.380061 
1892.000000	2.379846 
1891.000000	2.379798 
1890.000000	2.379870 
1889.000000	2.380084 
1888.000000	2.380371 
1887.000000	2.380776 
1886.000000	2.381205 
1885.000000	2.381682 
1884.000000	2.382087 
1883.000000	2.382516 
1882.000000	2.382946 
1881.000000	2.383327 
1880.000000	2.383708 
1879.000000	2.384066 
1878.000000	2.384352 
1877.000000	2.384567 
1876.000000	2.384734 
1875.000000	2.384781 
1874.000000	2.384710 
1873.000000	2.384591 
1872.000000	2.384471 
1871.000000	2.384471 
1870.000000	2.384614 
1869.000000	2.384972 
1868.000000	2.385592 
1867.000000	2.386474 
1866.000000	2.387523 
1865.000000	2.388668 
1864.000000	2.389907 
1863.000000	2.391052 
1862.000000	2.392172 
1861.000000	2.393102 
1860.000000	2.393937 
1859.000000	2.394652 
1858.000000	2.395319 
1857.000000	2.395963 
1856.000000	2.396559 
1855.000000	2.397179 
1854.000000	2.397751 
1853.000000	2.398252 
1852.000000	2.398681 
1851.000000	2.399015 
1850.000000	2.399277 
1849.000000	2.399516 
1848.000000	2.399754 
1847.000000	2.400135 
1846.000000	2.400660 
1845.000000	2.401399 
1844.000000	2.402424 
1843.000000	2.403736 
1842.000000	2.405214 
1841.000000	2.406835 
1840.000000	2.408456 
1839.000000	2.410006 
1838.000000	2.411341 
1837.000000	2.412438 
1836.000000	2.413272 
1835.000000	2.413845 
1834.000000	2.414226 
1833.000000	2.414488 
1832.000000	2.414751 
1831.000000	2.415037 
1830.000000	2.415466 
1829.000000	2.416062 
1828.000000	2.416825 
1827.000000	2.417826 
1826.000000	2.418971 
1825.000000	2.420282 
1824.000000	2.421712 
1823.000000	2.423238 
1822.000000	2.424812 
1821.000000	2.426362 
1820.000000	2.427840 
1819.000000	2.429270 
1818.000000	2.430558 
1817.000000	2.431678 
1816.000000	2.432632 
1815.000000	2.433490 
1814.000000	2.434229 
1813.000000	2.434921 
1812.000000	2.435588 
1811.000000	2.436232 
1810.000000	2.436852 
1809.000000	2.437448 
1808.000000	2.437949 
1807.000000	2.438402 
1806.000000	2.438759 
1805.000000	2.438974 
1804.000000	2.439117 
1803.000000	2.439165 
1802.000000	2.439117 
1801.000000	2.438998 
1800.000000	2.438735 
1799.000000	2.438259 
1798.000000	2.437615 
1797.000000	2.436876 
1796.000000	2.436041 
1795.000000	2.435231 
1794.000000	2.434563 
1793.000000	2.434086 
1792.000000	2.433919 
1791.000000	2.434062 
1790.000000	2.434444 
1789.000000	2.434992 
1788.000000	2.435541 
1787.000000	2.436017 
1786.000000	2.436351 
1785.000000	2.436494 
1784.000000	2.436423 
1783.000000	2.436113 
1782.000000	2.435588 
1781.000000	2.434825 
1780.000000	2.433776 
1779.000000	2.432489 
1778.000000	2.430891 
1777.000000	2.429080 
1776.000000	2.427124 
1775.000000	2.425169 
1774.000000	2.423429 
1773.000000	2.422022 
1772.000000	2.421021 
1771.000000	2.420496 
1770.000000	2.420401 
1769.000000	2.420663 
1768.000000	2.421045 
1767.000000	2.421426 
1766.000000	2.421689 
1765.000000	2.421641 
1764.000000	2.421307 
1763.000000	2.420639 
1762.000000	2.419662 
1761.000000	2.418375 
1760.000000	2.416777 
1759.000000	2.414846 
1758.000000	2.412581 
1757.000000	2.409911 
1756.000000	2.406930 
1755.000000	2.403688 
1754.000000	2.400255 
1753.000000	2.396774 
1752.000000	2.393341 
1751.000000	2.390074 
1750.000000	2.386999 
1749.000000	2.384138 
1748.000000	2.381420 
1747.000000	2.378749 
1746.000000	2.376008 
1745.000000	2.373027 
1744.000000	2.369785 
1743.000000	2.366089 
1742.000000	2.361989 
1741.000000	2.357482 
1740.000000	2.352714 
1739.000000	2.347850 
1738.000000	2.343130 
1737.000000	2.338790 
1736.000000	2.335095 
1735.000000	2.332258 
1734.000000	2.330374 
1733.000000	2.329444 
1732.000000	2.329468 
1731.000000	2.330160 
1730.000000	2.331280 
1729.000000	2.332496 
1728.000000	2.333474 
1727.000000	2.333927 
1726.000000	2.333664 
1725.000000	2.332544 
1724.000000	2.330541 
1723.000000	2.327728 
1722.000000	2.324295 
1721.000000	2.320551 
1720.000000	2.316808 
1719.000000	2.313351 
1718.000000	2.310538 
1717.000000	2.308487 
1716.000000	2.307271 
1715.000000	2.306771 
1714.000000	2.306723 
1713.000000	2.306866 
1712.000000	2.306771 
1711.000000	2.306199 
1710.000000	2.304959 
1709.000000	2.302837 
1708.000000	2.299928 
1707.000000	2.296161 
1706.000000	2.291798 
1705.000000	2.286934 
1704.000000	2.281856 
1703.000000	2.276706 
1702.000000	2.271819 
1701.000000	2.267384 
1700.000000	2.263736 
1699.000000	2.261090 
1698.000000	2.259540 
1697.000000	2.259087 
1696.000000	2.259635 
1695.000000	2.260851 
1694.000000	2.262306 
1693.000000	2.263545 
1692.000000	2.264118 
1691.000000	2.263712 
1690.000000	2.262210 
1689.000000	2.259755 
1688.000000	2.256679 
1687.000000	2.253389 
1686.000000	2.250337 
1685.000000	2.247905 
1684.000000	2.246308 
1683.000000	2.245616 
1682.000000	2.245616 
1681.000000	2.245998 
1680.000000	2.246356 
1679.000000	2.246403 
1678.000000	2.245903 
1677.000000	2.244710 
1676.000000	2.242946 
1675.000000	2.240800 
1674.000000	2.238416 
1673.000000	2.236056 
1672.000000	2.233791 
1671.000000	2.231717 
1670.000000	2.229785 
1669.000000	2.228021 
1668.000000	2.226352 
1667.000000	2.224779 
1666.000000	2.223181 
1665.000000	2.221560 
1664.000000	2.219867 
1663.000000	2.217888 
1662.000000	2.215456 
1661.000000	2.212429 
1660.000000	2.208590 
1659.000000	2.203917 
1658.000000	2.198505 
1657.000000	2.192616 
1656.000000	2.186632 
1655.000000	2.180981 
1654.000000	2.176070 
1653.000000	2.172207 
1652.000000	2.169489 
1651.000000	2.167844 
1650.000000	2.167153 
1649.000000	2.167129 
1648.000000	2.167415 
1647.000000	2.167797 
1646.000000	2.168059 
1645.000000	2.168035 
1644.000000	2.167534 
1643.000000	2.166581 
1642.000000	2.165079 
1641.000000	2.163052 
1640.000000	2.160573 
1639.000000	2.157783 
1638.000000	2.154827 
1637.000000	2.151870 
1636.000000	2.149128 
1635.000000	2.146625 
1634.000000	2.144455 
1633.000000	2.142500 
1632.000000	2.140641 
1631.000000	2.138638 
1630.000000	2.136325 
1629.000000	2.133655 
1628.000000	2.130484 
1627.000000	2.126789 
1626.000000	2.122616 
1625.000000	2.117967 
1624.000000	2.112770 
1623.000000	2.106976 
1622.000000	2.100491 
1621.000000	2.093243 
1620.000000	2.085137 
1619.000000	2.076172 
1618.000000	2.066469 
1617.000000	2.056074 
1616.000000	2.045249 
1615.000000	2.034235 
1614.000000	2.023315 
1613.000000	2.012753 
1612.000000	2.002978 
1611.000000	1.994276 
1610.000000	1.987004 
1609.000000	1.981377 
1608.000000	1.977610 
1607.000000	1.975774 
1606.000000	1.975750 
1605.000000	1.977419 
1604.000000	1.980447 
1603.000000	1.984500 
1602.000000	1.989150 
1601.000000	1.994132 
1600.000000	1.999068 
1599.000000	2.003741 
1598.000000	2.008080 
1597.000000	2.011847 
1596.000000	2.015042 
1595.000000	2.017688 
1594.000000	2.019715 
1593.000000	2.021169 
1592.000000	2.022027 
1591.000000	2.022314 
1590.000000	2.022147 
1589.000000	2.021527 
1588.000000	2.020478 
1587.000000	2.019071 
1586.000000	2.017307 
1585.000000	2.015233 
1584.000000	2.012825 
1583.000000	2.010107 
1582.000000	2.007198 
1581.000000	2.004170 
1580.000000	2.001118 
1579.000000	1.998209 
1578.000000	1.995658 
1577.000000	1.993489 
1576.000000	1.991772 
1575.000000	1.990532 
1574.000000	1.989626 
1573.000000	1.988983 
1572.000000	1.988387 
1571.000000	1.987624 
1570.000000	1.986503 
1569.000000	1.984739 
1568.000000	1.982188 
1567.000000	1.978611 
1566.000000	1.973915 
1565.000000	1.968169 
1564.000000	1.961660 
1563.000000	1.954698 
1562.000000	1.947927 
1561.000000	1.941871 
1560.000000	1.937150 
1559.000000	1.934242 
1558.000000	1.933360 
1557.000000	1.934552 
1556.000000	1.937508 
1555.000000	1.941800 
1554.000000	1.946783 
1553.000000	1.951813 
1552.000000	1.956343 
1551.000000	1.960015 
1550.000000	1.962566 
1549.000000	1.963925 
1548.000000	1.964282 
1547.000000	1.963925 
1546.000000	1.963353 
1545.000000	1.963162 
1544.000000	1.963949 
1543.000000	1.966309 
1542.000000	1.970648 
1541.000000	1.977324 
1540.000000	1.986312 
1539.000000	1.997423 
1538.000000	2.010226 
1537.000000	2.024173 
1536.000000	2.038550 
1535.000000	2.052736 
1534.000000	2.066087 
1533.000000	2.078104 
1532.000000	2.088499 
1531.000000	2.097177 
1530.000000	2.104187 
1529.000000	2.109503 
1528.000000	2.113342 
1527.000000	2.115917 
1526.000000	2.117490 
1525.000000	2.118229 
1524.000000	2.118277 
1523.000000	2.117872 
1522.000000	2.117109 
1521.000000	2.116155 
1520.000000	2.114987 
1519.000000	2.113652 
1518.000000	2.112150 
1517.000000	2.110433 
1516.000000	2.108454 
1515.000000	2.106022 
1514.000000	2.103137 
1513.000000	2.099657 
1512.000000	2.095484 
1511.000000	2.090477 
1510.000000	2.084541 
1509.000000	2.077317 
1508.000000	2.068400 
1507.000000	2.057003 
1506.000000	2.042412 
1505.000000	2.023696 
1504.000000	2.000117 
1503.000000	1.971149 
1502.000000	1.936888 
1501.000000	1.898026 
1500.000000	1.856088 
1499.000000	1.813220 
1498.000000	1.772069 
1497.000000	1.735401 
1496.000000	1.705932 
1495.000000	1.685667 
1494.000000	1.675772 
1493.000000	1.676464 
1492.000000	1.687216 
1491.000000	1.706361 
1490.000000	1.731944 
1489.000000	1.761579 
1488.000000	1.793193 
1487.000000	1.824688 
1486.000000	1.854491 
1485.000000	1.881408 
1484.000000	1.904916 
1483.000000	1.924586 
1482.000000	1.940560 
1481.000000	1.952981 
1480.000000	1.962208 
1479.000000	1.968789 
1478.000000	1.973247 
1477.000000	1.975989 
1476.000000	1.977443 
1475.000000	1.978087 
1474.000000	1.978135 
1473.000000	1.977729 
1472.000000	1.976847 
1471.000000	1.975560 
1470.000000	1.973724 
1469.000000	1.971101 
1468.000000	1.967525 
1467.000000	1.962876 
1466.000000	1.956939 
1465.000000	1.949405 
1464.000000	1.940155 
1463.000000	1.928997 
1462.000000	1.915907 
1461.000000	1.900863 
1460.000000	1.883983 
1459.000000	1.865696 
1458.000000	1.846599 
1457.000000	1.827573 
1456.000000	1.809453 
1455.000000	1.793289 
1454.000000	1.780104 
1453.000000	1.770806 
1452.000000	1.765871 
1451.000000	1.765537 
1450.000000	1.769566 
1449.000000	1.777434 
1448.000000	1.788163 
1447.000000	1.800656 
1446.000000	1.813745 
1445.000000	1.826310 
1444.000000	1.837515 
1443.000000	1.846861 
1442.000000	1.854181 
1441.000000	1.859474 
1440.000000	1.863121 
1439.000000	1.865577 
1438.000000	1.867270 
1437.000000	1.868557 
1436.000000	1.869654 
1435.000000	1.870727 
1434.000000	1.871728 
1433.000000	1.872634 
1432.000000	1.873445 
1431.000000	1.873970 
1430.000000	1.874208 
1429.000000	1.874089 
1428.000000	1.873612 
1427.000000	1.872730 
1426.000000	1.871418 
1425.000000	1.869726 
1424.000000	1.867699 
1423.000000	1.865386 
1422.000000	1.862883 
1421.000000	1.860308 
1420.000000	1.857709 
1419.000000	1.855111 
1418.000000	1.852416 
1417.000000	1.849412 
1416.000000	1.845812 
1415.000000	1.841259 
1414.000000	1.835370 
1413.000000	1.827931 
1412.000000	1.818752 
1411.000000	1.807904 
1410.000000	1.795721 
1409.000000	1.782703 
1408.000000	1.769518 
1407.000000	1.757025 
1406.000000	1.745915 
1405.000000	1.736974 
1404.000000	1.730680 
1403.000000	1.727390 
1402.000000	1.727128 
1401.000000	1.729679 
1400.000000	1.734638 
1399.000000	1.741528 
1398.000000	1.749634 
1397.000000	1.758337 
1396.000000	1.766943 
1395.000000	1.775002 
1394.000000	1.781964 
1393.000000	1.787471 
1392.000000	1.791262 
1391.000000	1.793408 
1390.000000	1.794075 
1389.000000	1.793479 
1388.000000	1.792192 
1387.000000	1.790618 
1386.000000	1.789355 
1385.000000	1.788878 
1384.000000	1.789379 
1383.000000	1.790928 
1382.000000	1.793503 
1381.000000	1.796722 
1380.000000	1.800322 
1379.000000	1.803946 
1378.000000	1.807284 
1377.000000	1.810145 
1376.000000	1.812458 
1375.000000	1.814222 
1374.000000	1.815557 
1373.000000	1.816534 
1372.000000	1.817274 
1371.000000	1.817917 
1370.000000	1.818442 
1369.000000	1.818943 
1368.000000	1.819348 
1367.000000	1.819705 
1366.000000	1.819968 
1365.000000	1.820158 
1364.000000	1.820278 
1363.000000	1.820325 
1362.000000	1.820325 
1361.000000	1.820302 
1360.000000	1.820254 
1359.000000	1.820158 
1358.000000	1.820063 
1357.000000	1.819944 
1356.000000	1.819849 
1355.000000	1.819753 
1354.000000	1.819682 
1353.000000	1.819610 
1352.000000	1.819539 
1351.000000	1.819467 
1350.000000	1.819348 
1349.000000	1.819157 
1348.000000	1.818919 
1347.000000	1.818633 
1346.000000	1.818323 
1345.000000	1.818060 
1344.000000	1.817965 
1343.000000	1.818084 
1342.000000	1.818609 
1341.000000	1.819515 
1340.000000	1.820921 
1339.000000	1.822853 
1338.000000	1.825213 
1337.000000	1.827955 
1336.000000	1.830935 
1335.000000	1.834011 
1334.000000	1.837038 
1333.000000	1.839923 
1332.000000	1.842594 
1331.000000	1.844930 
1330.000000	1.846909 
1329.000000	1.848626 
1328.000000	1.850032 
1327.000000	1.851153 
1326.000000	1.852130 
1325.000000	1.852941 
1324.000000	1.853680 
1323.000000	1.854372 
1322.000000	1.855015 
1321.000000	1.855707 
1320.000000	1.856350 
1319.000000	1.856994 
1318.000000	1.857590 
1317.000000	1.858139 
1316.000000	1.858568 
1315.000000	1.858925 
1314.000000	1.859164 
1313.000000	1.859307 
1312.000000	1.859331 
1311.000000	1.859307 
1310.000000	1.859188 
1309.000000	1.859021 
1308.000000	1.858830 
1307.000000	1.858568 
1306.000000	1.858305 
1305.000000	1.858043 
1304.000000	1.857733 
1303.000000	1.857447 
1302.000000	1.857137 
1301.000000	1.856875 
1300.000000	1.856684 
1299.000000	1.856565 
1298.000000	1.856565 
1297.000000	1.856637 
1296.000000	1.856756 
1295.000000	1.856994 
1294.000000	1.857209 
1293.000000	1.857376 
1292.000000	1.857519 
1291.000000	1.857542 
1290.000000	1.857471 
1289.000000	1.857256 
1288.000000	1.856923 
1287.000000	1.856493 
1286.000000	1.855969 
1285.000000	1.855349 
1284.000000	1.854610 
1283.000000	1.853704 
1282.000000	1.852583 
1281.000000	1.851129 
1280.000000	1.849246 
1279.000000	1.846837 
1278.000000	1.843833 
1277.000000	1.840186 
1276.000000	1.835751 
1275.000000	1.830410 
1274.000000	1.824069 
1273.000000	1.816678 
1272.000000	1.808094 
1271.000000	1.798391 
1270.000000	1.787638 
1269.000000	1.776075 
1268.000000	1.764059 
1267.000000	1.752114 
1266.000000	1.740908 
1265.000000	1.731109 
1264.000000	1.723408 
1263.000000	1.718330 
1262.000000	1.716303 
1261.000000	1.717400 
1260.000000	1.721596 
1259.000000	1.728534 
1258.000000	1.737666 
1257.000000	1.748275 
1256.000000	1.759719 
1255.000000	1.771330 
1254.000000	1.782464 
1253.000000	1.792740 
1252.000000	1.801896 
1251.000000	1.809787 
1250.000000	1.816368 
1249.000000	1.821756 
1248.000000	1.826095 
1247.000000	1.829457 
1246.000000	1.832079 
1245.000000	1.834011 
1244.000000	1.835441 
1243.000000	1.836490 
1242.000000	1.837253 
1241.000000	1.837706 
1240.000000	1.838016 
1239.000000	1.838111 
1238.000000	1.838088 
1237.000000	1.837897 
1236.000000	1.837468 
1235.000000	1.836848 
1234.000000	1.835966 
1233.000000	1.834845 
1232.000000	1.833534 
1231.000000	1.832079 
1230.000000	1.830482 
1229.000000	1.828765 
1228.000000	1.826882 
1227.000000	1.824879 
1226.000000	1.822710 
1225.000000	1.820325 
1224.000000	1.817607 
1223.000000	1.814508 
1222.000000	1.811027 
1221.000000	1.807212 
1220.000000	1.803040 
1219.000000	1.798510 
1218.000000	1.793646 
1217.000000	1.788616 
1216.000000	1.783418 
1215.000000	1.778244 
1214.000000	1.773118 
1213.000000	1.768183 
1212.000000	1.763534 
1211.000000	1.759314 
1210.000000	1.755595 
1209.000000	1.752471 
1208.000000	1.749944 
1207.000000	1.748037 
1206.000000	1.746749 
1205.000000	1.745939 
1204.000000	1.745605 
1203.000000	1.745629 
1202.000000	1.745939 
1201.000000	1.746368 
1200.000000	1.746916 
1199.000000	1.747417 
1198.000000	1.747798 
1197.000000	1.747965 
1196.000000	1.747870 
1195.000000	1.747465 
1194.000000	1.746678 
1193.000000	1.745533 
1192.000000	1.744055 
1191.000000	1.742243 
1190.000000	1.740193 
1189.000000	1.737928 
1188.000000	1.735448 
1187.000000	1.732826 
1186.000000	1.730036 
1185.000000	1.727199 
1184.000000	1.724314 
1183.000000	1.721429 
1182.000000	1.718568 
1181.000000	1.715755 
1180.000000	1.712942 
1179.000000	1.710128 
1178.000000	1.707243 
1177.000000	1.704239 
1176.000000	1.701045 
1175.000000	1.697635 
1174.000000	1.693987 
1173.000000	1.690101 
1172.000000	1.686024 
1171.000000	1.681804 
1170.000000	1.677465 
1169.000000	1.673007 
1168.000000	1.668524 
1167.000000	1.663994 
1166.000000	1.659440 
1165.000000	1.654911 
1164.000000	1.650428 
1163.000000	1.646018 
1162.000000	1.641702 
1161.000000	1.637601 
1160.000000	1.633715 
1159.000000	1.630163 
1158.000000	1.626968 
1157.000000	1.624107 
1156.000000	1.621627 
1155.000000	1.619505 
1154.000000	1.617693 
1153.000000	1.616096 
1152.000000	1.614689 
1151.000000	1.613354 
1150.000000	1.612067 
1149.000000	1.610732 
1148.000000	1.609301 
1147.000000	1.607728 
1146.000000	1.606011 
1145.000000	1.604056 
1144.000000	1.601886 
1143.000000	1.599478 
1142.000000	1.596879 
1141.000000	1.594066 
1140.000000	1.591014 
1139.000000	1.587748 
1138.000000	1.584362 
1137.000000	1.580786 
1136.000000	1.577067 
1135.000000	1.573204 
1134.000000	1.569247 
1133.000000	1.565146 
1132.000000	1.560926 
1131.000000	1.556587 
1130.000000	1.552176 
1129.000000	1.547598 
1128.000000	1.542901 
1127.000000	1.538038 
1126.000000	1.533055 
1125.000000	1.527905 
1124.000000	1.522636 
1123.000000	1.517295 
1122.000000	1.511979 
1121.000000	1.506662 
1120.000000	1.501393 
1119.000000	1.496124 
1118.000000	1.490902 
1117.000000	1.485705 
1116.000000	1.480507 
1115.000000	1.475358 
1114.000000	1.470232 
1113.000000	1.465249 
1112.000000	1.460409 
1111.000000	1.455783 
1110.000000	1.451444 
1109.000000	1.447486 
1108.000000	1.443886 
1107.000000	1.440691 
1106.000000	1.437902 
1105.000000	1.435565 
1104.000000	1.433563 
1103.000000	1.431894 
1102.000000	1.430487 
1101.000000	1.429247 
1100.000000	1.428222 
1099.000000	1.427316 
1098.000000	1.426601 
1097.000000	1.426100 
1096.000000	1.425790 
1095.000000	1.425719 
1094.000000	1.425909 
1093.000000	1.426339 
1092.000000	1.426982 
1091.000000	1.427769 
1090.000000	1.428675 
1089.000000	1.429557 
1088.000000	1.430368 
1087.000000	1.431012 
1086.000000	1.431417 
1085.000000	1.431488 
1084.000000	1.431274 
1083.000000	1.430797 
1082.000000	1.430130 
1081.000000	1.429367 
1080.000000	1.428627 
1079.000000	1.428031 
1078.000000	1.427769 
1077.000000	1.427817 
1076.000000	1.428318 
1075.000000	1.429224 
1074.000000	1.430463 
1073.000000	1.431989 
1072.000000	1.433610 
1071.000000	1.435256 
1070.000000	1.436781 
1069.000000	1.438069 
1068.000000	1.439046 
1067.000000	1.439595 
1066.000000	1.439690 
1065.000000	1.439213 
1064.000000	1.438021 
1063.000000	1.435899 
1062.000000	1.432561 
1061.000000	1.427650 
1060.000000	1.420831 
1059.000000	1.411819 
1058.000000	1.400446 
1057.000000	1.386880 
1056.000000	1.371693 
1055.000000	1.355552 
1054.000000	1.339673 
1053.000000	1.325297 
1052.000000	1.313662 
1051.000000	1.305747 
1050.000000	1.302242 
1049.000000	1.303243 
1048.000000	1.308393 
1047.000000	1.316833 
1046.000000	1.327490 
1045.000000	1.339101 
1044.000000	1.350522 
1043.000000	1.360893 
1042.000000	1.369547 
1041.000000	1.376271 
1040.000000	1.381111 
1039.000000	1.384258 
1038.000000	1.385998 
1037.000000	1.386690 
1036.000000	1.386570 
1035.000000	1.385855 
1034.000000	1.384711 
1033.000000	1.383137 
1032.000000	1.381158 
1031.000000	1.378870 
1030.000000	1.376318 
1029.000000	1.373553 
1028.000000	1.370787 
1027.000000	1.368117 
1026.000000	1.365637 
1025.000000	1.363563 
1024.000000	1.361942 
1023.000000	1.360893 
1022.000000	1.360511 
1021.000000	1.360750 
1020.000000	1.361560 
1019.000000	1.362943 
1018.000000	1.364707 
1017.000000	1.366853 
1016.000000	1.369237 
1015.000000	1.371741 
1014.000000	1.374316 
1013.000000	1.376914 
1012.000000	1.379466 
1011.000000	1.381897 
1010.000000	1.384234 
1009.000000	1.386547 
1008.000000	1.388716 
1007.000000	1.390814 
1006.000000	1.392793 
1005.000000	1.394629 
1004.000000	1.396322 
1003.000000	1.397800 
1002.000000	1.399016 
1001.000000	1.399993 
1000.000000	1.400637 
999.000000	 1.400971 
998.000000	 1.400995 
997.000000	 1.400732 
996.000000	 1.400208 
995.000000	 1.399469 
994.000000	 1.398539 
993.000000	 1.397490 
992.000000	 1.396298 
991.000000	 1.394963 
990.000000	 1.393532 
989.000000	 1.391983 
988.000000	 1.390314 
987.000000	 1.388525 
986.000000	 1.386642 
985.000000	 1.384663 
984.000000	 1.382637 
983.000000	 1.380562 
982.000000	 1.378512 
981.000000	 1.376461 
980.000000	 1.374363 
979.000000	 1.372289 
978.000000	 1.370167 
977.000000	 1.367950 
976.000000	 1.365685 
975.000000	 1.363325 
974.000000	 1.360869 
973.000000	 1.358270 
972.000000	 1.355624 
971.000000	 1.352906 
970.000000	 1.350188 
969.000000	 1.347374 
968.000000	 1.344537 
967.000000	 1.341605 
966.000000	 1.338624 
965.000000	 1.335477 
964.000000	 1.332211 
963.000000	 1.328849 
962.000000	 1.325392 
961.000000	 1.321864 
960.000000	 1.318359 
959.000000	 1.314830 
958.000000	 1.311326 
957.000000	 1.307845 
956.000000	 1.304388 
955.000000	 1.300930 
954.000000	 1.297473 
953.000000	 1.294064 
952.000000	 1.290678 
951.000000	 1.287460 
950.000000	 1.284408 
949.000000	 1.281595 
948.000000	 1.279044 
947.000000	 1.276779 
946.000000	 1.274752 
945.000000	 1.272869 
944.000000	 1.271128 
943.000000	 1.269483 
942.000000	 1.267790 
941.000000	 1.266050 
940.000000	 1.264238 
939.000000	 1.262283 
938.000000	 1.260232 
937.000000	 1.258063 
936.000000	 1.255822 
935.000000	 1.253509 
934.000000	 1.251125 
933.000000	 1.248645 
932.000000	 1.246142 
931.000000	 1.243591 
930.000000	 1.241087 
929.000000	 1.238584 
928.000000	 1.236104 
927.000000	 1.233696 
926.000000	 1.231336 
925.000000	 1.229023 
924.000000	 1.226711 
923.000000	 1.224398 
922.000000	 1.222014 
921.000000	 1.219534 
920.000000	 1.216888 
919.000000	 1.214098 
918.000000	 1.211071 
917.000000	 1.207828 
916.000000	 1.204323 
915.000000	 1.200532 
914.000000	 1.196575 
913.000000	 1.192450 
912.000000	 1.188230 
911.000000	 1.183986 
910.000000	 1.179885 
909.000000	 1.175975 
908.000000	 1.172351 
907.000000	 1.169085 
906.000000	 1.166248 
905.000000	 1.163792 
904.000000	 1.161718 
903.000000	 1.160001 
902.000000	 1.158595 
901.000000	 1.157355 
900.000000	 1.156258 
899.000000	 1.155257 
898.000000	 1.154184 
897.000000	 1.153039 
896.000000	 1.151680 
895.000000	 1.150083 
894.000000	 1.148056 
893.000000	 1.145577 
892.000000	 1.142454 
891.000000	 1.138591 
890.000000	 1.133894 
889.000000	 1.128292 
888.000000	 1.121783 
887.000000	 1.114344 
886.000000	 1.106095 
885.000000	 1.097202 
884.000000	 1.087856 
883.000000	 1.078319 
882.000000	 1.068830 
881.000000	 1.059794 
880.000000	 1.051497 
879.000000	 1.044249 
878.000000	 1.038360 
877.000000	 1.034069 
876.000000	 1.031565 
875.000000	 1.030898 
874.000000	 1.032066 
873.000000	 1.034951 
872.000000	 1.039266 
871.000000	 1.044750 
870.000000	 1.050949 
869.000000	 1.057505 
868.000000	 1.064062 
867.000000	 1.070261 
866.000000	 1.075911 
865.000000	 1.080751 
864.000000	 1.084756 
863.000000	 1.087927 
862.000000	 1.090312 
861.000000	 1.091933 
860.000000	 1.092958 
859.000000	 1.093459 
858.000000	 1.093530 
857.000000	 1.093268 
856.000000	 1.092696 
855.000000	 1.091933 
854.000000	 1.091003 
853.000000	 1.089930 
852.000000	 1.088762 
851.000000	 1.087450 
850.000000	 1.086068 
849.000000	 1.084637 
848.000000	 1.083064 
847.000000	 1.081371 
846.000000	 1.079511 
845.000000	 1.077485 
844.000000	 1.075196 
843.000000	 1.072549 
842.000000	 1.069378 
841.000000	 1.065540 
840.000000	 1.060771 
839.000000	 1.054906 
838.000000	 1.047587 
837.000000	 1.038503 
836.000000	 1.027488 
835.000000	 1.014351 
834.000000	 0.999045 
833.000000	 0.981760 
832.000000	 0.962758 
831.000000	 0.942587 
830.000000	 0.922083 
829.000000	 0.902152 
828.000000	 0.883889 
827.000000	 0.868368 
826.000000	 0.856447 
825.000000	 0.848817 
824.000000	 0.845837 
823.000000	 0.847363 
822.000000	 0.852966 
821.000000	 0.861883 
820.000000	 0.873017 
819.000000	 0.885319 
818.000000	 0.897812 
817.000000	 0.909638 
816.000000	 0.920176 
815.000000	 0.929045 
814.000000	 0.936150 
813.000000	 0.941491 
812.000000	 0.945353 
811.000000	 0.947952 
810.000000	 0.949501 
809.000000	 0.950217 
808.000000	 0.950360 
807.000000	 0.950074 
806.000000	 0.949549 
805.000000	 0.948858 
804.000000	 0.948166 
803.000000	 0.947594 
802.000000	 0.947213 
801.000000	 0.947070 
800.000000	 0.947284 
799.000000	 0.947880 
798.000000	 0.948858 
797.000000	 0.950169 
796.000000	 0.951838 
795.000000	 0.953841 
794.000000	 0.956153 
793.000000	 0.958728 
792.000000	 0.961422 
791.000000	 0.964236 
790.000000	 0.967097 
789.000000	 0.969862 
788.000000	 0.972414 
787.000000	 0.974678 
786.000000	 0.976586 
785.000000	 0.978112 
784.000000	 0.979256 
783.000000	 0.979995 
782.000000	 0.980424 
781.000000	 0.980544 
780.000000	 0.980472 
779.000000	 0.980257 
778.000000	 0.979924 
777.000000	 0.979495 
776.000000	 0.978922 
775.000000	 0.978279 
774.000000	 0.977540 
773.000000	 0.976681 
772.000000	 0.975751 
771.000000	 0.974702 
770.000000	 0.973653 
769.000000	 0.972628 
768.000000	 0.971603 
767.000000	 0.970649 
766.000000	 0.969791 
765.000000	 0.969028 
764.000000	 0.968289 
763.000000	 0.967621 
762.000000	 0.966954 
761.000000	 0.966310 
760.000000	 0.965571 
759.000000	 0.964808 
758.000000	 0.963973 
757.000000	 0.963091 
756.000000	 0.962090 
755.000000	 0.961065 
754.000000	 0.959968 
753.000000	 0.958800 
752.000000	 0.957512 
751.000000	 0.956153 
750.000000	 0.954651 
749.000000	 0.953030 
748.000000	 0.951266 
747.000000	 0.949406 
746.000000	 0.947403 
745.000000	 0.945329 
744.000000	 0.943207 
743.000000	 0.941061 
742.000000	 0.938940 
741.000000	 0.936841 
740.000000	 0.934767 
739.000000	 0.932717 
738.000000	 0.930690 
737.000000	 0.928616 
736.000000	 0.926470 
735.000000	 0.924277 
734.000000	 0.921893 
733.000000	 0.919389 
732.000000	 0.916719 
731.000000	 0.913882 
730.000000	 0.910902 
729.000000	 0.907731 
728.000000	 0.904512 
727.000000	 0.901198 
726.000000	 0.897908 
725.000000	 0.894689 
724.000000	 0.891637 
723.000000	 0.888681 
722.000000	 0.885844 
721.000000	 0.883102 
720.000000	 0.880455 
719.000000	 0.877809 
718.000000	 0.875186 
717.000000	 0.872492 
716.000000	 0.869750 
715.000000	 0.866889 
714.000000	 0.863957 
713.000000	 0.860953 
712.000000	 0.857925 
711.000000	 0.854897 
710.000000	 0.851845 
709.000000	 0.848817 
708.000000	 0.845813 
707.000000	 0.842785 
706.000000	 0.839686 
705.000000	 0.836420 
704.000000	 0.832939 
703.000000	 0.829195 
702.000000	 0.825142 
701.000000	 0.820732 
700.000000	 0.816011 
699.000000	 0.810837 
698.000000	 0.805258 
697.000000	 0.799179 
696.000000	 0.792551 
695.000000	 0.785374 
694.000000	 0.777673 
693.000000	 0.769615 
692.000000	 0.761485 
691.000000	 0.753617 
690.000000	 0.746417 
689.000000	 0.740289 
688.000000	 0.735521 
687.000000	 0.732278 
686.000000	 0.730538 
685.000000	 0.730085 
684.000000	 0.730562 
683.000000	 0.731515 
682.000000	 0.732588 
681.000000	 0.733399 
680.000000	 0.733780 
679.000000	 0.733613 
678.000000	 0.733017 
677.000000	 0.732040 
676.000000	 0.730848 
675.000000	 0.729513 
674.000000	 0.728106 
673.000000	 0.726628 
672.000000	 0.725078 
671.000000	 0.723433 
670.000000	 0.721669 
669.000000	 0.719761 
668.000000	 0.717759 
667.000000	 0.715661 
666.000000	 0.713467 
665.000000	 0.711178 
664.000000	 0.708794 
663.000000	 0.706243 
662.000000	 0.703525 
661.000000	 0.700640 
660.000000	 0.697612 
659.000000	 0.694561 
658.000000	 0.691485 
657.000000	 0.688529 
656.000000	 0.685691 
655.000000	 0.682973 
654.000000	 0.680327 
653.000000	 0.677704 
652.000000	 0.675058 
651.000000	 0.672364 
650.000000	 0.669622 
649.000000	 0.666880 
648.000000	 0.664210 
647.000000	 0.661706 
646.000000	 0.659418 
645.000000	 0.657320 
644.000000	 0.655317 
643.000000	 0.653362 
642.000000	 0.651311 
641.000000	 0.649046 
640.000000	 0.646567 
639.000000	 0.643897 
638.000000	 0.641059 
637.000000	 0.638222 
636.000000	 0.635552 
635.000000	 0.633049 
634.000000	 0.630807 
633.000000	 0.628781 
632.000000	 0.626850 
631.000000	 0.624871 
630.000000	 0.622725 
629.000000	 0.620222 
628.000000	 0.617361 
627.000000	 0.614023 
626.000000	 0.610327 
625.000000	 0.606298 
624.000000	 0.602006 
623.000000	 0.597667 
622.000000	 0.593400 
621.000000	 0.589275 
620.000000	 0.585460 
619.000000	 0.581979 
618.000000	 0.578808 
617.000000	 0.575923 
616.000000	 0.573158 
615.000000	 0.570344 
614.000000	 0.567317 
613.000000	 0.563883 
612.000000	 0.559949 
611.000000	 0.555586 
610.000000	 0.550818 
609.000000	 0.545883 
608.000000	 0.541019 
607.000000	 0.536489 
606.000000	 0.532555 
605.000000	 0.529432 
604.000000	 0.527167 
603.000000	 0.525736 
602.000000	 0.524973 
601.000000	 0.524711 
600.000000	 0.524687 
599.000000	 0.524711 
598.000000	 0.524663 
597.000000	 0.524353 
596.000000	 0.523829 
595.000000	 0.523090 
594.000000	 0.522160 
593.000000	 0.521087 
592.000000	 0.519967 
591.000000	 0.518822 
590.000000	 0.517606 
589.000000	 0.516366 
588.000000	 0.515031 
587.000000	 0.513672 
586.000000	 0.512242 
585.000000	 0.510787 
584.000000	 0.509357 
583.000000	 0.507998 
582.000000	 0.506687 
581.000000	 0.505518 
580.000000	 0.504517 
579.000000	 0.503635 
578.000000	 0.502872 
577.000000	 0.502133 
576.000000	 0.501441 
575.000000	 0.500726 
574.000000	 0.499916 
573.000000	 0.499033 
572.000000	 0.498032 
571.000000	 0.496935 
570.000000	 0.495719 
569.000000	 0.494384 
568.000000	 0.493001 
567.000000	 0.491476 
566.000000	 0.489950 
565.000000	 0.488376 
564.000000	 0.486755 
563.000000	 0.485086 
562.000000	 0.483369 
561.000000	 0.481605 
560.000000	 0.479793 
559.000000	 0.477886 
558.000000	 0.475978 
557.000000	 0.474023 
556.000000	 0.472068 
555.000000	 0.470209 
554.000000	 0.468397 
553.000000	 0.466632 
552.000000	 0.464963 
551.000000	 0.463318 
550.000000	 0.461769 
549.000000	 0.460267 
548.000000	 0.458788 
547.000000	 0.457310 
546.000000	 0.455856 
545.000000	 0.454425 
544.000000	 0.453066 
543.000000	 0.451731 
542.000000	 0.450444 
541.000000	 0.449132 
540.000000	 0.447797 
539.000000	 0.446343 
538.000000	 0.444722 
537.000000	 0.442934 
536.000000	 0.440859 
535.000000	 0.438570 
534.000000	 0.436067 
533.000000	 0.433349 
532.000000	 0.430488 
531.000000	 0.427532 
530.000000	 0.424480 
529.000000	 0.421357 
528.000000	 0.418233 
527.000000	 0.415158 
526.000000	 0.412178 
525.000000	 0.409317 
524.000000	 0.406646 
523.000000	 0.404167 
522.000000	 0.401902 
521.000000	 0.399851 
520.000000	 0.397920 
519.000000	 0.396132 
518.000000	 0.394392 
517.000000	 0.392603 
516.000000	 0.390791 
515.000000	 0.388884 
514.000000	 0.386857 
513.000000	 0.384736 
512.000000	 0.382494 
511.000000	 0.380134 
510.000000	 0.377678 
509.000000	 0.375080 
508.000000	 0.372409 
507.000000	 0.369644 
506.000000	 0.366783 
505.000000	 0.363850 
504.000000	 0.360846 
503.000000	 0.357794 
502.000000	 0.354647 
501.000000	 0.351476 
500.000000	 0.348210 
499.000000	 0.344872 
498.000000	 0.341486 
497.000000	 0.338053 
496.000000	 0.334620 
495.000000	 0.331139 
494.000000	 0.327682 
493.000000	 0.324177 
492.000000	 0.320649 
491.000000	 0.317072 
490.000000	 0.313448 
489.000000	 0.309729 
488.000000	 0.305962 
487.000000	 0.302124 
486.000000	 0.298333 
485.000000	 0.294542 
484.000000	 0.290822 
483.000000	 0.287199 
482.000000	 0.283670 
481.000000	 0.280308 
480.000000	 0.277018 
479.000000	 0.273823 
478.000000	 0.270676 
477.000000	 0.267577 
476.000000	 0.264453 
475.000000	 0.261330 
474.000000	 0.258159 
473.000000	 0.254964 
472.000000	 0.251770 
471.000000	 0.248575 
470.000000	 0.245380 
469.000000	 0.242185 
468.000000	 0.239014 
467.000000	 0.235819 
466.000000	 0.232577 
465.000000	 0.229287 
464.000000	 0.225901 
463.000000	 0.222444 
462.000000	 0.218915 
461.000000	 0.215268 
460.000000	 0.211548 
459.000000	 0.207805 
458.000000	 0.204014 
457.000000	 0.200176 
456.000000	 0.196385 
455.000000	 0.192594 
454.000000	 0.188875 
453.000000	 0.185322 
452.000000	 0.181889 
451.000000	 0.178599 
450.000000	 0.175523 
449.000000	 0.172638 
448.000000	 0.169873 
447.000000	 0.167274 
446.000000	 0.164747 
445.000000	 0.162315 
444.000000	 0.159931 
443.000000	 0.157546 
442.000000	 0.155138 
441.000000	 0.152683 
440.000000	 0.150179 
439.000000	 0.147604 
438.000000	 0.145006 
437.000000	 0.142312 
436.000000	 0.139474 
435.000000	 0.136542 
434.000000	 0.133442 
433.000000	 0.130224 
432.000000	 0.126814 
431.000000	 0.123310 
430.000000	 0.119638 
429.000000	 0.115919 
428.000000	 0.112223 
427.000000	 0.108551 
426.000000	 0.104928 
425.000000	 0.101423 
424.000000	 0.098013 
423.000000	 0.094699 
422.000000	 0.091552 
421.000000	 0.088572 
420.000000	 0.085735 
419.000000	 0.083065 
418.000000	 0.080537 
417.000000	 0.078105 
416.000000	 0.075793 
415.000000	 0.073480 
414.000000	 0.071167 
413.000000	 0.068831 
412.000000	 0.066494 
411.000000	 0.064134 
410.000000	 0.061821 
409.000000	 0.059509 
408.000000	 0.057291 
407.000000	 0.055122 
406.000000	 0.053024 
405.000000	 0.050854 
404.000000	 0.048732 
403.000000	 0.046563 
402.000000	 0.044345 
401.000000	 0.042128 
400.000000	 0.039935 
399.000000	 0.037813 
398.000000	 0.035786 
397.000000	 0.033926 
396.000000	 0.032210 
395.000000	 0.030660 
394.000000	 0.029253 
393.000000	 0.027966 
392.000000	 0.026726 
391.000000	 0.025582 
390.000000	 0.024437 
389.000000	 0.023293 
388.000000	 0.022172 
387.000000	 0.021076 
386.000000	 0.020027 
385.000000	 0.019001 
384.000000	 0.018024 
383.000000	 0.017070 
382.000000	 0.016117 
381.000000	 0.015139 
380.000000	 0.014209 
379.000000	 0.013232 
378.000000	 0.012326 
377.000000	 0.011444 
376.000000	 0.010681 
375.000000	 0.010037 
374.000000	 0.009489 
373.000000	 0.009107 
372.000000	 0.008773 
371.000000	 0.008487 
370.000000	 0.008201 

