PE IR       SPECTRUM    SPECTRUM    ASCII       PEDS        1.60        
  -1
BZ09FC~1.ASC
17/04/07
22:19:52.00
17/04/07
22:19:52.00
tln
$BZ1503107-1_e0127$<ebV0>[-23.3,12.1,10.0,0.0,27,1,0]
370.000000
64









2002,4.07    
MIRTGS : RIGHTBACK : INTERNAL 2
MIR : ON : INTERNAL 2
OPTKBR

0.200000
8
8.000000
FILLER
SINGLE
SPECTRUM
UNLOCKED 256

DOUBLE

COMBINED
1
0
0


1.000000
BACKG


1
0
TRUE
51149
0
LEFT NOT FITTED RIGHT NOT FITTED 0
NONE
NONE
15600
12.000000
4.427000
51148
TRUE
1 0 8 72 0 0 0 0 

15798.010000






#HDR
-1
-1
#GR
CM-1
EGY
0.00002384185791015625
0.0
5000.000000
-1.000000
4631
8
2.465510
0.008058
#DATA
5000.000000	0.772833 
4999.000000	0.775694 
4998.000000	0.778770 
4997.000000	0.781798 
4996.000000	0.784540 
4995.000000	0.786519 
4994.000000	0.787615 
4993.000000	0.787639 
4992.000000	0.786638 
4991.000000	0.784778 
4990.000000	0.782346 
4989.000000	0.779747 
4988.000000	0.777411 
4987.000000	0.775671 
4986.000000	0.774812 
4985.000000	0.774955 
4984.000000	0.776124 
4983.000000	0.778150 
4982.000000	0.780916 
4981.000000	0.784039 
4980.000000	0.787353 
4979.000000	0.790500 
4978.000000	0.793290 
4977.000000	0.795507 
4976.000000	0.797033 
4975.000000	0.797843 
4974.000000	0.797986 
4973.000000	0.797605 
4972.000000	0.796794 
4971.000000	0.795888 
4970.000000	0.794959 
4969.000000	0.794172 
4968.000000	0.793600 
4967.000000	0.793194 
4966.000000	0.792932 
4965.000000	0.792574 
4964.000000	0.792050 
4963.000000	0.791239 
4962.000000	0.790119 
4961.000000	0.788784 
4960.000000	0.787377 
4959.000000	0.786137 
4958.000000	0.785303 
4957.000000	0.785064 
4956.000000	0.785517 
4955.000000	0.786590 
4954.000000	0.788164 
4953.000000	0.790047 
4952.000000	0.792026 
4951.000000	0.793886 
4950.000000	0.795531 
4949.000000	0.796961 
4948.000000	0.798177 
4947.000000	0.799298 
4946.000000	0.800347 
4945.000000	0.801396 
4944.000000	0.802397 
4943.000000	0.803303 
4942.000000	0.804018 
4941.000000	0.804424 
4940.000000	0.804448 
4939.000000	0.804090 
4938.000000	0.803399 
4937.000000	0.802445 
4936.000000	0.801372 
4935.000000	0.800299 
4934.000000	0.799345 
4933.000000	0.798583 
4932.000000	0.798130 
4931.000000	0.797986 
4930.000000	0.798153 
4929.000000	0.798654 
4928.000000	0.799417 
4927.000000	0.800395 
4926.000000	0.801491 
4925.000000	0.802683 
4924.000000	0.803875 
4923.000000	0.805044 
4922.000000	0.806164 
4921.000000	0.807189 
4920.000000	0.808143 
4919.000000	0.808978 
4918.000000	0.809645 
4917.000000	0.810170 
4916.000000	0.810503 
4915.000000	0.810623 
4914.000000	0.810551 
4913.000000	0.810337 
4912.000000	0.809955 
4911.000000	0.809574 
4910.000000	0.809240 
4909.000000	0.809025 
4908.000000	0.809025 
4907.000000	0.809192 
4906.000000	0.809597 
4905.000000	0.810194 
4904.000000	0.810933 
4903.000000	0.811815 
4902.000000	0.812745 
4901.000000	0.813651 
4900.000000	0.814509 
4899.000000	0.815248 
4898.000000	0.815844 
4897.000000	0.816321 
4896.000000	0.816702 
4895.000000	0.817084 
4894.000000	0.817441 
4893.000000	0.817918 
4892.000000	0.818514 
4891.000000	0.819182 
4890.000000	0.819969 
4889.000000	0.820779 
4888.000000	0.821590 
4887.000000	0.822353 
4886.000000	0.823068 
4885.000000	0.823712 
4884.000000	0.824332 
4883.000000	0.824999 
4882.000000	0.825715 
4881.000000	0.826501 
4880.000000	0.827336 
4879.000000	0.828170 
4878.000000	0.828933 
4877.000000	0.829529 
4876.000000	0.830030 
4875.000000	0.830364 
4874.000000	0.830531 
4873.000000	0.830650 
4872.000000	0.830769 
4871.000000	0.830888 
4870.000000	0.831151 
4869.000000	0.831484 
4868.000000	0.831985 
4867.000000	0.832486 
4866.000000	0.832986 
4865.000000	0.833392 
4864.000000	0.833725 
4863.000000	0.833988 
4862.000000	0.834178 
4861.000000	0.834393 
4860.000000	0.834655 
4859.000000	0.835037 
4858.000000	0.835561 
4857.000000	0.836205 
4856.000000	0.836944 
4855.000000	0.837731 
4854.000000	0.838541 
4853.000000	0.839328 
4852.000000	0.840115 
4851.000000	0.840854 
4850.000000	0.841593 
4849.000000	0.842308 
4848.000000	0.843024 
4847.000000	0.843739 
4846.000000	0.844454 
4845.000000	0.845122 
4844.000000	0.845789 
4843.000000	0.846433 
4842.000000	0.847053 
4841.000000	0.847768 
4840.000000	0.848484 
4839.000000	0.849270 
4838.000000	0.850081 
4837.000000	0.850892 
4836.000000	0.851678 
4835.000000	0.852441 
4834.000000	0.853157 
4833.000000	0.853824 
4832.000000	0.854468 
4831.000000	0.855135 
4830.000000	0.855898 
4829.000000	0.856709 
4828.000000	0.857639 
4827.000000	0.858664 
4826.000000	0.859785 
4825.000000	0.860953 
4824.000000	0.862097 
4823.000000	0.863146 
4822.000000	0.864124 
4821.000000	0.864958 
4820.000000	0.865745 
4819.000000	0.866460 
4818.000000	0.867176 
4817.000000	0.867915 
4816.000000	0.868701 
4815.000000	0.869512 
4814.000000	0.870370 
4813.000000	0.871229 
4812.000000	0.872015 
4811.000000	0.872683 
4810.000000	0.873255 
4809.000000	0.873661 
4808.000000	0.873947 
4807.000000	0.874185 
4806.000000	0.874376 
4805.000000	0.874590 
4804.000000	0.874876 
4803.000000	0.875234 
4802.000000	0.875663 
4801.000000	0.876212 
4800.000000	0.876832 
4799.000000	0.877547 
4798.000000	0.878310 
4797.000000	0.879144 
4796.000000	0.880050 
4795.000000	0.881028 
4794.000000	0.882029 
4793.000000	0.883030 
4792.000000	0.884032 
4791.000000	0.885009 
4790.000000	0.885987 
4789.000000	0.886893 
4788.000000	0.887799 
4787.000000	0.888633 
4786.000000	0.889444 
4785.000000	0.890231 
4784.000000	0.890946 
4783.000000	0.891613 
4782.000000	0.892210 
4781.000000	0.892734 
4780.000000	0.893211 
4779.000000	0.893592 
4778.000000	0.894021 
4777.000000	0.894451 
4776.000000	0.894927 
4775.000000	0.895547 
4774.000000	0.896215 
4773.000000	0.896906 
4772.000000	0.897598 
4771.000000	0.898194 
4770.000000	0.898671 
4769.000000	0.898981 
4768.000000	0.899147 
4767.000000	0.899195 
4766.000000	0.899219 
4765.000000	0.899219 
4764.000000	0.899267 
4763.000000	0.899434 
4762.000000	0.899624 
4761.000000	0.899863 
4760.000000	0.900101 
4759.000000	0.900316 
4758.000000	0.900530 
4757.000000	0.900697 
4756.000000	0.900912 
4755.000000	0.901222 
4754.000000	0.901579 
4753.000000	0.902056 
4752.000000	0.902652 
4751.000000	0.903296 
4750.000000	0.904011 
4749.000000	0.904726 
4748.000000	0.905394 
4747.000000	0.905966 
4746.000000	0.906443 
4745.000000	0.906848 
4744.000000	0.907182 
4743.000000	0.907468 
4742.000000	0.907731 
4741.000000	0.907969 
4740.000000	0.908231 
4739.000000	0.908470 
4738.000000	0.908708 
4737.000000	0.908923 
4736.000000	0.909113 
4735.000000	0.909280 
4734.000000	0.909423 
4733.000000	0.909519 
4732.000000	0.909566 
4731.000000	0.909638 
4730.000000	0.909733 
4729.000000	0.909852 
4728.000000	0.910067 
4727.000000	0.910329 
4726.000000	0.910711 
4725.000000	0.911116 
4724.000000	0.911593 
4723.000000	0.912070 
4722.000000	0.912523 
4721.000000	0.912928 
4720.000000	0.913310 
4719.000000	0.913619 
4718.000000	0.913929 
4717.000000	0.914263 
4716.000000	0.914573 
4715.000000	0.914907 
4714.000000	0.915265 
4713.000000	0.915598 
4712.000000	0.915932 
4711.000000	0.916242 
4710.000000	0.916528 
4709.000000	0.916790 
4708.000000	0.917005 
4707.000000	0.917220 
4706.000000	0.917410 
4705.000000	0.917625 
4704.000000	0.917792 
4703.000000	0.917983 
4702.000000	0.918126 
4701.000000	0.918245 
4700.000000	0.918412 
4699.000000	0.918579 
4698.000000	0.918817 
4697.000000	0.919032 
4696.000000	0.919318 
4695.000000	0.919604 
4694.000000	0.919818 
4693.000000	0.920009 
4692.000000	0.920104 
4691.000000	0.920176 
4690.000000	0.920200 
4689.000000	0.920200 
4688.000000	0.920224 
4687.000000	0.920271 
4686.000000	0.920414 
4685.000000	0.920581 
4684.000000	0.920820 
4683.000000	0.921106 
4682.000000	0.921392 
4681.000000	0.921702 
4680.000000	0.921964 
4679.000000	0.922179 
4678.000000	0.922346 
4677.000000	0.922393 
4676.000000	0.922369 
4675.000000	0.922226 
4674.000000	0.922060 
4673.000000	0.921821 
4672.000000	0.921607 
4671.000000	0.921344 
4670.000000	0.921130 
4669.000000	0.920963 
4668.000000	0.920820 
4667.000000	0.920701 
4666.000000	0.920581 
4665.000000	0.920486 
4664.000000	0.920391 
4663.000000	0.920343 
4662.000000	0.920343 
4661.000000	0.920438 
4660.000000	0.920605 
4659.000000	0.920844 
4658.000000	0.921130 
4657.000000	0.921416 
4656.000000	0.921678 
4655.000000	0.921893 
4654.000000	0.922060 
4653.000000	0.922155 
4652.000000	0.922226 
4651.000000	0.922322 
4650.000000	0.922465 
4649.000000	0.922703 
4648.000000	0.922989 
4647.000000	0.923371 
4646.000000	0.923728 
4645.000000	0.924110 
4644.000000	0.924444 
4643.000000	0.924754 
4642.000000	0.925040 
4641.000000	0.925302 
4640.000000	0.925540 
4639.000000	0.925827 
4638.000000	0.926208 
4637.000000	0.926589 
4636.000000	0.927019 
4635.000000	0.927495 
4634.000000	0.927972 
4633.000000	0.928497 
4632.000000	0.929093 
4631.000000	0.929665 
4630.000000	0.930285 
4629.000000	0.930905 
4628.000000	0.931525 
4627.000000	0.932073 
4626.000000	0.932502 
4625.000000	0.932788 
4624.000000	0.932931 
4623.000000	0.932979 
4622.000000	0.932955 
4621.000000	0.932979 
4620.000000	0.933074 
4619.000000	0.933265 
4618.000000	0.933599 
4617.000000	0.934100 
4616.000000	0.934696 
4615.000000	0.935435 
4614.000000	0.936222 
4613.000000	0.937056 
4612.000000	0.937962 
4611.000000	0.938916 
4610.000000	0.939917 
4609.000000	0.940918 
4608.000000	0.941920 
4607.000000	0.942873 
4606.000000	0.943684 
4605.000000	0.944280 
4604.000000	0.944733 
4603.000000	0.944948 
4602.000000	0.944995 
4601.000000	0.944972 
4600.000000	0.944924 
4599.000000	0.944948 
4598.000000	0.945186 
4597.000000	0.945591 
4596.000000	0.946211 
4595.000000	0.946974 
4594.000000	0.947833 
4593.000000	0.948691 
4592.000000	0.949525 
4591.000000	0.950288 
4590.000000	0.951027 
4589.000000	0.951695 
4588.000000	0.952386 
4587.000000	0.953078 
4586.000000	0.953841 
4585.000000	0.954651 
4584.000000	0.955510 
4583.000000	0.956344 
4582.000000	0.957155 
4581.000000	0.957846 
4580.000000	0.958442 
4579.000000	0.958919 
4578.000000	0.959253 
4577.000000	0.959539 
4576.000000	0.959801 
4575.000000	0.960087 
4574.000000	0.960469 
4573.000000	0.961017 
4572.000000	0.961685 
4571.000000	0.962495 
4570.000000	0.963354 
4569.000000	0.964283 
4568.000000	0.965118 
4567.000000	0.965905 
4566.000000	0.966548 
4565.000000	0.967049 
4564.000000	0.967478 
4563.000000	0.967812 
4562.000000	0.968170 
4561.000000	0.968623 
4560.000000	0.969195 
4559.000000	0.969934 
4558.000000	0.970864 
4557.000000	0.971937 
4556.000000	0.973153 
4555.000000	0.974440 
4554.000000	0.975775 
4553.000000	0.977063 
4552.000000	0.978255 
4551.000000	0.979280 
4550.000000	0.980091 
4549.000000	0.980710 
4548.000000	0.981092 
4547.000000	0.981354 
4546.000000	0.981473 
4545.000000	0.981545 
4544.000000	0.981712 
4543.000000	0.982022 
4542.000000	0.982522 
4541.000000	0.983285 
4540.000000	0.984168 
4539.000000	0.985264 
4538.000000	0.986409 
4537.000000	0.987601 
4536.000000	0.988698 
4535.000000	0.989699 
4534.000000	0.990557 
4533.000000	0.991225 
4532.000000	0.991773 
4531.000000	0.992202 
4530.000000	0.992560 
4529.000000	0.992894 
4528.000000	0.993227 
4527.000000	0.993537 
4526.000000	0.993847 
4525.000000	0.994133 
4524.000000	0.994420 
4523.000000	0.994706 
4522.000000	0.994992 
4521.000000	0.995278 
4520.000000	0.995588 
4519.000000	0.995922 
4518.000000	0.996279 
4517.000000	0.996613 
4516.000000	0.996947 
4515.000000	0.997304 
4514.000000	0.997686 
4513.000000	0.998139 
4512.000000	0.998687 
4511.000000	0.999355 
4510.000000	1.000189 
4509.000000	1.001143 
4508.000000	1.002168 
4507.000000	1.003146 
4506.000000	1.003980 
4505.000000	1.004624 
4504.000000	1.004981 
4503.000000	1.005053 
4502.000000	1.004934 
4501.000000	1.004695 
4500.000000	1.004528 
4499.000000	1.004528 
4498.000000	1.004815 
4497.000000	1.005387 
4496.000000	1.006245 
4495.000000	1.007318 
4494.000000	1.008486 
4493.000000	1.009654 
4492.000000	1.010704 
4491.000000	1.011562 
4490.000000	1.012134 
4489.000000	1.012420 
4488.000000	1.012396 
4487.000000	1.012063 
4486.000000	1.011371 
4485.000000	1.010441 
4484.000000	1.009368 
4483.000000	1.008248 
4482.000000	1.007270 
4481.000000	1.006531 
4480.000000	1.006197 
4479.000000	1.006174 
4478.000000	1.006436 
4477.000000	1.006889 
4476.000000	1.007390 
4475.000000	1.007723 
4474.000000	1.007771 
4473.000000	1.007413 
4472.000000	1.006674 
4471.000000	1.005601 
4470.000000	1.004195 
4469.000000	1.002645 
4468.000000	1.001000 
4467.000000	0.999331 
4466.000000	0.997710 
4465.000000	0.996136 
4464.000000	0.994586 
4463.000000	0.993180 
4462.000000	0.991821 
4461.000000	0.990629 
4460.000000	0.989556 
4459.000000	0.988721 
4458.000000	0.988292 
4457.000000	0.988197 
4456.000000	0.988650 
4455.000000	0.989484 
4454.000000	0.990700 
4453.000000	0.992035 
4452.000000	0.993299 
4451.000000	0.994229 
4450.000000	0.994729 
4449.000000	0.994849 
4448.000000	0.994777 
4447.000000	0.994873 
4446.000000	0.995612 
4445.000000	0.997519 
4444.000000	1.001000 
4443.000000	1.006340 
4442.000000	1.013660 
4441.000000	1.022791 
4440.000000	1.033306 
4439.000000	1.044583 
4438.000000	1.055812 
4437.000000	1.066255 
4436.000000	1.075124 
4435.000000	1.081895 
4434.000000	1.086330 
4433.000000	1.088476 
4432.000000	1.088690 
4431.000000	1.087498 
4430.000000	1.085686 
4429.000000	1.083779 
4428.000000	1.082253 
4427.000000	1.081109 
4426.000000	1.080131 
4425.000000	1.078867 
4424.000000	1.076865 
4423.000000	1.073670 
4422.000000	1.069140 
4421.000000	1.063418 
4420.000000	1.056909 
4419.000000	1.050162 
4418.000000	1.043653 
4417.000000	1.037931 
4416.000000	1.033258 
4415.000000	1.029682 
4414.000000	1.027107 
4413.000000	1.025366 
4412.000000	1.024270 
4411.000000	1.023602 
4410.000000	1.023292 
4409.000000	1.023268 
4408.000000	1.023602 
4407.000000	1.024246 
4406.000000	1.025128 
4405.000000	1.026153 
4404.000000	1.027250 
4403.000000	1.028394 
4402.000000	1.029443 
4401.000000	1.030421 
4400.000000	1.031327 
4399.000000	1.032161 
4398.000000	1.032948 
4397.000000	1.033639 
4396.000000	1.034259 
4395.000000	1.034832 
4394.000000	1.035308 
4393.000000	1.035642 
4392.000000	1.035881 
4391.000000	1.036024 
4390.000000	1.036047 
4389.000000	1.035976 
4388.000000	1.035857 
4387.000000	1.035666 
4386.000000	1.035475 
4385.000000	1.035284 
4384.000000	1.035046 
4383.000000	1.034903 
4382.000000	1.034855 
4381.000000	1.034975 
4380.000000	1.035308 
4379.000000	1.035881 
4378.000000	1.036739 
4377.000000	1.037788 
4376.000000	1.039004 
4375.000000	1.040291 
4374.000000	1.041531 
4373.000000	1.042652 
4372.000000	1.043534 
4371.000000	1.044154 
4370.000000	1.044583 
4369.000000	1.044845 
4368.000000	1.045083 
4367.000000	1.045417 
4366.000000	1.045918 
4365.000000	1.046681 
4364.000000	1.047706 
4363.000000	1.048994 
4362.000000	1.050448 
4361.000000	1.052021 
4360.000000	1.053643 
4359.000000	1.055240 
4358.000000	1.056766 
4357.000000	1.058244 
4356.000000	1.059651 
4355.000000	1.060986 
4354.000000	1.062273 
4353.000000	1.063585 
4352.000000	1.064848 
4351.000000	1.066112 
4350.000000	1.067328 
4349.000000	1.068544 
4348.000000	1.069688 
4347.000000	1.070785 
4346.000000	1.071810 
4345.000000	1.072764 
4344.000000	1.073670 
4343.000000	1.074552 
4342.000000	1.075339 
4341.000000	1.076102 
4340.000000	1.076793 
4339.000000	1.077485 
4338.000000	1.078128 
4337.000000	1.078796 
4336.000000	1.079463 
4335.000000	1.080203 
4334.000000	1.081037 
4333.000000	1.082015 
4332.000000	1.083087 
4331.000000	1.084303 
4330.000000	1.085662 
4329.000000	1.087021 
4328.000000	1.088428 
4327.000000	1.089811 
4326.000000	1.091074 
4325.000000	1.092267 
4324.000000	1.093339 
4323.000000	1.094341 
4322.000000	1.095318 
4321.000000	1.096320 
4320.000000	1.097393 
4319.000000	1.098608 
4318.000000	1.099944 
4317.000000	1.101398 
4316.000000	1.103019 
4315.000000	1.104712 
4314.000000	1.106476 
4313.000000	1.108288 
4312.000000	1.110124 
4311.000000	1.111960 
4310.000000	1.113748 
4309.000000	1.115512 
4308.000000	1.117181 
4307.000000	1.118755 
4306.000000	1.120209 
4305.000000	1.121520 
4304.000000	1.122689 
4303.000000	1.123714 
4302.000000	1.124620 
4301.000000	1.125454 
4300.000000	1.126313 
4299.000000	1.127195 
4298.000000	1.128220 
4297.000000	1.129364 
4296.000000	1.130652 
4295.000000	1.132082 
4294.000000	1.133513 
4293.000000	1.134896 
4292.000000	1.136136 
4291.000000	1.137232 
4290.000000	1.138114 
4289.000000	1.138830 
4288.000000	1.139402 
4287.000000	1.139903 
4286.000000	1.140475 
4285.000000	1.141142 
4284.000000	1.141977 
4283.000000	1.142978 
4282.000000	1.144123 
4281.000000	1.145362 
4280.000000	1.146650 
4279.000000	1.147961 
4278.000000	1.149201 
4277.000000	1.150369 
4276.000000	1.151514 
4275.000000	1.152610 
4274.000000	1.153683 
4273.000000	1.154780 
4272.000000	1.155900 
4271.000000	1.157045 
4270.000000	1.158165 
4269.000000	1.159238 
4268.000000	1.160264 
4267.000000	1.161217 
4266.000000	1.162147 
4265.000000	1.163029 
4264.000000	1.163911 
4263.000000	1.164841 
4262.000000	1.165771 
4261.000000	1.166749 
4260.000000	1.167702 
4259.000000	1.168656 
4258.000000	1.169490 
4257.000000	1.170229 
4256.000000	1.170873 
4255.000000	1.171422 
4254.000000	1.171994 
4253.000000	1.172590 
4252.000000	1.173329 
4251.000000	1.174187 
4250.000000	1.175189 
4249.000000	1.176357 
4248.000000	1.177620 
4247.000000	1.178908 
4246.000000	1.180171 
4245.000000	1.181340 
4244.000000	1.182389 
4243.000000	1.183319 
4242.000000	1.184129 
4241.000000	1.184773 
4240.000000	1.185297 
4239.000000	1.185703 
4238.000000	1.186013 
4237.000000	1.186323 
4236.000000	1.186561 
4235.000000	1.186800 
4234.000000	1.187109 
4233.000000	1.187491 
4232.000000	1.187968 
4231.000000	1.188540 
4230.000000	1.189208 
4229.000000	1.189970 
4228.000000	1.190757 
4227.000000	1.191592 
4226.000000	1.192378 
4225.000000	1.193118 
4224.000000	1.193809 
4223.000000	1.194405 
4222.000000	1.194930 
4221.000000	1.195383 
4220.000000	1.195740 
4219.000000	1.196002 
4218.000000	1.196169 
4217.000000	1.196289 
4216.000000	1.196312 
4215.000000	1.196289 
4214.000000	1.196289 
4213.000000	1.196289 
4212.000000	1.196408 
4211.000000	1.196622 
4210.000000	1.196956 
4209.000000	1.197433 
4208.000000	1.198005 
4207.000000	1.198673 
4206.000000	1.199364 
4205.000000	1.200056 
4204.000000	1.200747 
4203.000000	1.201415 
4202.000000	1.201987 
4201.000000	1.202559 
4200.000000	1.203083 
4199.000000	1.203608 
4198.000000	1.204085 
4197.000000	1.204538 
4196.000000	1.204991 
4195.000000	1.205420 
4194.000000	1.205873 
4193.000000	1.206374 
4192.000000	1.206946 
4191.000000	1.207661 
4190.000000	1.208448 
4189.000000	1.209282 
4188.000000	1.210188 
4187.000000	1.211047 
4186.000000	1.211881 
4185.000000	1.212620 
4184.000000	1.213288 
4183.000000	1.213860 
4182.000000	1.214432 
4181.000000	1.214957 
4180.000000	1.215481 
4179.000000	1.216006 
4178.000000	1.216530 
4177.000000	1.216959 
4176.000000	1.217341 
4175.000000	1.217627 
4174.000000	1.217865 
4173.000000	1.218056 
4172.000000	1.218271 
4171.000000	1.218509 
4170.000000	1.218867 
4169.000000	1.219367 
4168.000000	1.219964 
4167.000000	1.220655 
4166.000000	1.221394 
4165.000000	1.222133 
4164.000000	1.222896 
4163.000000	1.223659 
4162.000000	1.224350 
4161.000000	1.224994 
4160.000000	1.225590 
4159.000000	1.226162 
4158.000000	1.226663 
4157.000000	1.227164 
4156.000000	1.227688 
4155.000000	1.228213 
4154.000000	1.228761 
4153.000000	1.229429 
4152.000000	1.230144 
4151.000000	1.230931 
4150.000000	1.231765 
4149.000000	1.232647 
4148.000000	1.233553 
4147.000000	1.234507 
4146.000000	1.235461 
4145.000000	1.236391 
4144.000000	1.237320 
4143.000000	1.238226 
4142.000000	1.239061 
4141.000000	1.239824 
4140.000000	1.240539 
4139.000000	1.241135 
4138.000000	1.241636 
4137.000000	1.242089 
4136.000000	1.242494 
4135.000000	1.242876 
4134.000000	1.243281 
4133.000000	1.243782 
4132.000000	1.244378 
4131.000000	1.245069 
4130.000000	1.245903 
4129.000000	1.246786 
4128.000000	1.247763 
4127.000000	1.248788 
4126.000000	1.249837 
4125.000000	1.250863 
4124.000000	1.251935 
4123.000000	1.253032 
4122.000000	1.254129 
4121.000000	1.255249 
4120.000000	1.256346 
4119.000000	1.257443 
4118.000000	1.258492 
4117.000000	1.259493 
4116.000000	1.260423 
4115.000000	1.261305 
4114.000000	1.262164 
4113.000000	1.262974 
4112.000000	1.263809 
4111.000000	1.264667 
4110.000000	1.265573 
4109.000000	1.266527 
4108.000000	1.267504 
4107.000000	1.268529 
4106.000000	1.269531 
4105.000000	1.270508 
4104.000000	1.271533 
4103.000000	1.272487 
4102.000000	1.273488 
4101.000000	1.274466 
4100.000000	1.275515 
4099.000000	1.276612 
4098.000000	1.277756 
4097.000000	1.278972 
4096.000000	1.280260 
4095.000000	1.281571 
4094.000000	1.282930 
4093.000000	1.284337 
4092.000000	1.285791 
4091.000000	1.287269 
4090.000000	1.288795 
4089.000000	1.290369 
4088.000000	1.291990 
4087.000000	1.293611 
4086.000000	1.295256 
4085.000000	1.296854 
4084.000000	1.298403 
4083.000000	1.299810 
4082.000000	1.301121 
4081.000000	1.302242 
4080.000000	1.303267 
4079.000000	1.304197 
4078.000000	1.305055 
4077.000000	1.305961 
4076.000000	1.306891 
4075.000000	1.307892 
4074.000000	1.308989 
4073.000000	1.310229 
4072.000000	1.311564 
4071.000000	1.313018 
4070.000000	1.314520 
4069.000000	1.316094 
4068.000000	1.317715 
4067.000000	1.319360 
4066.000000	1.320981 
4065.000000	1.322555 
4064.000000	1.324105 
4063.000000	1.325511 
4062.000000	1.326870 
4061.000000	1.328134 
4060.000000	1.329350 
4059.000000	1.330542 
4058.000000	1.331758 
4057.000000	1.332998 
4056.000000	1.334333 
4055.000000	1.335716 
4054.000000	1.337265 
4053.000000	1.338887 
4052.000000	1.340603 
4051.000000	1.342368 
4050.000000	1.344227 
4049.000000	1.346111 
4048.000000	1.347994 
4047.000000	1.349878 
4046.000000	1.351690 
4045.000000	1.353406 
4044.000000	1.355004 
4043.000000	1.356506 
4042.000000	1.357889 
4041.000000	1.359152 
4040.000000	1.360321 
4039.000000	1.361417 
4038.000000	1.362514 
4037.000000	1.363563 
4036.000000	1.364588 
4035.000000	1.365590 
4034.000000	1.366567 
4033.000000	1.367592 
4032.000000	1.368594 
4031.000000	1.369619 
4030.000000	1.370716 
4029.000000	1.371836 
4028.000000	1.373028 
4027.000000	1.374292 
4026.000000	1.375603 
4025.000000	1.376891 
4024.000000	1.378154 
4023.000000	1.379346 
4022.000000	1.380419 
4021.000000	1.381373 
4020.000000	1.382160 
4019.000000	1.382780 
4018.000000	1.383280 
4017.000000	1.383733 
4016.000000	1.384210 
4015.000000	1.384782 
4014.000000	1.385474 
4013.000000	1.386332 
4012.000000	1.387381 
4011.000000	1.388621 
4010.000000	1.389932 
4009.000000	1.391315 
4008.000000	1.392674 
4007.000000	1.394009 
4006.000000	1.395201 
4005.000000	1.396346 
4004.000000	1.397323 
4003.000000	1.398253 
4002.000000	1.399135 
4001.000000	1.399970 
4000.000000	1.400780 
3999.000000	1.401567 
3998.000000	1.402330 
3997.000000	1.403045 
3996.000000	1.403784 
3995.000000	1.404523 
3994.000000	1.405334 
3993.000000	1.406216 
3992.000000	1.407241 
3991.000000	1.408386 
3990.000000	1.409626 
3989.000000	1.410961 
3988.000000	1.412272 
3987.000000	1.413536 
3986.000000	1.414680 
3985.000000	1.415657 
3984.000000	1.416397 
3983.000000	1.416993 
3982.000000	1.417422 
3981.000000	1.417684 
3980.000000	1.417899 
3979.000000	1.418089 
3978.000000	1.418280 
3977.000000	1.418519 
3976.000000	1.418852 
3975.000000	1.419234 
3974.000000	1.419663 
3973.000000	1.420116 
3972.000000	1.420593 
3971.000000	1.420998 
3970.000000	1.421308 
3969.000000	1.421618 
3968.000000	1.421809 
3967.000000	1.421952 
3966.000000	1.422047 
3965.000000	1.422166 
3964.000000	1.422381 
3963.000000	1.422667 
3962.000000	1.423048 
3961.000000	1.423501 
3960.000000	1.424026 
3959.000000	1.424551 
3958.000000	1.424980 
3957.000000	1.425290 
3956.000000	1.425457 
3955.000000	1.425480 
3954.000000	1.425385 
3953.000000	1.425218 
3952.000000	1.425004 
3951.000000	1.424860 
3950.000000	1.424694 
3949.000000	1.424622 
3948.000000	1.424694 
3947.000000	1.424860 
3946.000000	1.425147 
3945.000000	1.425552 
3944.000000	1.426100 
3943.000000	1.426696 
3942.000000	1.427364 
3941.000000	1.428031 
3940.000000	1.428675 
3939.000000	1.429247 
3938.000000	1.429772 
3937.000000	1.430225 
3936.000000	1.430606 
3935.000000	1.430988 
3934.000000	1.431322 
3933.000000	1.431727 
3932.000000	1.432180 
3931.000000	1.432681 
3930.000000	1.433229 
3929.000000	1.433730 
3928.000000	1.434183 
3927.000000	1.434493 
3926.000000	1.434707 
3925.000000	1.434779 
3924.000000	1.434755 
3923.000000	1.434683 
3922.000000	1.434612 
3921.000000	1.434636 
3920.000000	1.434731 
3919.000000	1.434993 
3918.000000	1.435375 
3917.000000	1.435947 
3916.000000	1.436614 
3915.000000	1.437282 
3914.000000	1.437973 
3913.000000	1.438546 
3912.000000	1.438975 
3911.000000	1.439166 
3910.000000	1.439070 
3909.000000	1.438736 
3908.000000	1.438188 
3907.000000	1.437449 
3906.000000	1.436734 
3905.000000	1.436090 
3904.000000	1.435661 
3903.000000	1.435542 
3902.000000	1.435780 
3901.000000	1.436376 
3900.000000	1.437330 
3899.000000	1.438546 
3898.000000	1.439881 
3897.000000	1.441240 
3896.000000	1.442480 
3895.000000	1.443552 
3894.000000	1.444363 
3893.000000	1.444911 
3892.000000	1.445198 
3891.000000	1.445293 
3890.000000	1.445198 
3889.000000	1.445031 
3888.000000	1.444792 
3887.000000	1.444673 
3886.000000	1.444649 
3885.000000	1.444816 
3884.000000	1.445174 
3883.000000	1.445722 
3882.000000	1.446437 
3881.000000	1.447248 
3880.000000	1.448059 
3879.000000	1.448774 
3878.000000	1.449394 
3877.000000	1.449799 
3876.000000	1.450037 
3875.000000	1.450109 
3874.000000	1.450133 
3873.000000	1.450157 
3872.000000	1.450324 
3871.000000	1.450705 
3870.000000	1.451349 
3869.000000	1.452302 
3868.000000	1.453471 
3867.000000	1.454854 
3866.000000	1.456332 
3865.000000	1.457786 
3864.000000	1.459097 
3863.000000	1.460027 
3862.000000	1.460504 
3861.000000	1.460433 
3860.000000	1.459789 
3859.000000	1.458716 
3858.000000	1.457357 
3857.000000	1.455998 
3856.000000	1.454997 
3855.000000	1.454639 
3854.000000	1.455163 
3853.000000	1.456713 
3852.000000	1.459193 
3851.000000	1.462388 
3850.000000	1.465964 
3849.000000	1.469588 
3848.000000	1.472878 
3847.000000	1.475548 
3846.000000	1.477432 
3845.000000	1.478481 
3844.000000	1.478838 
3843.000000	1.478672 
3842.000000	1.478290 
3841.000000	1.477909 
3840.000000	1.477742 
3839.000000	1.477956 
3838.000000	1.478624 
3837.000000	1.479768 
3836.000000	1.481342 
3835.000000	1.483225 
3834.000000	1.485252 
3833.000000	1.487326 
3832.000000	1.489305 
3831.000000	1.491093 
3830.000000	1.492714 
3829.000000	1.494145 
3828.000000	1.495337 
3827.000000	1.496386 
3826.000000	1.497292 
3825.000000	1.498079 
3824.000000	1.498770 
3823.000000	1.499414 
3822.000000	1.500082 
3821.000000	1.500821 
3820.000000	1.501750 
3819.000000	1.502943 
3818.000000	1.504468 
3817.000000	1.506280 
3816.000000	1.508259 
3815.000000	1.510357 
3814.000000	1.512384 
3813.000000	1.514101 
3812.000000	1.515436 
3811.000000	1.516246 
3810.000000	1.516532 
3809.000000	1.516485 
3808.000000	1.516175 
3807.000000	1.515746 
3806.000000	1.515460 
3805.000000	1.515507 
3804.000000	1.516032 
3803.000000	1.517057 
3802.000000	1.518630 
3801.000000	1.520705 
3800.000000	1.523184 
3799.000000	1.525974 
3798.000000	1.528906 
3797.000000	1.531839 
3796.000000	1.534676 
3795.000000	1.537299 
3794.000000	1.539635 
3793.000000	1.541709 
3792.000000	1.543474 
3791.000000	1.545000 
3790.000000	1.546382 
3789.000000	1.547646 
3788.000000	1.548767 
3787.000000	1.549839 
3786.000000	1.550841 
3785.000000	1.551747 
3784.000000	1.552557 
3783.000000	1.553273 
3782.000000	1.553845 
3781.000000	1.554298 
3780.000000	1.554703 
3779.000000	1.555037 
3778.000000	1.555347 
3777.000000	1.555633 
3776.000000	1.555967 
3775.000000	1.556277 
3774.000000	1.556658 
3773.000000	1.557087 
3772.000000	1.557683 
3771.000000	1.558399 
3770.000000	1.559233 
3769.000000	1.560235 
3768.000000	1.561379 
3767.000000	1.562643 
3766.000000	1.563930 
3765.000000	1.565194 
3764.000000	1.566386 
3763.000000	1.567363 
3762.000000	1.568078 
3761.000000	1.568531 
3760.000000	1.568651 
3759.000000	1.568460 
3758.000000	1.567864 
3757.000000	1.566910 
3756.000000	1.565694 
3755.000000	1.564264 
3754.000000	1.562666 
3753.000000	1.561045 
3752.000000	1.559472 
3751.000000	1.558041 
3750.000000	1.556849 
3749.000000	1.555991 
3748.000000	1.555538 
3747.000000	1.555609 
3746.000000	1.556158 
3745.000000	1.557254 
3744.000000	1.558756 
3743.000000	1.560544 
3742.000000	1.562476 
3741.000000	1.564359 
3740.000000	1.566076 
3739.000000	1.567554 
3738.000000	1.568722 
3737.000000	1.569676 
3736.000000	1.570510 
3735.000000	1.571345 
3734.000000	1.572251 
3733.000000	1.573324 
3732.000000	1.574563 
3731.000000	1.575851 
3730.000000	1.577162 
3729.000000	1.578354 
3728.000000	1.579403 
3727.000000	1.580262 
3726.000000	1.581001 
3725.000000	1.581597 
3724.000000	1.582145 
3723.000000	1.582622 
3722.000000	1.583027 
3721.000000	1.583337 
3720.000000	1.583528 
3719.000000	1.583528 
3718.000000	1.583290 
3717.000000	1.582908 
3716.000000	1.582455 
3715.000000	1.582050 
3714.000000	1.581859 
3713.000000	1.581907 
3712.000000	1.582241 
3711.000000	1.582860 
3710.000000	1.583695 
3709.000000	1.584553 
3708.000000	1.585364 
3707.000000	1.586055 
3706.000000	1.586532 
3705.000000	1.586866 
3704.000000	1.587080 
3703.000000	1.587224 
3702.000000	1.587438 
3701.000000	1.587677 
3700.000000	1.587963 
3699.000000	1.588249 
3698.000000	1.588368 
3697.000000	1.588153 
3696.000000	1.587605 
3695.000000	1.586580 
3694.000000	1.585197 
3693.000000	1.583600 
3692.000000	1.581931 
3691.000000	1.580500 
3690.000000	1.579451 
3689.000000	1.578998 
3688.000000	1.579189 
3687.000000	1.579976 
3686.000000	1.581144 
3685.000000	1.582407 
3684.000000	1.583576 
3683.000000	1.584339 
3682.000000	1.584529 
3681.000000	1.584076 
3680.000000	1.583051 
3679.000000	1.581525 
3678.000000	1.579785 
3677.000000	1.577997 
3676.000000	1.576375 
3675.000000	1.575136 
3674.000000	1.574397 
3673.000000	1.574206 
3672.000000	1.574611 
3671.000000	1.575565 
3670.000000	1.576924 
3669.000000	1.578664 
3668.000000	1.580572 
3667.000000	1.582527 
3666.000000	1.584291 
3665.000000	1.585745 
3664.000000	1.586818 
3663.000000	1.587390 
3662.000000	1.587533 
3661.000000	1.587271 
3660.000000	1.586699 
3659.000000	1.585960 
3658.000000	1.585102 
3657.000000	1.584243 
3656.000000	1.583409 
3655.000000	1.582646 
3654.000000	1.581954 
3653.000000	1.581406 
3652.000000	1.581048 
3651.000000	1.580929 
3650.000000	1.581168 
3649.000000	1.581716 
3648.000000	1.582670 
3647.000000	1.583886 
3646.000000	1.585268 
3645.000000	1.586699 
3644.000000	1.588010 
3643.000000	1.589035 
3642.000000	1.589751 
3641.000000	1.590108 
3640.000000	1.590108 
3639.000000	1.589751 
3638.000000	1.589131 
3637.000000	1.588249 
3636.000000	1.587176 
3635.000000	1.585984 
3634.000000	1.584720 
3633.000000	1.583504 
3632.000000	1.582455 
3631.000000	1.581740 
3630.000000	1.581478 
3629.000000	1.581716 
3628.000000	1.582455 
3627.000000	1.583600 
3626.000000	1.584982 
3625.000000	1.586437 
3624.000000	1.587796 
3623.000000	1.589012 
3622.000000	1.589941 
3621.000000	1.590633 
3620.000000	1.591110 
3619.000000	1.591444 
3618.000000	1.591753 
3617.000000	1.591992 
3616.000000	1.592183 
3615.000000	1.592397 
3614.000000	1.592564 
3613.000000	1.592731 
3612.000000	1.592946 
3611.000000	1.593279 
3610.000000	1.593804 
3609.000000	1.594591 
3608.000000	1.595664 
3607.000000	1.596975 
3606.000000	1.598501 
3605.000000	1.600098 
3604.000000	1.601696 
3603.000000	1.603102 
3602.000000	1.604294 
3601.000000	1.605224 
3600.000000	1.605868 
3599.000000	1.606345 
3598.000000	1.606607 
3597.000000	1.606798 
3596.000000	1.606941 
3595.000000	1.607084 
3594.000000	1.607227 
3593.000000	1.607370 
3592.000000	1.607561 
3591.000000	1.607775 
3590.000000	1.608014 
3589.000000	1.608347 
3588.000000	1.608753 
3587.000000	1.609325 
3586.000000	1.609992 
3585.000000	1.610827 
3584.000000	1.611733 
3583.000000	1.612758 
3582.000000	1.613831 
3581.000000	1.614928 
3580.000000	1.616048 
3579.000000	1.617074 
3578.000000	1.618027 
3577.000000	1.618862 
3576.000000	1.619505 
3575.000000	1.619958 
3574.000000	1.620197 
3573.000000	1.620221 
3572.000000	1.620078 
3571.000000	1.619839 
3570.000000	1.619648 
3569.000000	1.619553 
3568.000000	1.619648 
3567.000000	1.619958 
3566.000000	1.620602 
3565.000000	1.621437 
3564.000000	1.622414 
3563.000000	1.623487 
3562.000000	1.624608 
3561.000000	1.625633 
3560.000000	1.626515 
3559.000000	1.627278 
3558.000000	1.627993 
3557.000000	1.628613 
3556.000000	1.629257 
3555.000000	1.629877 
3554.000000	1.630496 
3553.000000	1.631093 
3552.000000	1.631665 
3551.000000	1.632189 
3550.000000	1.632618 
3549.000000	1.633000 
3548.000000	1.633334 
3547.000000	1.633620 
3546.000000	1.633858 
3545.000000	1.634097 
3544.000000	1.634311 
3543.000000	1.634478 
3542.000000	1.634597 
3541.000000	1.634716 
3540.000000	1.634788 
3539.000000	1.634836 
3538.000000	1.634907 
3537.000000	1.635003 
3536.000000	1.635217 
3535.000000	1.635503 
3534.000000	1.635885 
3533.000000	1.636314 
3532.000000	1.636815 
3531.000000	1.637268 
3530.000000	1.637721 
3529.000000	1.638102 
3528.000000	1.638436 
3527.000000	1.638698 
3526.000000	1.638913 
3525.000000	1.639151 
3524.000000	1.639366 
3523.000000	1.639604 
3522.000000	1.639914 
3521.000000	1.640248 
3520.000000	1.640605 
3519.000000	1.640939 
3518.000000	1.641225 
3517.000000	1.641368 
3516.000000	1.641297 
3515.000000	1.641082 
3514.000000	1.640701 
3513.000000	1.640176 
3512.000000	1.639628 
3511.000000	1.639103 
3510.000000	1.638627 
3509.000000	1.638269 
3508.000000	1.638031 
3507.000000	1.637792 
3506.000000	1.637578 
3505.000000	1.637315 
3504.000000	1.636981 
3503.000000	1.636576 
3502.000000	1.636099 
3501.000000	1.635646 
3500.000000	1.635193 
3499.000000	1.634812 
3498.000000	1.634478 
3497.000000	1.634192 
3496.000000	1.633882 
3495.000000	1.633548 
3494.000000	1.633095 
3493.000000	1.632595 
3492.000000	1.632022 
3491.000000	1.631402 
3490.000000	1.630783 
3489.000000	1.630234 
3488.000000	1.629734 
3487.000000	1.629304 
3486.000000	1.628899 
3485.000000	1.628494 
3484.000000	1.628088 
3483.000000	1.627588 
3482.000000	1.627016 
3481.000000	1.626300 
3480.000000	1.625537 
3479.000000	1.624703 
3478.000000	1.623821 
3477.000000	1.622891 
3476.000000	1.622009 
3475.000000	1.621150 
3474.000000	1.620364 
3473.000000	1.619648 
3472.000000	1.619052 
3471.000000	1.618576 
3470.000000	1.618218 
3469.000000	1.617932 
3468.000000	1.617765 
3467.000000	1.617646 
3466.000000	1.617598 
3465.000000	1.617527 
3464.000000	1.617383 
3463.000000	1.617193 
3462.000000	1.616883 
3461.000000	1.616477 
3460.000000	1.615977 
3459.000000	1.615333 
3458.000000	1.614594 
3457.000000	1.613807 
3456.000000	1.612925 
3455.000000	1.611995 
3454.000000	1.611042 
3453.000000	1.610064 
3452.000000	1.609086 
3451.000000	1.608085 
3450.000000	1.607155 
3449.000000	1.606249 
3448.000000	1.605391 
3447.000000	1.604557 
3446.000000	1.603770 
3445.000000	1.603031 
3444.000000	1.602315 
3443.000000	1.601624 
3442.000000	1.600956 
3441.000000	1.600313 
3440.000000	1.599669 
3439.000000	1.599001 
3438.000000	1.598334 
3437.000000	1.597619 
3436.000000	1.596832 
3435.000000	1.596021 
3434.000000	1.595187 
3433.000000	1.594376 
3432.000000	1.593613 
3431.000000	1.592922 
3430.000000	1.592445 
3429.000000	1.592183 
3428.000000	1.592135 
3427.000000	1.592373 
3426.000000	1.592779 
3425.000000	1.593351 
3424.000000	1.593971 
3423.000000	1.594614 
3422.000000	1.595139 
3421.000000	1.595568 
3420.000000	1.595830 
3419.000000	1.595926 
3418.000000	1.595926 
3417.000000	1.595830 
3416.000000	1.595759 
3415.000000	1.595783 
3414.000000	1.595902 
3413.000000	1.596260 
3412.000000	1.596808 
3411.000000	1.597523 
3410.000000	1.598453 
3409.000000	1.599478 
3408.000000	1.600575 
3407.000000	1.601672 
3406.000000	1.602721 
3405.000000	1.603674 
3404.000000	1.604557 
3403.000000	1.605319 
3402.000000	1.605916 
3401.000000	1.606392 
3400.000000	1.606774 
3399.000000	1.607060 
3398.000000	1.607298 
3397.000000	1.607561 
3396.000000	1.607871 
3395.000000	1.608300 
3394.000000	1.608896 
3393.000000	1.609683 
3392.000000	1.610612 
3391.000000	1.611709 
3390.000000	1.612877 
3389.000000	1.614069 
3388.000000	1.615214 
3387.000000	1.616287 
3386.000000	1.617240 
3385.000000	1.618075 
3384.000000	1.618790 
3383.000000	1.619386 
3382.000000	1.619958 
3381.000000	1.620483 
3380.000000	1.620960 
3379.000000	1.621389 
3378.000000	1.621818 
3377.000000	1.622176 
3376.000000	1.622509 
3375.000000	1.622915 
3374.000000	1.623368 
3373.000000	1.623940 
3372.000000	1.624703 
3371.000000	1.625609 
3370.000000	1.626753 
3369.000000	1.628065 
3368.000000	1.629519 
3367.000000	1.631093 
3366.000000	1.632785 
3365.000000	1.634478 
3364.000000	1.636242 
3363.000000	1.638007 
3362.000000	1.639771 
3361.000000	1.641535 
3360.000000	1.643347 
3359.000000	1.645135 
3358.000000	1.646876 
3357.000000	1.648545 
3356.000000	1.650142 
3355.000000	1.651644 
3354.000000	1.653075 
3353.000000	1.654434 
3352.000000	1.655793 
3351.000000	1.657199 
3350.000000	1.658630 
3349.000000	1.660156 
3348.000000	1.661849 
3347.000000	1.663613 
3346.000000	1.665472 
3345.000000	1.667380 
3344.000000	1.669239 
3343.000000	1.671099 
3342.000000	1.672840 
3341.000000	1.674509 
3340.000000	1.676082 
3339.000000	1.677513 
3338.000000	1.678872 
3337.000000	1.680111 
3336.000000	1.681280 
3335.000000	1.682400 
3334.000000	1.683473 
3333.000000	1.684546 
3332.000000	1.685667 
3331.000000	1.686811 
3330.000000	1.688075 
3329.000000	1.689434 
3328.000000	1.690864 
3327.000000	1.692390 
3326.000000	1.693987 
3325.000000	1.695632 
3324.000000	1.697325 
3323.000000	1.699042 
3322.000000	1.700735 
3321.000000	1.702427 
3320.000000	1.704072 
3319.000000	1.705694 
3318.000000	1.707315 
3317.000000	1.708865 
3316.000000	1.710414 
3315.000000	1.711964 
3314.000000	1.713562 
3313.000000	1.715183 
3312.000000	1.716828 
3311.000000	1.718497 
3310.000000	1.720190 
3309.000000	1.721858 
3308.000000	1.723456 
3307.000000	1.725006 
3306.000000	1.726460 
3305.000000	1.727867 
3304.000000	1.729202 
3303.000000	1.730513 
3302.000000	1.731824 
3301.000000	1.733088 
3300.000000	1.734447 
3299.000000	1.735806 
3298.000000	1.737141 
3297.000000	1.738476 
3296.000000	1.739764 
3295.000000	1.740980 
3294.000000	1.742148 
3293.000000	1.743245 
3292.000000	1.744318 
3291.000000	1.745390 
3290.000000	1.746511 
3289.000000	1.747727 
3288.000000	1.748967 
3287.000000	1.750302 
3286.000000	1.751661 
3285.000000	1.753020 
3284.000000	1.754355 
3283.000000	1.755619 
3282.000000	1.756811 
3281.000000	1.757907 
3280.000000	1.758956 
3279.000000	1.759982 
3278.000000	1.761007 
3277.000000	1.762032 
3276.000000	1.763057 
3275.000000	1.764130 
3274.000000	1.765179 
3273.000000	1.766276 
3272.000000	1.767373 
3271.000000	1.768469 
3270.000000	1.769566 
3269.000000	1.770687 
3268.000000	1.771807 
3267.000000	1.772856 
3266.000000	1.773881 
3265.000000	1.774835 
3264.000000	1.775670 
3263.000000	1.776409 
3262.000000	1.777052 
3261.000000	1.777553 
3260.000000	1.778054 
3259.000000	1.778531 
3258.000000	1.779055 
3257.000000	1.779651 
3256.000000	1.780366 
3255.000000	1.781201 
3254.000000	1.782155 
3253.000000	1.783132 
3252.000000	1.784110 
3251.000000	1.785063 
3250.000000	1.785898 
3249.000000	1.786613 
3248.000000	1.787185 
3247.000000	1.787662 
3246.000000	1.788091 
3245.000000	1.788520 
3244.000000	1.788997 
3243.000000	1.789546 
3242.000000	1.790189 
3241.000000	1.790928 
3240.000000	1.791715 
3239.000000	1.792454 
3238.000000	1.793122 
3237.000000	1.793742 
3236.000000	1.794242 
3235.000000	1.794695 
3234.000000	1.795077 
3233.000000	1.795458 
3232.000000	1.795887 
3231.000000	1.796388 
3230.000000	1.796913 
3229.000000	1.797509 
3228.000000	1.798057 
3227.000000	1.798558 
3226.000000	1.798987 
3225.000000	1.799345 
3224.000000	1.799631 
3223.000000	1.799869 
3222.000000	1.800084 
3221.000000	1.800346 
3220.000000	1.800584 
3219.000000	1.800894 
3218.000000	1.801180 
3217.000000	1.801419 
3216.000000	1.801609 
3215.000000	1.801681 
3214.000000	1.801633 
3213.000000	1.801419 
3212.000000	1.801109 
3211.000000	1.800727 
3210.000000	1.800274 
3209.000000	1.799893 
3208.000000	1.799559 
3207.000000	1.799392 
3206.000000	1.799392 
3205.000000	1.799583 
3204.000000	1.799941 
3203.000000	1.800441 
3202.000000	1.800990 
3201.000000	1.801490 
3200.000000	1.801943 
3199.000000	1.802277 
3198.000000	1.802492 
3197.000000	1.802563 
3196.000000	1.802587 
3195.000000	1.802563 
3194.000000	1.802515 
3193.000000	1.802539 
3192.000000	1.802587 
3191.000000	1.802754 
3190.000000	1.802968 
3189.000000	1.803231 
3188.000000	1.803565 
3187.000000	1.803898 
3186.000000	1.804232 
3185.000000	1.804566 
3184.000000	1.804900 
3183.000000	1.805210 
3182.000000	1.805472 
3181.000000	1.805734 
3180.000000	1.805996 
3179.000000	1.806235 
3178.000000	1.806426 
3177.000000	1.806592 
3176.000000	1.806759 
3175.000000	1.806926 
3174.000000	1.807141 
3173.000000	1.807403 
3172.000000	1.807689 
3171.000000	1.808023 
3170.000000	1.808381 
3169.000000	1.808786 
3168.000000	1.809191 
3167.000000	1.809620 
3166.000000	1.810050 
3165.000000	1.810526 
3164.000000	1.811051 
3163.000000	1.811575 
3162.000000	1.812171 
3161.000000	1.812767 
3160.000000	1.813435 
3159.000000	1.814079 
3158.000000	1.814746 
3157.000000	1.815462 
3156.000000	1.816153 
3155.000000	1.816868 
3154.000000	1.817655 
3153.000000	1.818513 
3152.000000	1.819443 
3151.000000	1.820468 
3150.000000	1.821541 
3149.000000	1.822686 
3148.000000	1.823878 
3147.000000	1.825094 
3146.000000	1.826262 
3145.000000	1.827383 
3144.000000	1.828479 
3143.000000	1.829552 
3142.000000	1.830601 
3141.000000	1.831603 
3140.000000	1.832604 
3139.000000	1.833581 
3138.000000	1.834511 
3137.000000	1.835417 
3136.000000	1.836323 
3135.000000	1.837253 
3134.000000	1.838254 
3133.000000	1.839351 
3132.000000	1.840591 
3131.000000	1.841902 
3130.000000	1.843333 
3129.000000	1.844811 
3128.000000	1.846194 
3127.000000	1.847481 
3126.000000	1.848649 
3125.000000	1.849699 
3124.000000	1.850652 
3123.000000	1.851534 
3122.000000	1.852464 
3121.000000	1.853418 
3120.000000	1.854443 
3119.000000	1.855587 
3118.000000	1.856756 
3117.000000	1.858043 
3116.000000	1.859426 
3115.000000	1.860857 
3114.000000	1.862406 
3113.000000	1.864099 
3112.000000	1.865959 
3111.000000	1.868009 
3110.000000	1.870179 
3109.000000	1.872467 
3108.000000	1.874780 
3107.000000	1.876997 
3106.000000	1.879119 
3105.000000	1.881098 
3104.000000	1.882910 
3103.000000	1.884579 
3102.000000	1.886177 
3101.000000	1.887702 
3100.000000	1.889252 
3099.000000	1.890850 
3098.000000	1.892542 
3097.000000	1.894330 
3096.000000	1.896214 
3095.000000	1.898193 
3094.000000	1.900196 
3093.000000	1.902198 
3092.000000	1.904225 
3091.000000	1.906204 
3090.000000	1.908111 
3089.000000	1.909947 
3088.000000	1.911711 
3087.000000	1.913452 
3086.000000	1.915144 
3085.000000	1.916885 
3084.000000	1.918625 
3083.000000	1.920461 
3082.000000	1.922345 
3081.000000	1.924276 
3080.000000	1.926279 
3079.000000	1.928257 
3078.000000	1.930236 
3077.000000	1.932144 
3076.000000	1.933956 
3075.000000	1.935696 
3074.000000	1.937294 
3073.000000	1.938796 
3072.000000	1.940178 
3071.000000	1.941490 
3070.000000	1.942706 
3069.000000	1.943850 
3068.000000	1.944923 
3067.000000	1.945948 
3066.000000	1.946902 
3065.000000	1.947903 
3064.000000	1.948952 
3063.000000	1.950097 
3062.000000	1.951360 
3061.000000	1.952815 
3060.000000	1.954436 
3059.000000	1.956224 
3058.000000	1.958179 
3057.000000	1.960253 
3056.000000	1.962375 
3055.000000	1.964521 
3054.000000	1.966643 
3053.000000	1.968693 
3052.000000	1.970672 
3051.000000	1.972508 
3050.000000	1.974225 
3049.000000	1.975870 
3048.000000	1.977372 
3047.000000	1.978754 
3046.000000	1.980018 
3045.000000	1.981210 
3044.000000	1.982283 
3043.000000	1.983261 
3042.000000	1.984143 
3041.000000	1.984977 
3040.000000	1.985669 
3039.000000	1.986241 
3038.000000	1.986670 
3037.000000	1.986956 
3036.000000	1.987075 
3035.000000	1.987051 
3034.000000	1.986885 
3033.000000	1.986575 
3032.000000	1.986122 
3031.000000	1.985478 
3030.000000	1.984739 
3029.000000	1.983904 
3028.000000	1.982808 
3027.000000	1.981592 
3026.000000	1.980209 
3025.000000	1.978683 
3024.000000	1.977062 
3023.000000	1.975417 
3022.000000	1.973938 
3021.000000	1.972699 
3020.000000	1.971936 
3019.000000	1.971840 
3018.000000	1.972484 
3017.000000	1.974058 
3016.000000	1.976537 
3015.000000	1.979947 
3014.000000	1.984143 
3013.000000	1.988911 
3012.000000	1.994061 
3011.000000	1.999282 
3010.000000	2.004408 
3009.000000	2.009224 
3008.000000	2.013659 
3007.000000	2.017641 
3006.000000	2.021098 
3005.000000	2.024126 
3004.000000	2.026724 
3003.000000	2.028965 
3002.000000	2.030873 
3001.000000	2.032518 
3000.000000	2.033972 
2999.000000	2.035212 
2998.000000	2.036261 
2997.000000	2.037191 
2996.000000	2.038025 
2995.000000	2.038788 
2994.000000	2.039432 
2993.000000	2.040028 
2992.000000	2.040529 
2991.000000	2.040934 
2990.000000	2.041172 
2989.000000	2.041220 
2988.000000	2.041029 
2987.000000	2.040576 
2986.000000	2.039742 
2985.000000	2.038598 
2984.000000	2.037072 
2983.000000	2.035236 
2982.000000	2.033042 
2981.000000	2.030563 
2980.000000	2.027845 
2979.000000	2.024841 
2978.000000	2.021574 
2977.000000	2.017998 
2976.000000	2.014088 
2975.000000	2.009725 
2974.000000	2.004957 
2973.000000	1.999688 
2972.000000	1.994061 
2971.000000	1.988077 
2970.000000	1.981854 
2969.000000	1.975607 
2968.000000	1.969408 
2967.000000	1.963448 
2966.000000	1.957893 
2965.000000	1.952815 
2964.000000	1.948261 
2963.000000	1.944327 
2962.000000	1.941037 
2961.000000	1.938343 
2960.000000	1.936197 
2959.000000	1.934576 
2958.000000	1.933336 
2957.000000	1.932430 
2956.000000	1.931738 
2955.000000	1.931118 
2954.000000	1.930475 
2953.000000	1.929664 
2952.000000	1.928567 
2951.000000	1.927065 
2950.000000	1.924943 
2949.000000	1.922178 
2948.000000	1.918578 
2947.000000	1.914119 
2946.000000	1.908683 
2945.000000	1.902270 
2944.000000	1.895022 
2943.000000	1.886963 
2942.000000	1.878261 
2941.000000	1.869058 
2940.000000	1.859641 
2939.000000	1.850199 
2938.000000	1.840853 
2937.000000	1.831793 
2936.000000	1.823234 
2935.000000	1.815199 
2934.000000	1.807665 
2933.000000	1.800727 
2932.000000	1.794362 
2931.000000	1.788592 
2930.000000	1.783514 
2929.000000	1.779294 
2928.000000	1.776123 
2927.000000	1.774239 
2926.000000	1.773929 
2925.000000	1.775407 
2924.000000	1.778793 
2923.000000	1.784276 
2922.000000	1.791667 
2921.000000	1.800894 
2920.000000	1.811623 
2919.000000	1.823496 
2918.000000	1.836156 
2917.000000	1.849198 
2916.000000	1.862192 
2915.000000	1.874780 
2914.000000	1.886701 
2913.000000	1.897835 
2912.000000	1.907944 
2911.000000	1.917052 
2910.000000	1.925158 
2909.000000	1.932358 
2908.000000	1.938772 
2907.000000	1.944446 
2906.000000	1.949572 
2905.000000	1.954245 
2904.000000	1.958537 
2903.000000	1.962542 
2902.000000	1.966381 
2901.000000	1.969981 
2900.000000	1.973438 
2899.000000	1.976680 
2898.000000	1.979732 
2897.000000	1.982641 
2896.000000	1.985406 
2895.000000	1.987957 
2894.000000	1.990413 
2893.000000	1.992774 
2892.000000	1.995038 
2891.000000	1.997280 
2890.000000	1.999449 
2889.000000	2.001667 
2888.000000	2.003836 
2887.000000	2.005982 
2886.000000	2.008032 
2885.000000	2.009963 
2884.000000	2.011704 
2883.000000	2.013182 
2882.000000	2.014327 
2881.000000	2.015089 
2880.000000	2.015423 
2879.000000	2.015304 
2878.000000	2.014636 
2877.000000	2.013325 
2876.000000	2.011346 
2875.000000	2.008605 
2874.000000	2.005052 
2873.000000	2.000546 
2872.000000	1.995062 
2871.000000	1.988601 
2870.000000	1.981186 
2869.000000	1.972913 
2868.000000	1.963973 
2867.000000	1.954722 
2866.000000	1.945519 
2865.000000	1.936841 
2864.000000	1.929116 
2863.000000	1.922845 
2862.000000	1.918411 
2861.000000	1.916146 
2860.000000	1.916003 
2859.000000	1.918148 
2858.000000	1.922369 
2857.000000	1.928424 
2856.000000	1.935982 
2855.000000	1.944708 
2854.000000	1.954245 
2853.000000	1.964378 
2852.000000	1.974773 
2851.000000	1.985335 
2850.000000	1.995825 
2849.000000	2.006125 
2848.000000	2.016162 
2847.000000	2.025794 
2846.000000	2.034950 
2845.000000	2.043604 
2844.000000	2.051782 
2843.000000	2.059388 
2842.000000	2.066516 
2841.000000	2.073144 
2840.000000	2.079343 
2839.000000	2.085185 
2838.000000	2.090597 
2837.000000	2.095699 
2836.000000	2.100467 
2835.000000	2.104949 
2834.000000	2.109169 
2833.000000	2.113151 
2832.000000	2.116966 
2831.000000	2.120590 
2830.000000	2.124047 
2829.000000	2.127337 
2828.000000	2.130460 
2827.000000	2.133464 
2826.000000	2.136325 
2825.000000	2.139115 
2824.000000	2.141833 
2823.000000	2.144575 
2822.000000	2.147364 
2821.000000	2.150225 
2820.000000	2.153086 
2819.000000	2.155947 
2818.000000	2.158784 
2817.000000	2.161478 
2816.000000	2.163958 
2815.000000	2.166223 
2814.000000	2.168250 
2813.000000	2.170038 
2812.000000	2.171659 
2811.000000	2.173233 
2810.000000	2.174758 
2809.000000	2.176356 
2808.000000	2.178120 
2807.000000	2.180051 
2806.000000	2.182078 
2805.000000	2.184247 
2804.000000	2.186489 
2803.000000	2.188706 
2802.000000	2.190876 
2801.000000	2.192950 
2800.000000	2.194905 
2799.000000	2.196741 
2798.000000	2.198433 
2797.000000	2.200007 
2796.000000	2.201509 
2795.000000	2.202939 
2794.000000	2.204370 
2793.000000	2.205848 
2792.000000	2.207398 
2791.000000	2.208971 
2790.000000	2.210593 
2789.000000	2.212333 
2788.000000	2.214074 
2787.000000	2.215862 
2786.000000	2.217698 
2785.000000	2.219533 
2784.000000	2.221393 
2783.000000	2.223253 
2782.000000	2.225136 
2781.000000	2.226996 
2780.000000	2.228832 
2779.000000	2.230715 
2778.000000	2.232575 
2777.000000	2.234458 
2776.000000	2.236294 
2775.000000	2.238059 
2774.000000	2.239727 
2773.000000	2.241301 
2772.000000	2.242779 
2771.000000	2.244114 
2770.000000	2.245306 
2769.000000	2.246427 
2768.000000	2.247476 
2767.000000	2.248501 
2766.000000	2.249526 
2765.000000	2.250552 
2764.000000	2.251577 
2763.000000	2.252626 
2762.000000	2.253651 
2761.000000	2.254652 
2760.000000	2.255582 
2759.000000	2.256488 
2758.000000	2.257323 
2757.000000	2.258110 
2756.000000	2.258896 
2755.000000	2.259659 
2754.000000	2.260422 
2753.000000	2.261209 
2752.000000	2.261996 
2751.000000	2.262759 
2750.000000	2.263522 
2749.000000	2.264189 
2748.000000	2.264785 
2747.000000	2.265286 
2746.000000	2.265644 
2745.000000	2.265906 
2744.000000	2.266049 
2743.000000	2.266073 
2742.000000	2.266025 
2741.000000	2.265930 
2740.000000	2.265834 
2739.000000	2.265763 
2738.000000	2.265739 
2737.000000	2.265763 
2736.000000	2.265810 
2735.000000	2.265882 
2734.000000	2.265977 
2733.000000	2.266049 
2732.000000	2.266073 
2731.000000	2.266049 
2730.000000	2.266025 
2729.000000	2.265954 
2728.000000	2.265882 
2727.000000	2.265834 
2726.000000	2.265763 
2725.000000	2.265691 
2724.000000	2.265620 
2723.000000	2.265524 
2722.000000	2.265429 
2721.000000	2.265238 
2720.000000	2.265000 
2719.000000	2.264714 
2718.000000	2.264308 
2717.000000	2.263832 
2716.000000	2.263259 
2715.000000	2.262616 
2714.000000	2.261948 
2713.000000	2.261257 
2712.000000	2.260565 
2711.000000	2.259826 
2710.000000	2.259111 
2709.000000	2.258372 
2708.000000	2.257585 
2707.000000	2.256774 
2706.000000	2.255988 
2705.000000	2.255225 
2704.000000	2.254557 
2703.000000	2.254009 
2702.000000	2.253603 
2701.000000	2.253413 
2700.000000	2.253389 
2699.000000	2.253532 
2698.000000	2.253746 
2697.000000	2.254009 
2696.000000	2.254271 
2695.000000	2.254438 
2694.000000	2.254438 
2693.000000	2.254343 
2692.000000	2.254104 
2691.000000	2.253699 
2690.000000	2.253198 
2689.000000	2.252602 
2688.000000	2.251887 
2687.000000	2.251100 
2686.000000	2.250266 
2685.000000	2.249431 
2684.000000	2.248573 
2683.000000	2.247738 
2682.000000	2.246928 
2681.000000	2.246189 
2680.000000	2.245473 
2679.000000	2.244806 
2678.000000	2.244162 
2677.000000	2.243494 
2676.000000	2.242779 
2675.000000	2.242016 
2674.000000	2.241206 
2673.000000	2.240324 
2672.000000	2.239465 
2671.000000	2.238607 
2670.000000	2.237844 
2669.000000	2.237081 
2668.000000	2.236390 
2667.000000	2.235698 
2666.000000	2.234983 
2665.000000	2.234244 
2664.000000	2.233481 
2663.000000	2.232742 
2662.000000	2.232050 
2661.000000	2.231454 
2660.000000	2.231001 
2659.000000	2.230739 
2658.000000	2.230572 
2657.000000	2.230525 
2656.000000	2.230501 
2655.000000	2.230453 
2654.000000	2.230310 
2653.000000	2.230072 
2652.000000	2.229738 
2651.000000	2.229332 
2650.000000	2.228856 
2649.000000	2.228379 
2648.000000	2.227926 
2647.000000	2.227497 
2646.000000	2.227091 
2645.000000	2.226758 
2644.000000	2.226448 
2643.000000	2.226209 
2642.000000	2.226042 
2641.000000	2.225923 
2640.000000	2.225947 
2639.000000	2.226042 
2638.000000	2.226209 
2637.000000	2.226448 
2636.000000	2.226781 
2635.000000	2.227187 
2634.000000	2.227568 
2633.000000	2.227950 
2632.000000	2.228283 
2631.000000	2.228593 
2630.000000	2.228784 
2629.000000	2.228927 
2628.000000	2.228975 
2627.000000	2.228999 
2626.000000	2.228999 
2625.000000	2.228999 
2624.000000	2.229022 
2623.000000	2.229118 
2622.000000	2.229261 
2621.000000	2.229404 
2620.000000	2.229595 
2619.000000	2.229785 
2618.000000	2.230000 
2617.000000	2.230167 
2616.000000	2.230310 
2615.000000	2.230453 
2614.000000	2.230572 
2613.000000	2.230644 
2612.000000	2.230739 
2611.000000	2.230811 
2610.000000	2.230930 
2609.000000	2.231121 
2608.000000	2.231383 
2607.000000	2.231740 
2606.000000	2.232193 
2605.000000	2.232694 
2604.000000	2.233219 
2603.000000	2.233719 
2602.000000	2.234220 
2601.000000	2.234649 
2600.000000	2.235031 
2599.000000	2.235436 
2598.000000	2.235841 
2597.000000	2.236342 
2596.000000	2.236938 
2595.000000	2.237629 
2594.000000	2.238440 
2593.000000	2.239346 
2592.000000	2.240347 
2591.000000	2.241396 
2590.000000	2.242493 
2589.000000	2.243661 
2588.000000	2.244806 
2587.000000	2.245998 
2586.000000	2.247190 
2585.000000	2.248430 
2584.000000	2.249670 
2583.000000	2.250933 
2582.000000	2.252244 
2581.000000	2.253580 
2580.000000	2.254986 
2579.000000	2.256441 
2578.000000	2.257895 
2577.000000	2.259445 
2576.000000	2.261042 
2575.000000	2.262639 
2574.000000	2.264213 
2573.000000	2.265810 
2572.000000	2.267360 
2571.000000	2.268886 
2570.000000	2.270412 
2569.000000	2.271938 
2568.000000	2.273488 
2567.000000	2.275109 
2566.000000	2.276706 
2565.000000	2.278375 
2564.000000	2.279996 
2563.000000	2.281546 
2562.000000	2.283024 
2561.000000	2.284383 
2560.000000	2.285647 
2559.000000	2.286839 
2558.000000	2.287983 
2557.000000	2.289080 
2556.000000	2.290225 
2555.000000	2.291369 
2554.000000	2.292513 
2553.000000	2.293729 
2552.000000	2.294921 
2551.000000	2.296137 
2550.000000	2.297329 
2549.000000	2.298521 
2548.000000	2.299737 
2547.000000	2.301025 
2546.000000	2.302336 
2545.000000	2.303695 
2544.000000	2.305054 
2543.000000	2.306389 
2542.000000	2.307701 
2541.000000	2.308893 
2540.000000	2.309966 
2539.000000	2.310895 
2538.000000	2.311658 
2537.000000	2.312302 
2536.000000	2.312922 
2535.000000	2.313518 
2534.000000	2.314138 
2533.000000	2.314853 
2532.000000	2.315640 
2531.000000	2.316546 
2530.000000	2.317523 
2529.000000	2.318525 
2528.000000	2.319526 
2527.000000	2.320528 
2526.000000	2.321434 
2525.000000	2.322292 
2524.000000	2.323079 
2523.000000	2.323842 
2522.000000	2.324581 
2521.000000	2.325320 
2520.000000	2.326083 
2519.000000	2.326893 
2518.000000	2.327752 
2517.000000	2.328610 
2516.000000	2.329468 
2515.000000	2.330303 
2514.000000	2.331042 
2513.000000	2.331709 
2512.000000	2.332282 
2511.000000	2.332782 
2510.000000	2.333188 
2509.000000	2.333545 
2508.000000	2.333831 
2507.000000	2.334070 
2506.000000	2.334284 
2505.000000	2.334475 
2504.000000	2.334666 
2503.000000	2.334880 
2502.000000	2.335047 
2501.000000	2.335166 
2500.000000	2.335357 
2499.000000	2.335500 
2498.000000	2.335619 
2497.000000	2.335715 
2496.000000	2.335762 
2495.000000	2.335810 
2494.000000	2.335786 
2493.000000	2.335762 
2492.000000	2.335739 
2491.000000	2.335667 
2490.000000	2.335619 
2489.000000	2.335500 
2488.000000	2.335357 
2487.000000	2.335143 
2486.000000	2.334833 
2485.000000	2.334451 
2484.000000	2.333974 
2483.000000	2.333402 
2482.000000	2.332782 
2481.000000	2.332139 
2480.000000	2.331519 
2479.000000	2.330923 
2478.000000	2.330350 
2477.000000	2.329754 
2476.000000	2.329134 
2475.000000	2.328491 
2474.000000	2.327775 
2473.000000	2.327013 
2472.000000	2.326226 
2471.000000	2.325415 
2470.000000	2.324628 
2469.000000	2.323818 
2468.000000	2.323031 
2467.000000	2.322316 
2466.000000	2.321600 
2465.000000	2.320885 
2464.000000	2.320122 
2463.000000	2.319288 
2462.000000	2.318406 
2461.000000	2.317476 
2460.000000	2.316474 
2459.000000	2.315378 
2458.000000	2.314281 
2457.000000	2.313137 
2456.000000	2.312040 
2455.000000	2.310967 
2454.000000	2.309942 
2453.000000	2.308988 
2452.000000	2.308058 
2451.000000	2.307200 
2450.000000	2.306318 
2449.000000	2.305459 
2448.000000	2.304530 
2447.000000	2.303576 
2446.000000	2.302527 
2445.000000	2.301430 
2444.000000	2.300262 
2443.000000	2.299118 
2442.000000	2.297925 
2441.000000	2.296757 
2440.000000	2.295684 
2439.000000	2.294707 
2438.000000	2.293801 
2437.000000	2.292990 
2436.000000	2.292227 
2435.000000	2.291464 
2434.000000	2.290725 
2433.000000	2.289938 
2432.000000	2.289104 
2431.000000	2.288246 
2430.000000	2.287364 
2429.000000	2.286481 
2428.000000	2.285671 
2427.000000	2.284908 
2426.000000	2.284169 
2425.000000	2.283430 
2424.000000	2.282691 
2423.000000	2.281880 
2422.000000	2.280998 
2421.000000	2.280044 
2420.000000	2.279090 
2419.000000	2.278161 
2418.000000	2.277302 
2417.000000	2.276515 
2416.000000	2.275824 
2415.000000	2.275156 
2414.000000	2.274489 
2413.000000	2.273797 
2412.000000	2.272987 
2411.000000	2.272057 
2410.000000	2.271056 
2409.000000	2.269959 
2408.000000	2.268838 
2407.000000	2.267718 
2406.000000	2.266621 
2405.000000	2.265572 
2404.000000	2.264618 
2403.000000	2.263665 
2402.000000	2.262806 
2401.000000	2.261972 
2400.000000	2.261185 
2399.000000	2.260422 
2398.000000	2.259731 
2397.000000	2.259087 
2396.000000	2.258539 
2395.000000	2.258062 
2394.000000	2.257609 
2393.000000	2.257204 
2392.000000	2.256822 
2391.000000	2.256441 
2390.000000	2.256059 
2389.000000	2.255702 
2388.000000	2.255344 
2387.000000	2.255034 
2386.000000	2.254748 
2385.000000	2.254533 
2384.000000	2.254295 
2383.000000	2.254080 
2382.000000	2.253842 
2381.000000	2.253532 
2380.000000	2.253150 
2379.000000	2.252626 
2378.000000	2.252006 
2377.000000	2.251219 
2376.000000	2.250361 
2375.000000	2.249383 
2374.000000	2.248311 
2373.000000	2.247262 
2372.000000	2.246236 
2371.000000	2.245306 
2370.000000	2.244496 
2369.000000	2.243804 
2368.000000	2.243232 
2367.000000	2.242827 
2366.000000	2.242588 
2365.000000	2.242517 
2364.000000	2.242612 
2363.000000	2.242970 
2362.000000	2.243566 
2361.000000	2.244472 
2360.000000	2.245688 
2359.000000	2.247214 
2358.000000	2.249050 
2357.000000	2.251148 
2356.000000	2.253437 
2355.000000	2.255821 
2354.000000	2.258229 
2353.000000	2.260565 
2352.000000	2.262759 
2351.000000	2.264714 
2350.000000	2.266407 
2349.000000	2.267813 
2348.000000	2.268886 
2347.000000	2.269697 
2346.000000	2.270269 
2345.000000	2.270698 
2344.000000	2.271032 
2343.000000	2.271366 
2342.000000	2.271771 
2341.000000	2.272319 
2340.000000	2.273035 
2339.000000	2.273941 
2338.000000	2.275013 
2337.000000	2.276229 
2336.000000	2.277612 
2335.000000	2.279090 
2334.000000	2.280640 
2333.000000	2.282285 
2332.000000	2.284026 
2331.000000	2.285838 
2330.000000	2.287745 
2329.000000	2.289795 
2328.000000	2.291870 
2327.000000	2.294135 
2326.000000	2.296400 
2325.000000	2.298712 
2324.000000	2.301073 
2323.000000	2.303385 
2322.000000	2.305698 
2321.000000	2.307939 
2320.000000	2.310180 
2319.000000	2.312421 
2318.000000	2.314639 
2317.000000	2.316904 
2316.000000	2.319216 
2315.000000	2.321529 
2314.000000	2.323818 
2313.000000	2.326035 
2312.000000	2.328133 
2311.000000	2.330064 
2310.000000	2.331876 
2309.000000	2.333569 
2308.000000	2.335143 
2307.000000	2.336645 
2306.000000	2.338099 
2305.000000	2.339601 
2304.000000	2.341079 
2303.000000	2.342581 
2302.000000	2.344012 
2301.000000	2.345442 
2300.000000	2.346777 
2299.000000	2.348041 
2298.000000	2.349305 
2297.000000	2.350521 
2296.000000	2.351784 
2295.000000	2.353096 
2294.000000	2.354478 
2293.000000	2.356004 
2292.000000	2.357530 
2291.000000	2.359080 
2290.000000	2.360582 
2289.000000	2.361965 
2288.000000	2.363204 
2287.000000	2.364301 
2286.000000	2.365231 
2285.000000	2.366042 
2284.000000	2.366733 
2283.000000	2.367448 
2282.000000	2.368187 
2281.000000	2.368998 
2280.000000	2.369880 
2279.000000	2.370882 
2278.000000	2.372002 
2277.000000	2.373194 
2276.000000	2.374362 
2275.000000	2.375507 
2274.000000	2.376580 
2273.000000	2.377581 
2272.000000	2.378439 
2271.000000	2.379226 
2270.000000	2.379870 
2269.000000	2.380466 
2268.000000	2.381014 
2267.000000	2.381539 
2266.000000	2.381992 
2265.000000	2.382493 
2264.000000	2.382946 
2263.000000	2.383446 
2262.000000	2.383971 
2261.000000	2.384543 
2260.000000	2.385139 
2259.000000	2.385783 
2258.000000	2.386450 
2257.000000	2.387118 
2256.000000	2.387785 
2255.000000	2.388334 
2254.000000	2.388811 
2253.000000	2.389168 
2252.000000	2.389359 
2251.000000	2.389407 
2250.000000	2.389335 
2249.000000	2.389121 
2248.000000	2.388858 
2247.000000	2.388548 
2246.000000	2.388262 
2245.000000	2.388024 
2244.000000	2.387857 
2243.000000	2.387762 
2242.000000	2.387762 
2241.000000	2.387857 
2240.000000	2.388024 
2239.000000	2.388238 
2238.000000	2.388453 
2237.000000	2.388644 
2236.000000	2.388787 
2235.000000	2.388834 
2234.000000	2.388834 
2233.000000	2.388763 
2232.000000	2.388596 
2231.000000	2.388334 
2230.000000	2.387952 
2229.000000	2.387428 
2228.000000	2.386808 
2227.000000	2.386093 
2226.000000	2.385258 
2225.000000	2.384328 
2224.000000	2.383375 
2223.000000	2.382397 
2222.000000	2.381420 
2221.000000	2.380490 
2220.000000	2.379584 
2219.000000	2.378702 
2218.000000	2.377867 
2217.000000	2.377009 
2216.000000	2.376151 
2215.000000	2.375292 
2214.000000	2.374410 
2213.000000	2.373528 
2212.000000	2.372670 
2211.000000	2.371859 
2210.000000	2.371096 
2209.000000	2.370429 
2208.000000	2.369761 
2207.000000	2.369093 
2206.000000	2.368474 
2205.000000	2.367806 
2204.000000	2.367138 
2203.000000	2.366423 
2202.000000	2.365684 
2201.000000	2.364969 
2200.000000	2.364277 
2199.000000	2.363634 
2198.000000	2.363038 
2197.000000	2.362465 
2196.000000	2.361917 
2195.000000	2.361369 
2194.000000	2.360844 
2193.000000	2.360296 
2192.000000	2.359724 
2191.000000	2.359151 
2190.000000	2.358484 
2189.000000	2.357721 
2188.000000	2.356910 
2187.000000	2.355933 
2186.000000	2.354884 
2185.000000	2.353739 
2184.000000	2.352523 
2183.000000	2.351284 
2182.000000	2.350068 
2181.000000	2.348971 
2180.000000	2.347970 
2179.000000	2.347183 
2178.000000	2.346563 
2177.000000	2.346110 
2176.000000	2.345848 
2175.000000	2.345681 
2174.000000	2.345561 
2173.000000	2.345442 
2172.000000	2.345275 
2171.000000	2.344989 
2170.000000	2.344632 
2169.000000	2.344226 
2168.000000	2.343702 
2167.000000	2.343153 
2166.000000	2.342629 
2165.000000	2.342152 
2164.000000	2.341747 
2163.000000	2.341365 
2162.000000	2.341055 
2161.000000	2.340745 
2160.000000	2.340507 
2159.000000	2.340245 
2158.000000	2.340030 
2157.000000	2.339887 
2156.000000	2.339768 
2155.000000	2.339768 
2154.000000	2.339911 
2153.000000	2.340078 
2152.000000	2.340269 
2151.000000	2.340435 
2150.000000	2.340579 
2149.000000	2.340626 
2148.000000	2.340602 
2147.000000	2.340459 
2146.000000	2.340269 
2145.000000	2.340030 
2144.000000	2.339768 
2143.000000	2.339529 
2142.000000	2.339291 
2141.000000	2.339053 
2140.000000	2.338886 
2139.000000	2.338790 
2138.000000	2.338743 
2137.000000	2.338814 
2136.000000	2.338957 
2135.000000	2.339196 
2134.000000	2.339482 
2133.000000	2.339744 
2132.000000	2.339982 
2131.000000	2.340078 
2130.000000	2.340102 
2129.000000	2.340006 
2128.000000	2.339839 
2127.000000	2.339720 
2126.000000	2.339696 
2125.000000	2.339792 
2124.000000	2.340078 
2123.000000	2.340531 
2122.000000	2.341055 
2121.000000	2.341628 
2120.000000	2.342081 
2119.000000	2.342438 
2118.000000	2.342629 
2117.000000	2.342629 
2116.000000	2.342581 
2115.000000	2.342534 
2114.000000	2.342557 
2113.000000	2.342700 
2112.000000	2.343010 
2111.000000	2.343511 
2110.000000	2.344059 
2109.000000	2.344655 
2108.000000	2.345228 
2107.000000	2.345681 
2106.000000	2.346014 
2105.000000	2.346253 
2104.000000	2.346348 
2103.000000	2.346420 
2102.000000	2.346420 
2101.000000	2.346420 
2100.000000	2.346420 
2099.000000	2.346372 
2098.000000	2.346324 
2097.000000	2.346205 
2096.000000	2.346062 
2095.000000	2.345848 
2094.000000	2.345609 
2093.000000	2.345371 
2092.000000	2.345180 
2091.000000	2.345085 
2090.000000	2.345108 
2089.000000	2.345204 
2088.000000	2.345442 
2087.000000	2.345776 
2086.000000	2.346158 
2085.000000	2.346611 
2084.000000	2.347183 
2083.000000	2.347850 
2082.000000	2.348637 
2081.000000	2.349638 
2080.000000	2.350854 
2079.000000	2.352237 
2078.000000	2.353811 
2077.000000	2.355527 
2076.000000	2.357316 
2075.000000	2.359175 
2074.000000	2.361035 
2073.000000	2.362871 
2072.000000	2.364730 
2071.000000	2.366614 
2070.000000	2.368521 
2069.000000	2.370500 
2068.000000	2.372550 
2067.000000	2.374672 
2066.000000	2.376866 
2065.000000	2.379155 
2064.000000	2.381443 
2063.000000	2.383732 
2062.000000	2.385973 
2061.000000	2.388215 
2060.000000	2.390384 
2059.000000	2.392530 
2058.000000	2.394676 
2057.000000	2.396798 
2056.000000	2.398896 
2055.000000	2.401018 
2054.000000	2.403235 
2053.000000	2.405476 
2052.000000	2.407765 
2051.000000	2.410125 
2050.000000	2.412486 
2049.000000	2.414870 
2048.000000	2.417206 
2047.000000	2.419447 
2046.000000	2.421545 
2045.000000	2.423524 
2044.000000	2.425336 
2043.000000	2.427005 
2042.000000	2.428555 
2041.000000	2.430009 
2040.000000	2.431416 
2039.000000	2.432799 
2038.000000	2.434158 
2037.000000	2.435541 
2036.000000	2.436947 
2035.000000	2.438330 
2034.000000	2.439689 
2033.000000	2.441072 
2032.000000	2.442455 
2031.000000	2.443790 
2030.000000	2.445125 
2029.000000	2.446413 
2028.000000	2.447652 
2027.000000	2.448797 
2026.000000	2.449846 
2025.000000	2.450823 
2024.000000	2.451658 
2023.000000	2.452397 
2022.000000	2.453017 
2021.000000	2.453565 
2020.000000	2.454042 
2019.000000	2.454543 
2018.000000	2.455019 
2017.000000	2.455568 
2016.000000	2.456188 
2015.000000	2.456855 
2014.000000	2.457594 
2013.000000	2.458357 
2012.000000	2.459168 
2011.000000	2.459931 
2010.000000	2.460670 
2009.000000	2.461361 
2008.000000	2.462005 
2007.000000	2.462553 
2006.000000	2.463006 
2005.000000	2.463412 
2004.000000	2.463722 
2003.000000	2.463960 
2002.000000	2.464103 
2001.000000	2.464246 
2000.000000	2.464365 
1999.000000	2.464437 
1998.000000	2.464532 
1997.000000	2.464628 
1996.000000	2.464795 
1995.000000	2.464962 
1994.000000	2.465128 
1993.000000	2.465319 
1992.000000	2.465438 
1991.000000	2.465510 
1990.000000	2.465486 
1989.000000	2.465343 
1988.000000	2.465057 
1987.000000	2.464604 
1986.000000	2.464008 
1985.000000	2.463316 
1984.000000	2.462482 
1983.000000	2.461528 
1982.000000	2.460527 
1981.000000	2.459430 
1980.000000	2.458262 
1979.000000	2.457070 
1978.000000	2.455830 
1977.000000	2.454566 
1976.000000	2.453303 
1975.000000	2.452063 
1974.000000	2.450871 
1973.000000	2.449774 
1972.000000	2.448773 
1971.000000	2.447915 
1970.000000	2.447128 
1969.000000	2.446436 
1968.000000	2.445793 
1967.000000	2.445149 
1966.000000	2.444481 
1965.000000	2.443790 
1964.000000	2.443051 
1963.000000	2.442288 
1962.000000	2.441525 
1961.000000	2.440738 
1960.000000	2.440023 
1959.000000	2.439332 
1958.000000	2.438688 
1957.000000	2.438044 
1956.000000	2.437400 
1955.000000	2.436733 
1954.000000	2.436041 
1953.000000	2.435278 
1952.000000	2.434444 
1951.000000	2.433490 
1950.000000	2.432465 
1949.000000	2.431392 
1948.000000	2.430248 
1947.000000	2.429103 
1946.000000	2.427983 
1945.000000	2.426910 
1944.000000	2.425861 
1943.000000	2.424860 
1942.000000	2.423882 
1941.000000	2.422904 
1940.000000	2.421951 
1939.000000	2.420926 
1938.000000	2.419877 
1937.000000	2.418756 
1936.000000	2.417564 
1935.000000	2.416372 
1934.000000	2.415204 
1933.000000	2.414107 
1932.000000	2.413082 
1931.000000	2.412152 
1930.000000	2.411270 
1929.000000	2.410387 
1928.000000	2.409505 
1927.000000	2.408552 
1926.000000	2.407526 
1925.000000	2.406430 
1924.000000	2.405285 
1923.000000	2.404093 
1922.000000	2.402949 
1921.000000	2.401876 
1920.000000	2.400875 
1919.000000	2.399969 
1918.000000	2.399158 
1917.000000	2.398419 
1916.000000	2.397656 
1915.000000	2.396821 
1914.000000	2.395892 
1913.000000	2.394795 
1912.000000	2.393531 
1911.000000	2.392101 
1910.000000	2.390599 
1909.000000	2.389097 
1908.000000	2.387619 
1907.000000	2.386283 
1906.000000	2.385139 
1905.000000	2.384161 
1904.000000	2.383399 
1903.000000	2.382779 
1902.000000	2.382302 
1901.000000	2.381849 
1900.000000	2.381372 
1899.000000	2.380871 
1898.000000	2.380347 
1897.000000	2.379751 
1896.000000	2.379155 
1895.000000	2.378559 
1894.000000	2.378010 
1893.000000	2.377557 
1892.000000	2.377247 
1891.000000	2.377033 
1890.000000	2.376961 
1889.000000	2.377033 
1888.000000	2.377247 
1887.000000	2.377581 
1886.000000	2.377986 
1885.000000	2.378416 
1884.000000	2.378869 
1883.000000	2.379298 
1882.000000	2.379751 
1881.000000	2.380156 
1880.000000	2.380537 
1879.000000	2.380943 
1878.000000	2.381300 
1877.000000	2.381658 
1876.000000	2.381968 
1875.000000	2.382254 
1874.000000	2.382540 
1873.000000	2.382802 
1872.000000	2.383065 
1871.000000	2.383399 
1870.000000	2.383804 
1869.000000	2.384400 
1868.000000	2.385163 
1867.000000	2.386069 
1866.000000	2.387094 
1865.000000	2.388167 
1864.000000	2.389287 
1863.000000	2.390336 
1862.000000	2.391362 
1861.000000	2.392315 
1860.000000	2.393221 
1859.000000	2.394056 
1858.000000	2.394914 
1857.000000	2.395725 
1856.000000	2.396535 
1855.000000	2.397298 
1854.000000	2.397990 
1853.000000	2.398586 
1852.000000	2.399015 
1851.000000	2.399325 
1850.000000	2.399539 
1849.000000	2.399706 
1848.000000	2.399897 
1847.000000	2.400231 
1846.000000	2.400779 
1845.000000	2.401566 
1844.000000	2.402663 
1843.000000	2.403974 
1842.000000	2.405452 
1841.000000	2.406930 
1840.000000	2.408361 
1839.000000	2.409672 
1838.000000	2.410769 
1837.000000	2.411651 
1836.000000	2.412295 
1835.000000	2.412772 
1834.000000	2.413129 
1833.000000	2.413463 
1832.000000	2.413821 
1831.000000	2.414226 
1830.000000	2.414798 
1829.000000	2.415513 
1828.000000	2.416372 
1827.000000	2.417421 
1826.000000	2.418589 
1825.000000	2.419877 
1824.000000	2.421259 
1823.000000	2.422738 
1822.000000	2.424192 
1821.000000	2.425599 
1820.000000	2.426981 
1819.000000	2.428197 
1818.000000	2.429294 
1817.000000	2.430200 
1816.000000	2.431011 
1815.000000	2.431631 
1814.000000	2.432203 
1813.000000	2.432656 
1812.000000	2.433061 
1811.000000	2.433371 
1810.000000	2.433681 
1809.000000	2.433896 
1808.000000	2.434062 
1807.000000	2.434229 
1806.000000	2.434349 
1805.000000	2.434444 
1804.000000	2.434539 
1803.000000	2.434682 
1802.000000	2.434802 
1801.000000	2.434897 
1800.000000	2.434968 
1799.000000	2.434945 
1798.000000	2.434849 
1797.000000	2.434682 
1796.000000	2.434444 
1795.000000	2.434229 
1794.000000	2.434086 
1793.000000	2.434062 
1792.000000	2.434158 
1791.000000	2.434396 
1790.000000	2.434659 
1789.000000	2.434873 
1788.000000	2.435016 
1787.000000	2.434945 
1786.000000	2.434706 
1785.000000	2.434301 
1784.000000	2.433753 
1783.000000	2.433061 
1782.000000	2.432274 
1781.000000	2.431344 
1780.000000	2.430248 
1779.000000	2.428936 
1778.000000	2.427339 
1777.000000	2.425551 
1776.000000	2.423644 
1775.000000	2.421784 
1774.000000	2.420139 
1773.000000	2.418875 
1772.000000	2.418088 
1771.000000	2.417874 
1770.000000	2.418160 
1769.000000	2.418732 
1768.000000	2.419400 
1767.000000	2.419948 
1766.000000	2.420210 
1765.000000	2.420115 
1764.000000	2.419590 
1763.000000	2.418684 
1762.000000	2.417445 
1761.000000	2.415943 
1760.000000	2.414202 
1759.000000	2.412247 
1758.000000	2.409982 
1757.000000	2.407503 
1756.000000	2.404737 
1755.000000	2.401685 
1754.000000	2.398467 
1753.000000	2.395129 
1752.000000	2.391839 
1751.000000	2.388644 
1750.000000	2.385592 
1749.000000	2.382636 
1748.000000	2.379751 
1747.000000	2.376866 
1746.000000	2.373766 
1745.000000	2.370405 
1744.000000	2.366685 
1743.000000	2.362608 
1742.000000	2.358150 
1741.000000	2.353477 
1740.000000	2.348637 
1739.000000	2.343845 
1738.000000	2.339315 
1737.000000	2.335262 
1736.000000	2.331852 
1735.000000	2.329325 
1734.000000	2.327680 
1733.000000	2.326965 
1732.000000	2.327060 
1731.000000	2.327775 
1730.000000	2.328824 
1729.000000	2.329945 
1728.000000	2.330780 
1727.000000	2.331042 
1726.000000	2.330541 
1725.000000	2.329206 
1724.000000	2.327036 
1723.000000	2.324080 
1722.000000	2.320599 
1721.000000	2.316904 
1720.000000	2.313280 
1719.000000	2.310037 
1718.000000	2.307462 
1717.000000	2.305626 
1716.000000	2.304530 
1715.000000	2.304053 
1714.000000	2.304005 
1713.000000	2.304053 
1712.000000	2.303862 
1711.000000	2.303147 
1710.000000	2.301788 
1709.000000	2.299571 
1708.000000	2.296590 
1707.000000	2.292847 
1706.000000	2.288508 
1705.000000	2.283716 
1704.000000	2.278661 
1703.000000	2.273607 
1702.000000	2.268815 
1701.000000	2.264475 
1700.000000	2.260947 
1699.000000	2.258372 
1698.000000	2.256941 
1697.000000	2.256608 
1696.000000	2.257227 
1695.000000	2.258443 
1694.000000	2.259874 
1693.000000	2.260994 
1692.000000	2.261447 
1691.000000	2.260899 
1690.000000	2.259278 
1689.000000	2.256727 
1688.000000	2.253532 
1687.000000	2.250123 
1686.000000	2.247047 
1685.000000	2.244591 
1684.000000	2.242994 
1683.000000	2.242207 
1682.000000	2.242088 
1681.000000	2.242326 
1680.000000	2.242517 
1679.000000	2.242350 
1678.000000	2.241587 
1677.000000	2.240204 
1676.000000	2.238273 
1675.000000	2.235984 
1674.000000	2.233576 
1673.000000	2.231264 
1672.000000	2.229166 
1671.000000	2.227401 
1670.000000	2.225875 
1669.000000	2.224540 
1668.000000	2.223348 
1667.000000	2.222156 
1666.000000	2.220964 
1665.000000	2.219605 
1664.000000	2.217960 
1663.000000	2.215981 
1662.000000	2.213430 
1661.000000	2.210235 
1660.000000	2.206254 
1659.000000	2.201461 
1658.000000	2.196002 
1657.000000	2.190208 
1656.000000	2.184414 
1655.000000	2.179026 
1654.000000	2.174425 
1653.000000	2.170920 
1652.000000	2.168512 
1651.000000	2.167177 
1650.000000	2.166724 
1649.000000	2.166867 
1648.000000	2.167272 
1647.000000	2.167654 
1646.000000	2.167892 
1645.000000	2.167677 
1644.000000	2.166986 
1643.000000	2.165699 
1642.000000	2.163887 
1641.000000	2.161502 
1640.000000	2.158641 
1639.000000	2.155494 
1638.000000	2.152228 
1637.000000	2.149057 
1636.000000	2.146172 
1635.000000	2.143716 
1634.000000	2.141714 
1633.000000	2.140021 
1632.000000	2.138495 
1631.000000	2.136945 
1630.000000	2.135086 
1629.000000	2.132797 
1628.000000	2.129936 
1627.000000	2.126431 
1626.000000	2.122259 
1625.000000	2.117395 
1624.000000	2.111887 
1623.000000	2.105617 
1622.000000	2.098679 
1621.000000	2.091026 
1620.000000	2.082657 
1619.000000	2.073693 
1618.000000	2.064156 
1617.000000	2.054262 
1616.000000	2.044034 
1615.000000	2.033734 
1614.000000	2.023530 
1613.000000	2.013635 
1612.000000	2.004337 
1611.000000	1.995992 
1610.000000	1.988863 
1609.000000	1.983261 
1608.000000	1.979446 
1607.000000	1.977491 
1606.000000	1.977419 
1605.000000	1.978993 
1604.000000	1.981973 
1603.000000	1.986002 
1602.000000	1.990652 
1601.000000	1.995563 
1600.000000	2.000403 
1599.000000	2.004933 
1598.000000	2.008986 
1597.000000	2.012419 
1596.000000	2.015185 
1595.000000	2.017331 
1594.000000	2.018809 
1593.000000	2.019739 
1592.000000	2.020072 
1591.000000	2.020049 
1590.000000	2.019643 
1589.000000	2.018976 
1588.000000	2.018022 
1587.000000	2.016806 
1586.000000	2.015280 
1585.000000	2.013397 
1584.000000	2.011060 
1583.000000	2.008390 
1582.000000	2.005362 
1581.000000	2.002120 
1580.000000	1.998829 
1579.000000	1.995730 
1578.000000	1.992964 
1577.000000	1.990675 
1576.000000	1.988959 
1575.000000	1.987695 
1574.000000	1.986861 
1573.000000	1.986265 
1572.000000	1.985716 
1571.000000	1.984977 
1570.000000	1.983737 
1569.000000	1.981878 
1568.000000	1.979136 
1567.000000	1.975440 
1566.000000	1.970696 
1565.000000	1.965093 
1564.000000	1.958799 
1563.000000	1.952266 
1562.000000	1.945996 
1561.000000	1.940512 
1560.000000	1.936364 
1559.000000	1.933956 
1558.000000	1.933455 
1557.000000	1.934862 
1556.000000	1.937913 
1555.000000	1.942110 
1554.000000	1.946878 
1553.000000	1.951646 
1552.000000	1.955986 
1551.000000	1.959371 
1550.000000	1.961660 
1549.000000	1.962828 
1548.000000	1.963019 
1547.000000	1.962590 
1546.000000	1.961946 
1545.000000	1.961708 
1544.000000	1.962494 
1543.000000	1.964855 
1542.000000	1.969242 
1541.000000	1.975917 
1540.000000	1.984906 
1539.000000	1.995992 
1538.000000	2.008771 
1537.000000	2.022624 
1536.000000	2.036905 
1535.000000	2.050948 
1534.000000	2.064275 
1533.000000	2.076339 
1532.000000	2.086806 
1531.000000	2.095675 
1530.000000	2.102828 
1529.000000	2.108311 
1528.000000	2.112174 
1527.000000	2.114677 
1526.000000	2.116012 
1525.000000	2.116394 
1524.000000	2.116036 
1523.000000	2.115178 
1522.000000	2.114057 
1521.000000	2.112770 
1520.000000	2.111434 
1519.000000	2.110028 
1518.000000	2.108573 
1517.000000	2.107024 
1516.000000	2.105283 
1515.000000	2.103137 
1514.000000	2.100491 
1513.000000	2.097225 
1512.000000	2.093219 
1511.000000	2.088308 
1510.000000	2.082395 
1509.000000	2.075076 
1508.000000	2.066016 
1507.000000	2.054476 
1506.000000	2.039742 
1505.000000	2.020931 
1504.000000	1.997280 
1503.000000	1.968336 
1502.000000	1.934146 
1501.000000	1.895427 
1500.000000	1.853656 
1499.000000	1.811003 
1498.000000	1.770091 
1497.000000	1.733660 
1496.000000	1.704335 
1495.000000	1.684188 
1494.000000	1.674389 
1493.000000	1.675152 
1492.000000	1.685857 
1491.000000	1.705026 
1490.000000	1.730656 
1489.000000	1.760387 
1488.000000	1.792168 
1487.000000	1.823878 
1486.000000	1.853990 
1485.000000	1.881289 
1484.000000	1.905155 
1483.000000	1.925230 
1482.000000	1.941514 
1481.000000	1.954197 
1480.000000	1.963639 
1479.000000	1.970338 
1478.000000	1.974797 
1477.000000	1.977515 
1476.000000	1.978826 
1475.000000	1.979255 
1474.000000	1.979041 
1473.000000	1.978349 
1472.000000	1.977157 
1471.000000	1.975607 
1470.000000	1.973509 
1469.000000	1.970744 
1468.000000	1.967048 
1467.000000	1.962304 
1466.000000	1.956367 
1465.000000	1.948809 
1464.000000	1.939463 
1463.000000	1.928162 
1462.000000	1.914858 
1461.000000	1.899552 
1460.000000	1.882386 
1459.000000	1.863813 
1458.000000	1.844453 
1457.000000	1.825165 
1456.000000	1.806902 
1455.000000	1.790690 
1454.000000	1.777458 
1453.000000	1.768159 
1452.000000	1.763224 
1451.000000	1.762890 
1450.000000	1.766920 
1449.000000	1.774740 
1448.000000	1.785373 
1447.000000	1.797771 
1446.000000	1.810741 
1445.000000	1.823282 
1444.000000	1.834511 
1443.000000	1.843881 
1442.000000	1.851248 
1441.000000	1.856732 
1440.000000	1.860594 
1439.000000	1.863265 
1438.000000	1.865148 
1437.000000	1.866650 
1436.000000	1.867961 
1435.000000	1.869273 
1434.000000	1.870489 
1433.000000	1.871657 
1432.000000	1.872634 
1431.000000	1.873350 
1430.000000	1.873660 
1429.000000	1.873636 
1428.000000	1.873230 
1427.000000	1.872324 
1426.000000	1.870989 
1425.000000	1.869225 
1424.000000	1.867127 
1423.000000	1.864695 
1422.000000	1.862049 
1421.000000	1.859259 
1420.000000	1.856422 
1419.000000	1.853537 
1418.000000	1.850509 
1417.000000	1.847195 
1416.000000	1.843309 
1415.000000	1.838541 
1414.000000	1.832580 
1413.000000	1.825141 
1412.000000	1.816058 
1411.000000	1.805400 
1410.000000	1.793432 
1409.000000	1.780652 
1408.000000	1.767611 
1407.000000	1.755213 
1406.000000	1.744174 
1405.000000	1.735305 
1404.000000	1.729083 
1403.000000	1.725912 
1402.000000	1.725745 
1401.000000	1.728391 
1400.000000	1.733446 
1399.000000	1.740336 
1398.000000	1.748394 
1397.000000	1.757025 
1396.000000	1.765537 
1395.000000	1.773452 
1394.000000	1.780343 
1393.000000	1.785850 
1392.000000	1.789784 
1391.000000	1.792097 
1390.000000	1.792931 
1389.000000	1.792573 
1388.000000	1.791429 
1387.000000	1.789975 
1386.000000	1.788711 
1385.000000	1.788091 
1384.000000	1.788377 
1383.000000	1.789689 
1382.000000	1.791954 
1381.000000	1.794958 
1380.000000	1.798391 
1379.000000	1.801872 
1378.000000	1.805186 
1377.000000	1.808142 
1376.000000	1.810574 
1375.000000	1.812553 
1374.000000	1.814126 
1373.000000	1.815390 
1372.000000	1.816415 
1371.000000	1.817274 
1370.000000	1.818013 
1369.000000	1.818609 
1368.000000	1.819109 
1367.000000	1.819467 
1366.000000	1.819682 
1365.000000	1.819777 
1364.000000	1.819801 
1363.000000	1.819777 
1362.000000	1.819729 
1361.000000	1.819658 
1360.000000	1.819586 
1359.000000	1.819491 
1358.000000	1.819348 
1357.000000	1.819109 
1356.000000	1.818799 
1355.000000	1.818346 
1354.000000	1.817774 
1353.000000	1.817083 
1352.000000	1.816344 
1351.000000	1.815557 
1350.000000	1.814818 
1349.000000	1.814174 
1348.000000	1.813626 
1347.000000	1.813244 
1346.000000	1.813030 
1345.000000	1.813054 
1344.000000	1.813268 
1343.000000	1.813840 
1342.000000	1.814770 
1341.000000	1.816082 
1340.000000	1.817798 
1339.000000	1.819920 
1338.000000	1.822400 
1337.000000	1.825141 
1336.000000	1.828026 
1335.000000	1.830935 
1334.000000	1.833820 
1333.000000	1.836514 
1332.000000	1.838994 
1331.000000	1.841163 
1330.000000	1.843094 
1329.000000	1.844763 
1328.000000	1.846146 
1327.000000	1.847362 
1326.000000	1.848387 
1325.000000	1.849341 
1324.000000	1.850199 
1323.000000	1.851058 
1322.000000	1.851868 
1321.000000	1.852631 
1320.000000	1.853346 
1319.000000	1.854014 
1318.000000	1.854586 
1317.000000	1.855039 
1316.000000	1.855349 
1315.000000	1.855540 
1314.000000	1.855659 
1313.000000	1.855731 
1312.000000	1.855802 
1311.000000	1.855874 
1310.000000	1.856040 
1309.000000	1.856231 
1308.000000	1.856446 
1307.000000	1.856613 
1306.000000	1.856732 
1305.000000	1.856756 
1304.000000	1.856637 
1303.000000	1.856493 
1302.000000	1.856303 
1301.000000	1.856088 
1300.000000	1.855945 
1299.000000	1.855874 
1298.000000	1.855969 
1297.000000	1.856112 
1296.000000	1.856374 
1295.000000	1.856684 
1294.000000	1.856994 
1293.000000	1.857256 
1292.000000	1.857399 
1291.000000	1.857376 
1290.000000	1.857185 
1289.000000	1.856827 
1288.000000	1.856327 
1287.000000	1.855659 
1286.000000	1.854872 
1285.000000	1.854014 
1284.000000	1.853013 
1283.000000	1.851892 
1282.000000	1.850628 
1281.000000	1.849150 
1280.000000	1.847338 
1279.000000	1.845097 
1278.000000	1.842284 
1277.000000	1.838827 
1276.000000	1.834535 
1275.000000	1.829290 
1274.000000	1.823019 
1273.000000	1.815605 
1272.000000	1.807022 
1271.000000	1.797318 
1270.000000	1.786637 
1269.000000	1.775240 
1268.000000	1.763534 
1267.000000	1.752066 
1266.000000	1.741385 
1265.000000	1.732134 
1264.000000	1.724982 
1263.000000	1.720356 
1262.000000	1.718640 
1261.000000	1.719903 
1260.000000	1.724123 
1259.000000	1.730918 
1258.000000	1.739811 
1257.000000	1.750159 
1256.000000	1.761341 
1255.000000	1.772689 
1254.000000	1.783657 
1253.000000	1.793766 
1252.000000	1.802778 
1251.000000	1.810550 
1250.000000	1.816964 
1249.000000	1.822090 
1248.000000	1.826095 
1247.000000	1.829123 
1246.000000	1.831364 
1245.000000	1.832938 
1244.000000	1.834082 
1243.000000	1.834869 
1242.000000	1.835393 
1241.000000	1.835751 
1240.000000	1.835894 
1239.000000	1.835870 
1238.000000	1.835656 
1237.000000	1.835203 
1236.000000	1.834559 
1235.000000	1.833724 
1234.000000	1.832747 
1233.000000	1.831626 
1232.000000	1.830387 
1231.000000	1.829051 
1230.000000	1.827669 
1229.000000	1.826095 
1228.000000	1.824331 
1227.000000	1.822280 
1226.000000	1.819896 
1225.000000	1.817202 
1224.000000	1.814126 
1223.000000	1.810717 
1222.000000	1.806950 
1221.000000	1.802873 
1220.000000	1.798486 
1219.000000	1.793837 
1218.000000	1.788902 
1217.000000	1.783776 
1216.000000	1.778507 
1215.000000	1.773166 
1214.000000	1.767969 
1213.000000	1.763081 
1212.000000	1.758623 
1211.000000	1.754760 
1210.000000	1.751589 
1209.000000	1.749134 
1208.000000	1.747393 
1207.000000	1.746249 
1206.000000	1.745629 
1205.000000	1.745343 
1204.000000	1.745295 
1203.000000	1.745438 
1202.000000	1.745629 
1201.000000	1.745796 
1200.000000	1.745915 
1199.000000	1.745939 
1198.000000	1.745820 
1197.000000	1.745510 
1196.000000	1.744985 
1195.000000	1.744246 
1194.000000	1.743268 
1193.000000	1.742029 
1192.000000	1.740598 
1191.000000	1.738882 
1190.000000	1.737022 
1189.000000	1.734948 
1188.000000	1.732683 
1187.000000	1.730227 
1186.000000	1.727652 
1185.000000	1.724934 
1184.000000	1.722168 
1183.000000	1.719307 
1182.000000	1.716446 
1181.000000	1.713585 
1180.000000	1.710820 
1179.000000	1.708054 
1178.000000	1.705288 
1177.000000	1.702547 
1176.000000	1.699709 
1175.000000	1.696753 
1174.000000	1.693654 
1173.000000	1.690316 
1172.000000	1.686644 
1171.000000	1.682686 
1170.000000	1.678419 
1169.000000	1.673841 
1168.000000	1.669049 
1167.000000	1.664018 
1166.000000	1.658797 
1165.000000	1.653504 
1164.000000	1.648235 
1163.000000	1.643061 
1162.000000	1.638102 
1161.000000	1.633477 
1160.000000	1.629304 
1159.000000	1.625609 
1158.000000	1.622438 
1157.000000	1.619839 
1156.000000	1.617717 
1155.000000	1.616048 
1154.000000	1.614713 
1153.000000	1.613616 
1152.000000	1.612663 
1151.000000	1.611733 
1150.000000	1.610708 
1149.000000	1.609539 
1148.000000	1.608133 
1147.000000	1.606464 
1146.000000	1.604557 
1145.000000	1.602411 
1144.000000	1.600027 
1143.000000	1.597499 
1142.000000	1.594805 
1141.000000	1.591968 
1140.000000	1.589083 
1139.000000	1.586008 
1138.000000	1.582837 
1137.000000	1.579475 
1136.000000	1.575899 
1135.000000	1.572132 
1134.000000	1.568102 
1133.000000	1.563858 
1132.000000	1.559400 
1131.000000	1.554799 
1130.000000	1.550102 
1129.000000	1.545333 
1128.000000	1.540541 
1127.000000	1.535820 
1126.000000	1.531052 
1125.000000	1.526308 
1124.000000	1.521515 
1123.000000	1.516675 
1122.000000	1.511764 
1121.000000	1.506710 
1120.000000	1.501584 
1119.000000	1.496315 
1118.000000	1.491022 
1117.000000	1.485681 
1116.000000	1.480364 
1115.000000	1.475048 
1114.000000	1.469874 
1113.000000	1.464843 
1112.000000	1.460051 
1111.000000	1.455521 
1110.000000	1.451301 
1109.000000	1.447439 
1108.000000	1.443934 
1107.000000	1.440787 
1106.000000	1.438021 
1105.000000	1.435589 
1104.000000	1.433515 
1103.000000	1.431679 
1102.000000	1.430153 
1101.000000	1.428866 
1100.000000	1.427817 
1099.000000	1.426935 
1098.000000	1.426267 
1097.000000	1.425790 
1096.000000	1.425552 
1095.000000	1.425528 
1094.000000	1.425743 
1093.000000	1.426172 
1092.000000	1.426815 
1091.000000	1.427626 
1090.000000	1.428532 
1089.000000	1.429462 
1088.000000	1.430273 
1087.000000	1.430892 
1086.000000	1.431250 
1085.000000	1.431250 
1084.000000	1.430940 
1083.000000	1.430320 
1082.000000	1.429629 
1081.000000	1.428914 
1080.000000	1.428318 
1079.000000	1.428031 
1078.000000	1.428127 
1077.000000	1.428699 
1076.000000	1.429700 
1075.000000	1.431012 
1074.000000	1.432514 
1073.000000	1.434111 
1072.000000	1.435589 
1071.000000	1.436877 
1070.000000	1.437830 
1069.000000	1.438450 
1068.000000	1.438784 
1067.000000	1.438760 
1066.000000	1.438379 
1065.000000	1.437592 
1064.000000	1.436233 
1063.000000	1.434063 
1062.000000	1.430821 
1061.000000	1.426076 
1060.000000	1.419448 
1059.000000	1.410579 
1058.000000	1.399374 
1057.000000	1.385927 
1056.000000	1.370787 
1055.000000	1.354742 
1054.000000	1.338839 
1053.000000	1.324486 
1052.000000	1.312828 
1051.000000	1.304888 
1050.000000	1.301312 
1049.000000	1.302194 
1048.000000	1.307249 
1047.000000	1.315641 
1046.000000	1.326274 
1045.000000	1.337933 
1044.000000	1.349520 
1043.000000	1.360106 
1042.000000	1.369118 
1041.000000	1.376247 
1040.000000	1.381444 
1039.000000	1.384878 
1038.000000	1.386833 
1037.000000	1.387524 
1036.000000	1.387262 
1035.000000	1.386237 
1034.000000	1.384663 
1033.000000	1.382660 
1032.000000	1.380348 
1031.000000	1.377773 
1030.000000	1.375126 
1029.000000	1.372432 
1028.000000	1.369857 
1027.000000	1.367425 
1026.000000	1.365280 
1025.000000	1.363396 
1024.000000	1.362013 
1023.000000	1.361036 
1022.000000	1.360654 
1021.000000	1.360774 
1020.000000	1.361417 
1019.000000	1.362586 
1018.000000	1.364207 
1017.000000	1.366209 
1016.000000	1.368451 
1015.000000	1.370835 
1014.000000	1.373314 
1013.000000	1.375842 
1012.000000	1.378369 
1011.000000	1.380801 
1010.000000	1.383161 
1009.000000	1.385498 
1008.000000	1.387786 
1007.000000	1.389980 
1006.000000	1.392102 
1005.000000	1.394128 
1004.000000	1.395988 
1003.000000	1.397609 
1002.000000	1.398992 
1001.000000	1.400089 
1000.000000	1.400876 
999.000000	 1.401400 
998.000000	 1.401638 
997.000000	 1.401591 
996.000000	 1.401329 
995.000000	 1.400828 
994.000000	 1.400136 
993.000000	 1.399230 
992.000000	 1.398086 
991.000000	 1.396751 
990.000000	 1.395201 
989.000000	 1.393485 
988.000000	 1.391553 
987.000000	 1.389575 
986.000000	 1.387500 
985.000000	 1.385426 
984.000000	 1.383376 
983.000000	 1.381373 
982.000000	 1.379513 
981.000000	 1.377654 
980.000000	 1.375842 
979.000000	 1.374030 
978.000000	 1.372170 
977.000000	 1.370191 
976.000000	 1.368045 
975.000000	 1.365756 
974.000000	 1.363229 
973.000000	 1.360487 
972.000000	 1.357603 
971.000000	 1.354527 
970.000000	 1.351332 
969.000000	 1.348042 
968.000000	 1.344704 
967.000000	 1.341295 
966.000000	 1.337885 
965.000000	 1.334476 
964.000000	 1.331067 
963.000000	 1.327610 
962.000000	 1.324176 
961.000000	 1.320695 
960.000000	 1.317143 
959.000000	 1.313543 
958.000000	 1.309895 
957.000000	 1.306200 
956.000000	 1.302504 
955.000000	 1.298832 
954.000000	 1.295161 
953.000000	 1.291632 
952.000000	 1.288223 
951.000000	 1.284956 
950.000000	 1.281881 
949.000000	 1.278996 
948.000000	 1.276373 
947.000000	 1.273965 
946.000000	 1.271772 
945.000000	 1.269769 
944.000000	 1.267910 
943.000000	 1.266241 
942.000000	 1.264572 
941.000000	 1.262950 
940.000000	 1.261258 
939.000000	 1.259446 
938.000000	 1.257538 
937.000000	 1.255488 
936.000000	 1.253318 
935.000000	 1.251053 
934.000000	 1.248693 
933.000000	 1.246309 
932.000000	 1.243925 
931.000000	 1.241517 
930.000000	 1.239204 
929.000000	 1.236963 
928.000000	 1.234745 
927.000000	 1.232576 
926.000000	 1.230406 
925.000000	 1.228189 
924.000000	 1.225876 
923.000000	 1.223468 
922.000000	 1.220822 
921.000000	 1.218032 
920.000000	 1.215004 
919.000000	 1.211786 
918.000000	 1.208353 
917.000000	 1.204705 
916.000000	 1.200938 
915.000000	 1.197028 
914.000000	 1.193046 
913.000000	 1.189064 
912.000000	 1.185107 
911.000000	 1.181268 
910.000000	 1.177644 
909.000000	 1.174235 
908.000000	 1.171088 
907.000000	 1.168203 
906.000000	 1.165556 
905.000000	 1.163172 
904.000000	 1.161003 
903.000000	 1.159048 
902.000000	 1.157283 
901.000000	 1.155662 
900.000000	 1.154160 
899.000000	 1.152777 
898.000000	 1.151347 
897.000000	 1.149916 
896.000000	 1.148414 
895.000000	 1.146697 
894.000000	 1.144695 
893.000000	 1.142287 
892.000000	 1.139354 
891.000000	 1.135849 
890.000000	 1.131558 
889.000000	 1.126456 
888.000000	 1.120448 
887.000000	 1.113557 
886.000000	 1.105761 
885.000000	 1.097249 
884.000000	 1.088142 
883.000000	 1.078748 
882.000000	 1.069331 
881.000000	 1.060199 
880.000000	 1.051783 
879.000000	 1.044392 
878.000000	 1.038336 
877.000000	 1.033926 
876.000000	 1.031255 
875.000000	 1.030373 
874.000000	 1.031351 
873.000000	 1.033973 
872.000000	 1.038050 
871.000000	 1.043224 
870.000000	 1.049184 
869.000000	 1.055598 
868.000000	 1.062059 
867.000000	 1.068329 
866.000000	 1.074147 
865.000000	 1.079297 
864.000000	 1.083731 
863.000000	 1.087403 
862.000000	 1.090264 
861.000000	 1.092290 
860.000000	 1.093530 
859.000000	 1.094126 
858.000000	 1.094055 
857.000000	 1.093459 
856.000000	 1.092481 
855.000000	 1.091194 
854.000000	 1.089739 
853.000000	 1.088190 
852.000000	 1.086711 
851.000000	 1.085257 
850.000000	 1.083898 
849.000000	 1.082658 
848.000000	 1.081442 
847.000000	 1.080179 
846.000000	 1.078796 
845.000000	 1.077246 
844.000000	 1.075363 
843.000000	 1.073026 
842.000000	 1.070141 
841.000000	 1.066446 
840.000000	 1.061773 
839.000000	 1.055836 
838.000000	 1.048398 
837.000000	 1.039195 
836.000000	 1.028013 
835.000000	 1.014733 
834.000000	 0.999283 
833.000000	 0.981855 
832.000000	 0.962758 
831.000000	 0.942564 
830.000000	 0.922060 
829.000000	 0.902152 
828.000000	 0.883960 
827.000000	 0.868415 
826.000000	 0.856471 
825.000000	 0.848722 
824.000000	 0.845551 
823.000000	 0.846838 
822.000000	 0.852108 
821.000000	 0.860619 
820.000000	 0.871419 
819.000000	 0.883483 
818.000000	 0.895762 
817.000000	 0.907444 
816.000000	 0.917887 
815.000000	 0.926756 
814.000000	 0.933837 
813.000000	 0.939226 
812.000000	 0.943088 
811.000000	 0.945615 
810.000000	 0.947117 
809.000000	 0.947737 
808.000000	 0.947761 
807.000000	 0.947356 
806.000000	 0.946688 
805.000000	 0.945830 
804.000000	 0.944948 
803.000000	 0.944209 
802.000000	 0.943660 
801.000000	 0.943398 
800.000000	 0.943493 
799.000000	 0.944042 
798.000000	 0.944995 
797.000000	 0.946402 
796.000000	 0.948190 
795.000000	 0.950431 
794.000000	 0.952982 
793.000000	 0.955796 
792.000000	 0.958728 
791.000000	 0.961732 
790.000000	 0.964713 
789.000000	 0.967574 
788.000000	 0.970149 
787.000000	 0.972461 
786.000000	 0.974464 
785.000000	 0.976133 
784.000000	 0.977516 
783.000000	 0.978589 
782.000000	 0.979399 
781.000000	 0.980019 
780.000000	 0.980401 
779.000000	 0.980567 
778.000000	 0.980520 
777.000000	 0.980234 
776.000000	 0.979709 
775.000000	 0.979018 
774.000000	 0.978136 
773.000000	 0.977134 
772.000000	 0.976037 
771.000000	 0.974917 
770.000000	 0.973844 
769.000000	 0.972819 
768.000000	 0.971889 
767.000000	 0.971055 
766.000000	 0.970268 
765.000000	 0.969529 
764.000000	 0.968742 
763.000000	 0.967955 
762.000000	 0.967097 
761.000000	 0.966143 
760.000000	 0.965118 
759.000000	 0.964021 
758.000000	 0.962924 
757.000000	 0.961780 
756.000000	 0.960659 
755.000000	 0.959563 
754.000000	 0.958418 
753.000000	 0.957226 
752.000000	 0.955939 
751.000000	 0.954580 
750.000000	 0.953102 
749.000000	 0.951504 
748.000000	 0.949811 
747.000000	 0.948119 
746.000000	 0.946354 
745.000000	 0.944614 
744.000000	 0.942873 
743.000000	 0.941085 
742.000000	 0.939249 
741.000000	 0.937271 
740.000000	 0.935149 
739.000000	 0.932884 
738.000000	 0.930452 
737.000000	 0.927829 
736.000000	 0.925087 
735.000000	 0.922226 
734.000000	 0.919342 
733.000000	 0.916409 
732.000000	 0.913500 
731.000000	 0.910639 
730.000000	 0.907802 
729.000000	 0.904989 
728.000000	 0.902175 
727.000000	 0.899434 
726.000000	 0.896692 
725.000000	 0.893950 
724.000000	 0.891208 
723.000000	 0.888514 
722.000000	 0.885796 
721.000000	 0.883007 
720.000000	 0.880217 
719.000000	 0.877404 
718.000000	 0.874543 
717.000000	 0.871634 
716.000000	 0.868725 
715.000000	 0.865793 
714.000000	 0.862860 
713.000000	 0.859928 
712.000000	 0.857019 
711.000000	 0.854086 
710.000000	 0.851106 
709.000000	 0.848007 
708.000000	 0.844860 
707.000000	 0.841522 
706.000000	 0.838041 
705.000000	 0.834417 
704.000000	 0.830650 
703.000000	 0.826764 
702.000000	 0.822710 
701.000000	 0.818467 
700.000000	 0.814008 
699.000000	 0.809192 
698.000000	 0.803923 
697.000000	 0.798082 
696.000000	 0.791597 
695.000000	 0.784420 
694.000000	 0.776624 
693.000000	 0.768494 
692.000000	 0.760340 
691.000000	 0.752520 
690.000000	 0.745463 
689.000000	 0.739526 
688.000000	 0.734996 
687.000000	 0.731945 
686.000000	 0.730299 
685.000000	 0.729894 
684.000000	 0.730371 
683.000000	 0.731348 
682.000000	 0.732493 
681.000000	 0.733542 
680.000000	 0.734233 
679.000000	 0.734543 
678.000000	 0.734376 
677.000000	 0.733757 
676.000000	 0.732755 
675.000000	 0.731444 
674.000000	 0.729846 
673.000000	 0.728058 
672.000000	 0.726079 
671.000000	 0.723958 
670.000000	 0.721740 
669.000000	 0.719428 
668.000000	 0.717091 
667.000000	 0.714731 
666.000000	 0.712323 
665.000000	 0.709891 
664.000000	 0.707435 
663.000000	 0.704956 
662.000000	 0.702452 
661.000000	 0.699925 
660.000000	 0.697422 
659.000000	 0.694942 
658.000000	 0.692462 
657.000000	 0.690007 
656.000000	 0.687551 
655.000000	 0.685119 
654.000000	 0.682616 
653.000000	 0.680041 
652.000000	 0.677418 
651.000000	 0.674724 
650.000000	 0.671982 
649.000000	 0.669217 
648.000000	 0.666427 
647.000000	 0.663614 
646.000000	 0.660800 
645.000000	 0.658011 
644.000000	 0.655245 
643.000000	 0.652503 
642.000000	 0.649738 
641.000000	 0.646972 
640.000000	 0.644230 
639.000000	 0.641465 
638.000000	 0.638699 
637.000000	 0.635957 
636.000000	 0.633215 
635.000000	 0.630521 
634.000000	 0.627875 
633.000000	 0.625300 
632.000000	 0.622820 
631.000000	 0.620365 
630.000000	 0.617980 
629.000000	 0.615620 
628.000000	 0.613307 
627.000000	 0.611019 
626.000000	 0.608682 
625.000000	 0.606369 
624.000000	 0.604009 
623.000000	 0.601553 
622.000000	 0.599002 
621.000000	 0.596261 
620.000000	 0.593280 
619.000000	 0.590014 
618.000000	 0.586462 
617.000000	 0.582480 
616.000000	 0.578093 
615.000000	 0.573325 
614.000000	 0.568175 
613.000000	 0.562715 
612.000000	 0.557065 
611.000000	 0.551462 
610.000000	 0.546002 
609.000000	 0.540971 
608.000000	 0.536489 
607.000000	 0.532746 
606.000000	 0.529789 
605.000000	 0.527620 
604.000000	 0.526189 
603.000000	 0.525307 
602.000000	 0.524878 
601.000000	 0.524616 
600.000000	 0.524377 
599.000000	 0.524044 
598.000000	 0.523614 
597.000000	 0.522947 
596.000000	 0.522089 
595.000000	 0.521111 
594.000000	 0.520038 
593.000000	 0.518918 
592.000000	 0.517821 
591.000000	 0.516819 
590.000000	 0.515913 
589.000000	 0.515127 
588.000000	 0.514388 
587.000000	 0.513768 
586.000000	 0.513195 
585.000000	 0.512599 
584.000000	 0.511980 
583.000000	 0.511312 
582.000000	 0.510621 
581.000000	 0.509881 
580.000000	 0.509166 
579.000000	 0.508522 
578.000000	 0.507974 
577.000000	 0.507569 
576.000000	 0.507235 
575.000000	 0.506901 
574.000000	 0.506448 
573.000000	 0.505733 
572.000000	 0.504636 
571.000000	 0.503158 
570.000000	 0.501203 
569.000000	 0.498819 
568.000000	 0.496149 
567.000000	 0.493288 
566.000000	 0.490427 
565.000000	 0.487685 
564.000000	 0.485181 
563.000000	 0.482988 
562.000000	 0.481104 
561.000000	 0.479531 
560.000000	 0.478124 
559.000000	 0.476861 
558.000000	 0.475645 
557.000000	 0.474429 
556.000000	 0.473093 
555.000000	 0.471711 
554.000000	 0.470209 
553.000000	 0.468635 
552.000000	 0.466918 
551.000000	 0.465178 
550.000000	 0.463366 
549.000000	 0.461506 
548.000000	 0.459504 
547.000000	 0.457382 
546.000000	 0.455141 
545.000000	 0.452733 
544.000000	 0.450205 
543.000000	 0.447630 
542.000000	 0.444960 
541.000000	 0.442361 
540.000000	 0.439906 
539.000000	 0.437712 
538.000000	 0.435853 
537.000000	 0.434303 
536.000000	 0.433063 
535.000000	 0.431990 
534.000000	 0.431036 
533.000000	 0.430059 
532.000000	 0.428915 
531.000000	 0.427508 
530.000000	 0.425839 
529.000000	 0.423884 
528.000000	 0.421714 
527.000000	 0.419354 
526.000000	 0.416898 
525.000000	 0.414395 
524.000000	 0.411891 
523.000000	 0.409412 
522.000000	 0.406956 
521.000000	 0.404500 
520.000000	 0.402045 
519.000000	 0.399565 
518.000000	 0.397038 
517.000000	 0.394487 
516.000000	 0.391888 
515.000000	 0.389266 
514.000000	 0.386595 
513.000000	 0.383925 
512.000000	 0.381278 
511.000000	 0.378680 
510.000000	 0.376176 
509.000000	 0.373744 
508.000000	 0.371408 
507.000000	 0.369143 
506.000000	 0.366854 
505.000000	 0.364470 
504.000000	 0.361943 
503.000000	 0.359153 
502.000000	 0.356078 
501.000000	 0.352716 
500.000000	 0.349116 
499.000000	 0.345206 
498.000000	 0.341200 
497.000000	 0.337123 
496.000000	 0.333046 
495.000000	 0.329017 
494.000000	 0.325107 
493.000000	 0.321316 
492.000000	 0.317668 
491.000000	 0.314116 
490.000000	 0.310635 
489.000000	 0.307202 
488.000000	 0.303816 
487.000000	 0.300478 
486.000000	 0.297141 
485.000000	 0.293803 
484.000000	 0.290536 
483.000000	 0.287222 
482.000000	 0.283932 
481.000000	 0.280642 
480.000000	 0.277280 
479.000000	 0.273919 
478.000000	 0.270581 
477.000000	 0.267314 
476.000000	 0.264048 
475.000000	 0.260877 
474.000000	 0.257754 
473.000000	 0.254678 
472.000000	 0.251650 
471.000000	 0.248622 
470.000000	 0.245571 
469.000000	 0.242424 
468.000000	 0.239229 
467.000000	 0.235939 
466.000000	 0.232529 
465.000000	 0.229072 
464.000000	 0.225567 
463.000000	 0.222063 
462.000000	 0.218534 
461.000000	 0.215053 
460.000000	 0.211596 
459.000000	 0.208091 
458.000000	 0.204563 
457.000000	 0.200963 
456.000000	 0.197291 
455.000000	 0.193548 
454.000000	 0.189733 
453.000000	 0.185966 
452.000000	 0.182271 
451.000000	 0.178766 
450.000000	 0.175499 
449.000000	 0.172543 
448.000000	 0.169897 
447.000000	 0.167536 
446.000000	 0.165390 
445.000000	 0.163340 
444.000000	 0.161290 
443.000000	 0.159120 
442.000000	 0.156760 
441.000000	 0.154209 
440.000000	 0.151395 
439.000000	 0.148415 
438.000000	 0.145244 
437.000000	 0.142002 
436.000000	 0.138664 
435.000000	 0.135278 
434.000000	 0.131893 
433.000000	 0.128507 
432.000000	 0.125098 
431.000000	 0.121712 
430.000000	 0.118350 
429.000000	 0.115013 
428.000000	 0.111722 
427.000000	 0.108504 
426.000000	 0.105309 
425.000000	 0.102162 
424.000000	 0.099086 
423.000000	 0.095987 
422.000000	 0.092935 
421.000000	 0.089883 
420.000000	 0.086855 
419.000000	 0.083899 
418.000000	 0.081062 
417.000000	 0.078320 
416.000000	 0.075650 
415.000000	 0.073122 
414.000000	 0.070643 
413.000000	 0.068187 
412.000000	 0.065755 
411.000000	 0.063300 
410.000000	 0.060844 
409.000000	 0.058341 
408.000000	 0.055861 
407.000000	 0.053477 
406.000000	 0.051164 
405.000000	 0.048971 
404.000000	 0.046896 
403.000000	 0.044918 
402.000000	 0.043010 
401.000000	 0.041127 
400.000000	 0.039291 
399.000000	 0.037455 
398.000000	 0.035667 
397.000000	 0.033974 
396.000000	 0.032353 
395.000000	 0.030803 
394.000000	 0.029349 
393.000000	 0.027942 
392.000000	 0.026583 
391.000000	 0.025272 
390.000000	 0.023913 
389.000000	 0.022530 
388.000000	 0.021171 
387.000000	 0.019836 
386.000000	 0.018548 
385.000000	 0.017356 
384.000000	 0.016331 
383.000000	 0.015425 
382.000000	 0.014710 
381.000000	 0.014090 
380.000000	 0.013518 
379.000000	 0.013017 
378.000000	 0.012516 
377.000000	 0.012016 
376.000000	 0.011467 
375.000000	 0.010943 
374.000000	 0.010371 
373.000000	 0.009775 
372.000000	 0.009202 
371.000000	 0.008606 
370.000000	 0.008058 

