PE IR       SPECTRUM    SPECTRUM    ASCII       PEDS        1.60        
  -1
BZ09FA~1.ASC
17/04/07
15:04:00.00
17/04/07
15:04:00.00
tln
$BZ1503107-1_e0123$<ebV0>[-23.3,12.1,10.0,0.0,27,1,0]
370.000000
64









2002,4.07    
MIRTGS : RIGHTBACK : INTERNAL 2
MIR : ON : INTERNAL 2
OPTKBR

0.200000
8
8.000000
FILLER
SINGLE
SPECTRUM
UNLOCKED 256

DOUBLE

COMBINED
1
0
0


1.000000
BACKG


1
0
TRUE
51149
0
LEFT NOT FITTED RIGHT NOT FITTED 0
NONE
NONE
15600
12.000000
4.427000
51148
TRUE
1 0 8 72 0 0 0 0 

15798.010000






#HDR
-1
-1
#GR
CM-1
EGY
0.00002384185791015625
0.0
5000.000000
-1.000000
4631
8
2.463483
0.008559
#DATA
5000.000000	0.770044 
4999.000000	0.771808 
4998.000000	0.773763 
4997.000000	0.775814 
4996.000000	0.777816 
4995.000000	0.779724 
4994.000000	0.781440 
4993.000000	0.782942 
4992.000000	0.784158 
4991.000000	0.785088 
4990.000000	0.785756 
4989.000000	0.786161 
4988.000000	0.786399 
4987.000000	0.786471 
4986.000000	0.786447 
4985.000000	0.786423 
4984.000000	0.786471 
4983.000000	0.786638 
4982.000000	0.786900 
4981.000000	0.787305 
4980.000000	0.787806 
4979.000000	0.788331 
4978.000000	0.788855 
4977.000000	0.789403 
4976.000000	0.789952 
4975.000000	0.790548 
4974.000000	0.791239 
4973.000000	0.792026 
4972.000000	0.792908 
4971.000000	0.793886 
4970.000000	0.794863 
4969.000000	0.795841 
4968.000000	0.796604 
4967.000000	0.797200 
4966.000000	0.797581 
4965.000000	0.797748 
4964.000000	0.797748 
4963.000000	0.797677 
4962.000000	0.797581 
4961.000000	0.797605 
4960.000000	0.797748 
4959.000000	0.798034 
4958.000000	0.798463 
4957.000000	0.798964 
4956.000000	0.799441 
4955.000000	0.799918 
4954.000000	0.800323 
4953.000000	0.800657 
4952.000000	0.800919 
4951.000000	0.801134 
4950.000000	0.801301 
4949.000000	0.801444 
4948.000000	0.801563 
4947.000000	0.801587 
4946.000000	0.801539 
4945.000000	0.801396 
4944.000000	0.801229 
4943.000000	0.801014 
4942.000000	0.800895 
4941.000000	0.800991 
4940.000000	0.801348 
4939.000000	0.802087 
4938.000000	0.803184 
4937.000000	0.804567 
4936.000000	0.806093 
4935.000000	0.807619 
4934.000000	0.808978 
4933.000000	0.810003 
4932.000000	0.810599 
4931.000000	0.810718 
4930.000000	0.810456 
4929.000000	0.809907 
4928.000000	0.809216 
4927.000000	0.808548 
4926.000000	0.808048 
4925.000000	0.807738 
4924.000000	0.807738 
4923.000000	0.807976 
4922.000000	0.808453 
4921.000000	0.809073 
4920.000000	0.809764 
4919.000000	0.810527 
4918.000000	0.811266 
4917.000000	0.811982 
4916.000000	0.812578 
4915.000000	0.813055 
4914.000000	0.813341 
4913.000000	0.813460 
4912.000000	0.813484 
4911.000000	0.813364 
4910.000000	0.813221 
4909.000000	0.813126 
4908.000000	0.813150 
4907.000000	0.813341 
4906.000000	0.813674 
4905.000000	0.814223 
4904.000000	0.814890 
4903.000000	0.815653 
4902.000000	0.816440 
4901.000000	0.817227 
4900.000000	0.817990 
4899.000000	0.818705 
4898.000000	0.819396 
4897.000000	0.820040 
4896.000000	0.820636 
4895.000000	0.821161 
4894.000000	0.821590 
4893.000000	0.821948 
4892.000000	0.822210 
4891.000000	0.822401 
4890.000000	0.822544 
4889.000000	0.822591 
4888.000000	0.822591 
4887.000000	0.822591 
4886.000000	0.822544 
4885.000000	0.822496 
4884.000000	0.822448 
4883.000000	0.822401 
4882.000000	0.822424 
4881.000000	0.822520 
4880.000000	0.822710 
4879.000000	0.822997 
4878.000000	0.823426 
4877.000000	0.823998 
4876.000000	0.824689 
4875.000000	0.825500 
4874.000000	0.826430 
4873.000000	0.827479 
4872.000000	0.828528 
4871.000000	0.829553 
4870.000000	0.830483 
4869.000000	0.831246 
4868.000000	0.831818 
4867.000000	0.832200 
4866.000000	0.832319 
4865.000000	0.832295 
4864.000000	0.832223 
4863.000000	0.832176 
4862.000000	0.832152 
4861.000000	0.832271 
4860.000000	0.832533 
4859.000000	0.832962 
4858.000000	0.833535 
4857.000000	0.834202 
4856.000000	0.834989 
4855.000000	0.835847 
4854.000000	0.836777 
4853.000000	0.837731 
4852.000000	0.838756 
4851.000000	0.839805 
4850.000000	0.840830 
4849.000000	0.841760 
4848.000000	0.842595 
4847.000000	0.843286 
4846.000000	0.843834 
4845.000000	0.844240 
4844.000000	0.844502 
4843.000000	0.844740 
4842.000000	0.844979 
4841.000000	0.845336 
4840.000000	0.845813 
4839.000000	0.846433 
4838.000000	0.847220 
4837.000000	0.848102 
4836.000000	0.849080 
4835.000000	0.850057 
4834.000000	0.851035 
4833.000000	0.851941 
4832.000000	0.852751 
4831.000000	0.853395 
4830.000000	0.853943 
4829.000000	0.854396 
4828.000000	0.854825 
4827.000000	0.855231 
4826.000000	0.855708 
4825.000000	0.856256 
4824.000000	0.856924 
4823.000000	0.857686 
4822.000000	0.858569 
4821.000000	0.859522 
4820.000000	0.860524 
4819.000000	0.861549 
4818.000000	0.862503 
4817.000000	0.863409 
4816.000000	0.864243 
4815.000000	0.864958 
4814.000000	0.865626 
4813.000000	0.866270 
4812.000000	0.866913 
4811.000000	0.867557 
4810.000000	0.868296 
4809.000000	0.869059 
4808.000000	0.869870 
4807.000000	0.870680 
4806.000000	0.871443 
4805.000000	0.872135 
4804.000000	0.872755 
4803.000000	0.873279 
4802.000000	0.873804 
4801.000000	0.874352 
4800.000000	0.874972 
4799.000000	0.875711 
4798.000000	0.876545 
4797.000000	0.877451 
4796.000000	0.878381 
4795.000000	0.879216 
4794.000000	0.879931 
4793.000000	0.880479 
4792.000000	0.880861 
4791.000000	0.881123 
4790.000000	0.881314 
4789.000000	0.881481 
4788.000000	0.881695 
4787.000000	0.882029 
4786.000000	0.882506 
4785.000000	0.883102 
4784.000000	0.883793 
4783.000000	0.884556 
4782.000000	0.885343 
4781.000000	0.886130 
4780.000000	0.886845 
4779.000000	0.887465 
4778.000000	0.888013 
4777.000000	0.888490 
4776.000000	0.888872 
4775.000000	0.889229 
4774.000000	0.889611 
4773.000000	0.890016 
4772.000000	0.890493 
4771.000000	0.891017 
4770.000000	0.891613 
4769.000000	0.892186 
4768.000000	0.892758 
4767.000000	0.893282 
4766.000000	0.893664 
4765.000000	0.893950 
4764.000000	0.894165 
4763.000000	0.894260 
4762.000000	0.894308 
4761.000000	0.894308 
4760.000000	0.894284 
4759.000000	0.894260 
4758.000000	0.894188 
4757.000000	0.894141 
4756.000000	0.894141 
4755.000000	0.894212 
4754.000000	0.894331 
4753.000000	0.894546 
4752.000000	0.894904 
4751.000000	0.895404 
4750.000000	0.896024 
4749.000000	0.896787 
4748.000000	0.897645 
4747.000000	0.898575 
4746.000000	0.899553 
4745.000000	0.900483 
4744.000000	0.901365 
4743.000000	0.902152 
4742.000000	0.902748 
4741.000000	0.903201 
4740.000000	0.903463 
4739.000000	0.903582 
4738.000000	0.903558 
4737.000000	0.903534 
4736.000000	0.903487 
4735.000000	0.903439 
4734.000000	0.903487 
4733.000000	0.903654 
4732.000000	0.903844 
4731.000000	0.904226 
4730.000000	0.904679 
4729.000000	0.905251 
4728.000000	0.905966 
4727.000000	0.906729 
4726.000000	0.907516 
4725.000000	0.908279 
4724.000000	0.908946 
4723.000000	0.909352 
4722.000000	0.909566 
4721.000000	0.909471 
4720.000000	0.909185 
4719.000000	0.908660 
4718.000000	0.907993 
4717.000000	0.907278 
4716.000000	0.906467 
4715.000000	0.905680 
4714.000000	0.904917 
4713.000000	0.904250 
4712.000000	0.903701 
4711.000000	0.903272 
4710.000000	0.903081 
4709.000000	0.903129 
4708.000000	0.903487 
4707.000000	0.904154 
4706.000000	0.905132 
4705.000000	0.906300 
4704.000000	0.907635 
4703.000000	0.908970 
4702.000000	0.910258 
4701.000000	0.911355 
4700.000000	0.912213 
4699.000000	0.912857 
4698.000000	0.913238 
4697.000000	0.913405 
4696.000000	0.913429 
4695.000000	0.913357 
4694.000000	0.913262 
4693.000000	0.913143 
4692.000000	0.913119 
4691.000000	0.913143 
4690.000000	0.913238 
4689.000000	0.913381 
4688.000000	0.913596 
4687.000000	0.913834 
4686.000000	0.914120 
4685.000000	0.914502 
4684.000000	0.914931 
4683.000000	0.915408 
4682.000000	0.915908 
4681.000000	0.916433 
4680.000000	0.916957 
4679.000000	0.917339 
4678.000000	0.917649 
4677.000000	0.917887 
4676.000000	0.918006 
4675.000000	0.918102 
4674.000000	0.918126 
4673.000000	0.918197 
4672.000000	0.918316 
4671.000000	0.918507 
4670.000000	0.918745 
4669.000000	0.919079 
4668.000000	0.919413 
4667.000000	0.919747 
4666.000000	0.920057 
4665.000000	0.920248 
4664.000000	0.920414 
4663.000000	0.920557 
4662.000000	0.920629 
4661.000000	0.920629 
4660.000000	0.920605 
4659.000000	0.920581 
4658.000000	0.920581 
4657.000000	0.920605 
4656.000000	0.920677 
4655.000000	0.920796 
4654.000000	0.920987 
4653.000000	0.921201 
4652.000000	0.921440 
4651.000000	0.921654 
4650.000000	0.921797 
4649.000000	0.921893 
4648.000000	0.921940 
4647.000000	0.921964 
4646.000000	0.922060 
4645.000000	0.922298 
4644.000000	0.922656 
4643.000000	0.923252 
4642.000000	0.923991 
4641.000000	0.924849 
4640.000000	0.925779 
4639.000000	0.926685 
4638.000000	0.927495 
4637.000000	0.928163 
4636.000000	0.928711 
4635.000000	0.929164 
4634.000000	0.929570 
4633.000000	0.929951 
4632.000000	0.930404 
4631.000000	0.930929 
4630.000000	0.931477 
4629.000000	0.932097 
4628.000000	0.932741 
4627.000000	0.933384 
4626.000000	0.933980 
4625.000000	0.934505 
4624.000000	0.934982 
4623.000000	0.935411 
4622.000000	0.935769 
4621.000000	0.936174 
4620.000000	0.936555 
4619.000000	0.936985 
4618.000000	0.937461 
4617.000000	0.938034 
4616.000000	0.938677 
4615.000000	0.939321 
4614.000000	0.939989 
4613.000000	0.940632 
4612.000000	0.941228 
4611.000000	0.941753 
4610.000000	0.942230 
4609.000000	0.942659 
4608.000000	0.943136 
4607.000000	0.943636 
4606.000000	0.944304 
4605.000000	0.945115 
4604.000000	0.946021 
4603.000000	0.947022 
4602.000000	0.948023 
4601.000000	0.948977 
4600.000000	0.949788 
4599.000000	0.950431 
4598.000000	0.950860 
4597.000000	0.951075 
4596.000000	0.951218 
4595.000000	0.951337 
4594.000000	0.951552 
4593.000000	0.951933 
4592.000000	0.952529 
4591.000000	0.953388 
4590.000000	0.954437 
4589.000000	0.955653 
4588.000000	0.956916 
4587.000000	0.958156 
4586.000000	0.959229 
4585.000000	0.960111 
4584.000000	0.960755 
4583.000000	0.961136 
4582.000000	0.961327 
4581.000000	0.961399 
4580.000000	0.961494 
4579.000000	0.961661 
4578.000000	0.961995 
4577.000000	0.962567 
4576.000000	0.963377 
4575.000000	0.964403 
4574.000000	0.965571 
4573.000000	0.966811 
4572.000000	0.968050 
4571.000000	0.969171 
4570.000000	0.970149 
4569.000000	0.970935 
4568.000000	0.971603 
4567.000000	0.972127 
4566.000000	0.972533 
4565.000000	0.972986 
4564.000000	0.973486 
4563.000000	0.974106 
4562.000000	0.974869 
4561.000000	0.975775 
4560.000000	0.976848 
4559.000000	0.978040 
4558.000000	0.979328 
4557.000000	0.980615 
4556.000000	0.981831 
4555.000000	0.982952 
4554.000000	0.983953 
4553.000000	0.984835 
4552.000000	0.985574 
4551.000000	0.986170 
4550.000000	0.986623 
4549.000000	0.986957 
4548.000000	0.987172 
4547.000000	0.987315 
4546.000000	0.987434 
4545.000000	0.987505 
4544.000000	0.987696 
4543.000000	0.988030 
4542.000000	0.988507 
4541.000000	0.989246 
4540.000000	0.990128 
4539.000000	0.991201 
4538.000000	0.992345 
4537.000000	0.993561 
4536.000000	0.994753 
4535.000000	0.995850 
4534.000000	0.996828 
4533.000000	0.997662 
4532.000000	0.998401 
4531.000000	0.999069 
4530.000000	0.999760 
4529.000000	1.000452 
4528.000000	1.001191 
4527.000000	1.002001 
4526.000000	1.002907 
4525.000000	1.003837 
4524.000000	1.004719 
4523.000000	1.005506 
4522.000000	1.006150 
4521.000000	1.006579 
4520.000000	1.006793 
4519.000000	1.006793 
4518.000000	1.006579 
4517.000000	1.006197 
4516.000000	1.005721 
4515.000000	1.005220 
4514.000000	1.004743 
4513.000000	1.004385 
4512.000000	1.004171 
4511.000000	1.004171 
4510.000000	1.004385 
4509.000000	1.004862 
4508.000000	1.005578 
4507.000000	1.006531 
4506.000000	1.007699 
4505.000000	1.009011 
4504.000000	1.010441 
4503.000000	1.011848 
4502.000000	1.013207 
4501.000000	1.014447 
4500.000000	1.015520 
4499.000000	1.016378 
4498.000000	1.017045 
4497.000000	1.017522 
4496.000000	1.017832 
4495.000000	1.018023 
4494.000000	1.018095 
4493.000000	1.018095 
4492.000000	1.018023 
4491.000000	1.017904 
4490.000000	1.017642 
4489.000000	1.017308 
4488.000000	1.016855 
4487.000000	1.016306 
4486.000000	1.015663 
4485.000000	1.015043 
4484.000000	1.014590 
4483.000000	1.014375 
4482.000000	1.014518 
4481.000000	1.014995 
4480.000000	1.015830 
4479.000000	1.016879 
4478.000000	1.018071 
4477.000000	1.019191 
4476.000000	1.020193 
4475.000000	1.020884 
4474.000000	1.021265 
4473.000000	1.021337 
4472.000000	1.021122 
4471.000000	1.020693 
4470.000000	1.020216 
4469.000000	1.019811 
4468.000000	1.019549 
4467.000000	1.019477 
4466.000000	1.019549 
4465.000000	1.019692 
4464.000000	1.019692 
4463.000000	1.019525 
4462.000000	1.019072 
4461.000000	1.018333 
4460.000000	1.017355 
4459.000000	1.016402 
4458.000000	1.015591 
4457.000000	1.015114 
4456.000000	1.014947 
4455.000000	1.014995 
4454.000000	1.015138 
4453.000000	1.015138 
4452.000000	1.014876 
4451.000000	1.014280 
4450.000000	1.013445 
4449.000000	1.012635 
4448.000000	1.012086 
4447.000000	1.011800 
4446.000000	1.011705 
4445.000000	1.011466 
4444.000000	1.010656 
4443.000000	1.008796 
4442.000000	1.005601 
4441.000000	1.001071 
4440.000000	0.995516 
4439.000000	0.989365 
4438.000000	0.983095 
4437.000000	0.977015 
4436.000000	0.971078 
4435.000000	0.964713 
4434.000000	0.957036 
4433.000000	0.947165 
4432.000000	0.934290 
4431.000000	0.918340 
4430.000000	0.899791 
4429.000000	0.880098 
4428.000000	0.861096 
4427.000000	0.845074 
4426.000000	0.833892 
4425.000000	0.829124 
4424.000000	0.831365 
4423.000000	0.840544 
4422.000000	0.855731 
4421.000000	0.875449 
4420.000000	0.898098 
4419.000000	0.922012 
4418.000000	0.945734 
4417.000000	0.968170 
4416.000000	0.988483 
4415.000000	1.006078 
4414.000000	1.020598 
4413.000000	1.031899 
4412.000000	1.039934 
4411.000000	1.044988 
4410.000000	1.047468 
4409.000000	1.047992 
4408.000000	1.047158 
4407.000000	1.045751 
4406.000000	1.044273 
4405.000000	1.043152 
4404.000000	1.042580 
4403.000000	1.042509 
4402.000000	1.042938 
4401.000000	1.043725 
4400.000000	1.044654 
4399.000000	1.045680 
4398.000000	1.046776 
4397.000000	1.047873 
4396.000000	1.048946 
4395.000000	1.049995 
4394.000000	1.050972 
4393.000000	1.051831 
4392.000000	1.052498 
4391.000000	1.052880 
4390.000000	1.053047 
4389.000000	1.053047 
4388.000000	1.052904 
4387.000000	1.052641 
4386.000000	1.052308 
4385.000000	1.051998 
4384.000000	1.051712 
4383.000000	1.051568 
4382.000000	1.051592 
4381.000000	1.051902 
4380.000000	1.052474 
4379.000000	1.053357 
4378.000000	1.054382 
4377.000000	1.055502 
4376.000000	1.056647 
4375.000000	1.057672 
4374.000000	1.058530 
4373.000000	1.059246 
4372.000000	1.059794 
4371.000000	1.060295 
4370.000000	1.060795 
4369.000000	1.061415 
4368.000000	1.062202 
4367.000000	1.063108 
4366.000000	1.064109 
4365.000000	1.065111 
4364.000000	1.066040 
4363.000000	1.066851 
4362.000000	1.067495 
4361.000000	1.068019 
4360.000000	1.068472 
4359.000000	1.068878 
4358.000000	1.069355 
4357.000000	1.069998 
4356.000000	1.070809 
4355.000000	1.071786 
4354.000000	1.072955 
4353.000000	1.074194 
4352.000000	1.075530 
4351.000000	1.076841 
4350.000000	1.078128 
4349.000000	1.079273 
4348.000000	1.080322 
4347.000000	1.081275 
4346.000000	1.082038 
4345.000000	1.082754 
4344.000000	1.083326 
4343.000000	1.083803 
4342.000000	1.084208 
4341.000000	1.084566 
4340.000000	1.084995 
4339.000000	1.085543 
4338.000000	1.086211 
4337.000000	1.087045 
4336.000000	1.088142 
4335.000000	1.089429 
4334.000000	1.090979 
4333.000000	1.092720 
4332.000000	1.094579 
4331.000000	1.096534 
4330.000000	1.098442 
4329.000000	1.100325 
4328.000000	1.102042 
4327.000000	1.103568 
4326.000000	1.104903 
4325.000000	1.105999 
4324.000000	1.106953 
4323.000000	1.107811 
4322.000000	1.108574 
4321.000000	1.109337 
4320.000000	1.110219 
4319.000000	1.111149 
4318.000000	1.112198 
4317.000000	1.113319 
4316.000000	1.114511 
4315.000000	1.115679 
4314.000000	1.116800 
4313.000000	1.117825 
4312.000000	1.118755 
4311.000000	1.119613 
4310.000000	1.120376 
4309.000000	1.121068 
4308.000000	1.121711 
4307.000000	1.122379 
4306.000000	1.123118 
4305.000000	1.123929 
4304.000000	1.124835 
4303.000000	1.125884 
4302.000000	1.127076 
4301.000000	1.128292 
4300.000000	1.129555 
4299.000000	1.130795 
4298.000000	1.131963 
4297.000000	1.133060 
4296.000000	1.134037 
4295.000000	1.134943 
4294.000000	1.135802 
4293.000000	1.136708 
4292.000000	1.137590 
4291.000000	1.138496 
4290.000000	1.139426 
4289.000000	1.140379 
4288.000000	1.141309 
4287.000000	1.142168 
4286.000000	1.143002 
4285.000000	1.143860 
4284.000000	1.144766 
4283.000000	1.145792 
4282.000000	1.146984 
4281.000000	1.148319 
4280.000000	1.149773 
4279.000000	1.151323 
4278.000000	1.152849 
4277.000000	1.154255 
4276.000000	1.155471 
4275.000000	1.156520 
4274.000000	1.157355 
4273.000000	1.157975 
4272.000000	1.158547 
4271.000000	1.159048 
4270.000000	1.159524 
4269.000000	1.160097 
4268.000000	1.160740 
4267.000000	1.161432 
4266.000000	1.162219 
4265.000000	1.163077 
4264.000000	1.163959 
4263.000000	1.164937 
4262.000000	1.165914 
4261.000000	1.166987 
4260.000000	1.168131 
4259.000000	1.169323 
4258.000000	1.170587 
4257.000000	1.171875 
4256.000000	1.173162 
4255.000000	1.174426 
4254.000000	1.175689 
4253.000000	1.176929 
4252.000000	1.178073 
4251.000000	1.179170 
4250.000000	1.180148 
4249.000000	1.180982 
4248.000000	1.181650 
4247.000000	1.182174 
4246.000000	1.182484 
4245.000000	1.182627 
4244.000000	1.182699 
4243.000000	1.182746 
4242.000000	1.182818 
4241.000000	1.182985 
4240.000000	1.183319 
4239.000000	1.183748 
4238.000000	1.184320 
4237.000000	1.184940 
4236.000000	1.185536 
4235.000000	1.186132 
4234.000000	1.186633 
4233.000000	1.187038 
4232.000000	1.187396 
4231.000000	1.187729 
4230.000000	1.188063 
4229.000000	1.188445 
4228.000000	1.188898 
4227.000000	1.189422 
4226.000000	1.189994 
4225.000000	1.190590 
4224.000000	1.191186 
4223.000000	1.191759 
4222.000000	1.192283 
4221.000000	1.192760 
4220.000000	1.193261 
4219.000000	1.193714 
4218.000000	1.194214 
4217.000000	1.194739 
4216.000000	1.195287 
4215.000000	1.195883 
4214.000000	1.196455 
4213.000000	1.197004 
4212.000000	1.197481 
4211.000000	1.197886 
4210.000000	1.198148 
4209.000000	1.198339 
4208.000000	1.198458 
4207.000000	1.198554 
4206.000000	1.198673 
4205.000000	1.198863 
4204.000000	1.199197 
4203.000000	1.199650 
4202.000000	1.200246 
4201.000000	1.200938 
4200.000000	1.201677 
4199.000000	1.202440 
4198.000000	1.203179 
4197.000000	1.203823 
4196.000000	1.204419 
4195.000000	1.204895 
4194.000000	1.205348 
4193.000000	1.205754 
4192.000000	1.206159 
4191.000000	1.206588 
4190.000000	1.207041 
4189.000000	1.207518 
4188.000000	1.208019 
4187.000000	1.208519 
4186.000000	1.209020 
4185.000000	1.209521 
4184.000000	1.209998 
4183.000000	1.210522 
4182.000000	1.211023 
4181.000000	1.211547 
4180.000000	1.212048 
4179.000000	1.212549 
4178.000000	1.213049 
4177.000000	1.213526 
4176.000000	1.213955 
4175.000000	1.214385 
4174.000000	1.214742 
4173.000000	1.215028 
4172.000000	1.215243 
4171.000000	1.215386 
4170.000000	1.215505 
4169.000000	1.215624 
4168.000000	1.215744 
4167.000000	1.215910 
4166.000000	1.216149 
4165.000000	1.216459 
4164.000000	1.216864 
4163.000000	1.217389 
4162.000000	1.217961 
4161.000000	1.218628 
4160.000000	1.219367 
4159.000000	1.220130 
4158.000000	1.220965 
4157.000000	1.221847 
4156.000000	1.222753 
4155.000000	1.223683 
4154.000000	1.224565 
4153.000000	1.225399 
4152.000000	1.226162 
4151.000000	1.226830 
4150.000000	1.227307 
4149.000000	1.227664 
4148.000000	1.227927 
4147.000000	1.228141 
4146.000000	1.228332 
4145.000000	1.228570 
4144.000000	1.228928 
4143.000000	1.229405 
4142.000000	1.230025 
4141.000000	1.230764 
4140.000000	1.231598 
4139.000000	1.232552 
4138.000000	1.233553 
4137.000000	1.234602 
4136.000000	1.235699 
4135.000000	1.236796 
4134.000000	1.237893 
4133.000000	1.238942 
4132.000000	1.239967 
4131.000000	1.240968 
4130.000000	1.241922 
4129.000000	1.242852 
4128.000000	1.243782 
4127.000000	1.244711 
4126.000000	1.245641 
4125.000000	1.246571 
4124.000000	1.247501 
4123.000000	1.248431 
4122.000000	1.249313 
4121.000000	1.250100 
4120.000000	1.250839 
4119.000000	1.251506 
4118.000000	1.252174 
4117.000000	1.252841 
4116.000000	1.253509 
4115.000000	1.254200 
4114.000000	1.254892 
4113.000000	1.255702 
4112.000000	1.256537 
4111.000000	1.257371 
4110.000000	1.258277 
4109.000000	1.259279 
4108.000000	1.260375 
4107.000000	1.261639 
4106.000000	1.263070 
4105.000000	1.264691 
4104.000000	1.266407 
4103.000000	1.268243 
4102.000000	1.270031 
4101.000000	1.271796 
4100.000000	1.273369 
4099.000000	1.274776 
4098.000000	1.275968 
4097.000000	1.276969 
4096.000000	1.277875 
4095.000000	1.278686 
4094.000000	1.279544 
4093.000000	1.280498 
4092.000000	1.281547 
4091.000000	1.282763 
4090.000000	1.284193 
4089.000000	1.285767 
4088.000000	1.287460 
4087.000000	1.289224 
4086.000000	1.291036 
4085.000000	1.292777 
4084.000000	1.294445 
4083.000000	1.296019 
4082.000000	1.297450 
4081.000000	1.298689 
4080.000000	1.299786 
4079.000000	1.300811 
4078.000000	1.301717 
4077.000000	1.302695 
4076.000000	1.303720 
4075.000000	1.304841 
4074.000000	1.306104 
4073.000000	1.307463 
4072.000000	1.308965 
4071.000000	1.310563 
4070.000000	1.312208 
4069.000000	1.313900 
4068.000000	1.315617 
4067.000000	1.317358 
4066.000000	1.319074 
4065.000000	1.320791 
4064.000000	1.322436 
4063.000000	1.324009 
4062.000000	1.325511 
4061.000000	1.326918 
4060.000000	1.328206 
4059.000000	1.329350 
4058.000000	1.330471 
4057.000000	1.331567 
4056.000000	1.332688 
4055.000000	1.333856 
4054.000000	1.335120 
4053.000000	1.336431 
4052.000000	1.337814 
4051.000000	1.339221 
4050.000000	1.340627 
4049.000000	1.342034 
4048.000000	1.343441 
4047.000000	1.344847 
4046.000000	1.346302 
4045.000000	1.347732 
4044.000000	1.349186 
4043.000000	1.350569 
4042.000000	1.351952 
4041.000000	1.353287 
4040.000000	1.354527 
4039.000000	1.355719 
4038.000000	1.356935 
4037.000000	1.358199 
4036.000000	1.359534 
4035.000000	1.360964 
4034.000000	1.362538 
4033.000000	1.364135 
4032.000000	1.365756 
4031.000000	1.367306 
4030.000000	1.368784 
4029.000000	1.370048 
4028.000000	1.371169 
4027.000000	1.372075 
4026.000000	1.372885 
4025.000000	1.373577 
4024.000000	1.374244 
4023.000000	1.374983 
4022.000000	1.375818 
4021.000000	1.376771 
4020.000000	1.377844 
4019.000000	1.379013 
4018.000000	1.380252 
4017.000000	1.381540 
4016.000000	1.382756 
4015.000000	1.383924 
4014.000000	1.384973 
4013.000000	1.385831 
4012.000000	1.386570 
4011.000000	1.387190 
4010.000000	1.387786 
4009.000000	1.388335 
4008.000000	1.388907 
4007.000000	1.389598 
4006.000000	1.390433 
4005.000000	1.391386 
4004.000000	1.392436 
4003.000000	1.393556 
4002.000000	1.394677 
4001.000000	1.395702 
4000.000000	1.396656 
3999.000000	1.397466 
3998.000000	1.398110 
3997.000000	1.398634 
3996.000000	1.399111 
3995.000000	1.399636 
3994.000000	1.400160 
3993.000000	1.400804 
3992.000000	1.401615 
3991.000000	1.402544 
3990.000000	1.403617 
3989.000000	1.404762 
3988.000000	1.405978 
3987.000000	1.407241 
3986.000000	1.408505 
3985.000000	1.409745 
3984.000000	1.410913 
3983.000000	1.411962 
3982.000000	1.412844 
3981.000000	1.413559 
3980.000000	1.414108 
3979.000000	1.414489 
3978.000000	1.414752 
3977.000000	1.414966 
3976.000000	1.415181 
3975.000000	1.415491 
3974.000000	1.415920 
3973.000000	1.416420 
3972.000000	1.417064 
3971.000000	1.417732 
3970.000000	1.418375 
3969.000000	1.418995 
3968.000000	1.419496 
3967.000000	1.419901 
3966.000000	1.420211 
3965.000000	1.420426 
3964.000000	1.420640 
3963.000000	1.420927 
3962.000000	1.421284 
3961.000000	1.421737 
3960.000000	1.422309 
3959.000000	1.422929 
3958.000000	1.423573 
3957.000000	1.424145 
3956.000000	1.424694 
3955.000000	1.425099 
3954.000000	1.425433 
3953.000000	1.425647 
3952.000000	1.425814 
3951.000000	1.425957 
3950.000000	1.426076 
3949.000000	1.426196 
3948.000000	1.426362 
3947.000000	1.426553 
3946.000000	1.426815 
3945.000000	1.427125 
3944.000000	1.427531 
3943.000000	1.427984 
3942.000000	1.428484 
3941.000000	1.429057 
3940.000000	1.429581 
3939.000000	1.430106 
3938.000000	1.430559 
3937.000000	1.430892 
3936.000000	1.431155 
3935.000000	1.431322 
3934.000000	1.431393 
3933.000000	1.431441 
3932.000000	1.431465 
3931.000000	1.431560 
3930.000000	1.431727 
3929.000000	1.431894 
3928.000000	1.432085 
3927.000000	1.432251 
3926.000000	1.432418 
3925.000000	1.432538 
3924.000000	1.432609 
3923.000000	1.432657 
3922.000000	1.432657 
3921.000000	1.432728 
3920.000000	1.432824 
3919.000000	1.433062 
3918.000000	1.433396 
3917.000000	1.433897 
3916.000000	1.434469 
3915.000000	1.435112 
3914.000000	1.435780 
3913.000000	1.436352 
3912.000000	1.436781 
3911.000000	1.436996 
3910.000000	1.436924 
3909.000000	1.436567 
3908.000000	1.435971 
3907.000000	1.435160 
3906.000000	1.434350 
3905.000000	1.433658 
3904.000000	1.433181 
3903.000000	1.433086 
3902.000000	1.433396 
3901.000000	1.434111 
3900.000000	1.435089 
3899.000000	1.436281 
3898.000000	1.437497 
3897.000000	1.438665 
3896.000000	1.439595 
3895.000000	1.440358 
3894.000000	1.440930 
3893.000000	1.441335 
3892.000000	1.441740 
3891.000000	1.442146 
3890.000000	1.442670 
3889.000000	1.443314 
3888.000000	1.444101 
3887.000000	1.445055 
3886.000000	1.446127 
3885.000000	1.447272 
3884.000000	1.448440 
3883.000000	1.449584 
3882.000000	1.450634 
3881.000000	1.451539 
3880.000000	1.452231 
3879.000000	1.452660 
3878.000000	1.452779 
3877.000000	1.452660 
3876.000000	1.452302 
3875.000000	1.451826 
3874.000000	1.451301 
3873.000000	1.450872 
3872.000000	1.450681 
3871.000000	1.450753 
3870.000000	1.451110 
3869.000000	1.451873 
3868.000000	1.452946 
3867.000000	1.454329 
3866.000000	1.455903 
3865.000000	1.457548 
3864.000000	1.459074 
3863.000000	1.460337 
3862.000000	1.461148 
3861.000000	1.461434 
3860.000000	1.461076 
3859.000000	1.460194 
3858.000000	1.458883 
3857.000000	1.457452 
3856.000000	1.456212 
3855.000000	1.455473 
3854.000000	1.455545 
3853.000000	1.456570 
3852.000000	1.458573 
3851.000000	1.461458 
3850.000000	1.464891 
3849.000000	1.468491 
3848.000000	1.471948 
3847.000000	1.474928 
3846.000000	1.477146 
3845.000000	1.478528 
3844.000000	1.479125 
3843.000000	1.479148 
3842.000000	1.478791 
3841.000000	1.478338 
3840.000000	1.478052 
3839.000000	1.478147 
3838.000000	1.478719 
3837.000000	1.479840 
3836.000000	1.481413 
3835.000000	1.483368 
3834.000000	1.485586 
3833.000000	1.487851 
3832.000000	1.490068 
3831.000000	1.492118 
3830.000000	1.493859 
3829.000000	1.495337 
3828.000000	1.496481 
3827.000000	1.497340 
3826.000000	1.497936 
3825.000000	1.498293 
3824.000000	1.498484 
3823.000000	1.498627 
3822.000000	1.498794 
3821.000000	1.499104 
3820.000000	1.499652 
3819.000000	1.500558 
3818.000000	1.501870 
3817.000000	1.503634 
3816.000000	1.505756 
3815.000000	1.508235 
3814.000000	1.510763 
3813.000000	1.513242 
3812.000000	1.515436 
3811.000000	1.517105 
3810.000000	1.518225 
3809.000000	1.518654 
3808.000000	1.518559 
3807.000000	1.518011 
3806.000000	1.517271 
3805.000000	1.516580 
3804.000000	1.516079 
3803.000000	1.516008 
3802.000000	1.516485 
3801.000000	1.517534 
3800.000000	1.519131 
3799.000000	1.521229 
3798.000000	1.523685 
3797.000000	1.526355 
3796.000000	1.529145 
3795.000000	1.531863 
3794.000000	1.534485 
3793.000000	1.536917 
3792.000000	1.539134 
3791.000000	1.541113 
3790.000000	1.542806 
3789.000000	1.544332 
3788.000000	1.545715 
3787.000000	1.546931 
3786.000000	1.548051 
3785.000000	1.549005 
3784.000000	1.549887 
3783.000000	1.550650 
3782.000000	1.551365 
3781.000000	1.552033 
3780.000000	1.552677 
3779.000000	1.553368 
3778.000000	1.554059 
3777.000000	1.554822 
3776.000000	1.555609 
3775.000000	1.556372 
3774.000000	1.557135 
3773.000000	1.557826 
3772.000000	1.558494 
3771.000000	1.559114 
3770.000000	1.559686 
3769.000000	1.560211 
3768.000000	1.560759 
3767.000000	1.561260 
3766.000000	1.561737 
3765.000000	1.562190 
3764.000000	1.562595 
3763.000000	1.562905 
3762.000000	1.563167 
3761.000000	1.563310 
3760.000000	1.563286 
3759.000000	1.563096 
3758.000000	1.562690 
3757.000000	1.561999 
3756.000000	1.561117 
3755.000000	1.559996 
3754.000000	1.558756 
3753.000000	1.557445 
3752.000000	1.556181 
3751.000000	1.555085 
3750.000000	1.554250 
3749.000000	1.553702 
3748.000000	1.553559 
3747.000000	1.553821 
3746.000000	1.554536 
3745.000000	1.555609 
3744.000000	1.557016 
3743.000000	1.558637 
3742.000000	1.560330 
3741.000000	1.562023 
3740.000000	1.563549 
3739.000000	1.564884 
3738.000000	1.566052 
3737.000000	1.567077 
3736.000000	1.568031 
3735.000000	1.568984 
3734.000000	1.570057 
3733.000000	1.571249 
3732.000000	1.572608 
3731.000000	1.574015 
3730.000000	1.575398 
3729.000000	1.576685 
3728.000000	1.577806 
3727.000000	1.578736 
3726.000000	1.579451 
3725.000000	1.579999 
3724.000000	1.580429 
3723.000000	1.580739 
3722.000000	1.580929 
3721.000000	1.580977 
3720.000000	1.580858 
3719.000000	1.580572 
3718.000000	1.580095 
3717.000000	1.579499 
3716.000000	1.578783 
3715.000000	1.578092 
3714.000000	1.577496 
3713.000000	1.577115 
3712.000000	1.577019 
3711.000000	1.577258 
3710.000000	1.577758 
3709.000000	1.578521 
3708.000000	1.579403 
3707.000000	1.580405 
3706.000000	1.581358 
3705.000000	1.582217 
3704.000000	1.582932 
3703.000000	1.583504 
3702.000000	1.583957 
3701.000000	1.584339 
3700.000000	1.584577 
3699.000000	1.584672 
3698.000000	1.584625 
3697.000000	1.584362 
3696.000000	1.583838 
3695.000000	1.583051 
3694.000000	1.582050 
3693.000000	1.580858 
3692.000000	1.579689 
3691.000000	1.578688 
3690.000000	1.577997 
3689.000000	1.577711 
3688.000000	1.577901 
3687.000000	1.578450 
3686.000000	1.579236 
3685.000000	1.580047 
3684.000000	1.580691 
3683.000000	1.581025 
3682.000000	1.580834 
3681.000000	1.580142 
3680.000000	1.578998 
3679.000000	1.577591 
3678.000000	1.575994 
3677.000000	1.574468 
3676.000000	1.573133 
3675.000000	1.572155 
3674.000000	1.571559 
3673.000000	1.571440 
3672.000000	1.571750 
3671.000000	1.572442 
3670.000000	1.573467 
3669.000000	1.574707 
3668.000000	1.576113 
3667.000000	1.577544 
3666.000000	1.578903 
3665.000000	1.580047 
3664.000000	1.580977 
3663.000000	1.581597 
3662.000000	1.581907 
3661.000000	1.581931 
3660.000000	1.581645 
3659.000000	1.581120 
3658.000000	1.580357 
3657.000000	1.579451 
3656.000000	1.578402 
3655.000000	1.577210 
3654.000000	1.575994 
3653.000000	1.574897 
3652.000000	1.574015 
3651.000000	1.573538 
3650.000000	1.573562 
3649.000000	1.574087 
3648.000000	1.575183 
3647.000000	1.576709 
3646.000000	1.578569 
3645.000000	1.580548 
3644.000000	1.582551 
3643.000000	1.584339 
3642.000000	1.585936 
3641.000000	1.587224 
3640.000000	1.588177 
3639.000000	1.588773 
3638.000000	1.589012 
3637.000000	1.588845 
3636.000000	1.588273 
3635.000000	1.587295 
3634.000000	1.586127 
3633.000000	1.584815 
3632.000000	1.583552 
3631.000000	1.582574 
3630.000000	1.582002 
3629.000000	1.581954 
3628.000000	1.582336 
3627.000000	1.583075 
3626.000000	1.583981 
3625.000000	1.584911 
3624.000000	1.585650 
3623.000000	1.586174 
3622.000000	1.586461 
3621.000000	1.586580 
3620.000000	1.586627 
3619.000000	1.586699 
3618.000000	1.586842 
3617.000000	1.587128 
3616.000000	1.587462 
3615.000000	1.587867 
3614.000000	1.588320 
3613.000000	1.588749 
3612.000000	1.589226 
3611.000000	1.589751 
3610.000000	1.590394 
3609.000000	1.591181 
3608.000000	1.592159 
3607.000000	1.593279 
3606.000000	1.594519 
3605.000000	1.595783 
3604.000000	1.597046 
3603.000000	1.598262 
3602.000000	1.599407 
3601.000000	1.600408 
3600.000000	1.601243 
3599.000000	1.601934 
3598.000000	1.602435 
3597.000000	1.602721 
3596.000000	1.602792 
3595.000000	1.602649 
3594.000000	1.602363 
3593.000000	1.601934 
3592.000000	1.601552 
3591.000000	1.601266 
3590.000000	1.601195 
3589.000000	1.601529 
3588.000000	1.602196 
3587.000000	1.603269 
3586.000000	1.604676 
3585.000000	1.606369 
3584.000000	1.608228 
3583.000000	1.610112 
3582.000000	1.611924 
3581.000000	1.613593 
3580.000000	1.615118 
3579.000000	1.616430 
3578.000000	1.617503 
3577.000000	1.618337 
3576.000000	1.618957 
3575.000000	1.619338 
3574.000000	1.619505 
3573.000000	1.619505 
3572.000000	1.619362 
3571.000000	1.619172 
3570.000000	1.618981 
3569.000000	1.618885 
3568.000000	1.619076 
3567.000000	1.619482 
3566.000000	1.620149 
3565.000000	1.621031 
3564.000000	1.622056 
3563.000000	1.623106 
3562.000000	1.624202 
3561.000000	1.625132 
3560.000000	1.625919 
3559.000000	1.626586 
3558.000000	1.627135 
3557.000000	1.627612 
3556.000000	1.628112 
3555.000000	1.628661 
3554.000000	1.629233 
3553.000000	1.629900 
3552.000000	1.630616 
3551.000000	1.631307 
3550.000000	1.631951 
3549.000000	1.632571 
3548.000000	1.633048 
3547.000000	1.633429 
3546.000000	1.633691 
3545.000000	1.633906 
3544.000000	1.634049 
3543.000000	1.634168 
3542.000000	1.634287 
3541.000000	1.634430 
3540.000000	1.634621 
3539.000000	1.634788 
3538.000000	1.634979 
3537.000000	1.635146 
3536.000000	1.635289 
3535.000000	1.635432 
3534.000000	1.635551 
3533.000000	1.635646 
3532.000000	1.635742 
3531.000000	1.635909 
3530.000000	1.636099 
3529.000000	1.636338 
3528.000000	1.636624 
3527.000000	1.636958 
3526.000000	1.637268 
3525.000000	1.637578 
3524.000000	1.637840 
3523.000000	1.638078 
3522.000000	1.638174 
3521.000000	1.638174 
3520.000000	1.638126 
3519.000000	1.638007 
3518.000000	1.637864 
3517.000000	1.637697 
3516.000000	1.637530 
3515.000000	1.637411 
3514.000000	1.637291 
3513.000000	1.637196 
3512.000000	1.637125 
3511.000000	1.637029 
3510.000000	1.636862 
3509.000000	1.636624 
3508.000000	1.636338 
3507.000000	1.636028 
3506.000000	1.635694 
3505.000000	1.635408 
3504.000000	1.635074 
3503.000000	1.634812 
3502.000000	1.634573 
3501.000000	1.634383 
3500.000000	1.634216 
3499.000000	1.633977 
3498.000000	1.633739 
3497.000000	1.633453 
3496.000000	1.633119 
3495.000000	1.632761 
3494.000000	1.632428 
3493.000000	1.632070 
3492.000000	1.631712 
3491.000000	1.631355 
3490.000000	1.631021 
3489.000000	1.630640 
3488.000000	1.630258 
3487.000000	1.629805 
3486.000000	1.629304 
3485.000000	1.628756 
3484.000000	1.628160 
3483.000000	1.627492 
3482.000000	1.626777 
3481.000000	1.626038 
3480.000000	1.625204 
3479.000000	1.624369 
3478.000000	1.623487 
3477.000000	1.622629 
3476.000000	1.621818 
3475.000000	1.621055 
3474.000000	1.620388 
3473.000000	1.619791 
3472.000000	1.619267 
3471.000000	1.618814 
3470.000000	1.618409 
3469.000000	1.618027 
3468.000000	1.617693 
3467.000000	1.617407 
3466.000000	1.617169 
3465.000000	1.616978 
3464.000000	1.616764 
3463.000000	1.616525 
3462.000000	1.616215 
3461.000000	1.615762 
3460.000000	1.615190 
3459.000000	1.614451 
3458.000000	1.613545 
3457.000000	1.612496 
3456.000000	1.611423 
3455.000000	1.610350 
3454.000000	1.609325 
3453.000000	1.608371 
3452.000000	1.607465 
3451.000000	1.606655 
3450.000000	1.605939 
3449.000000	1.605296 
3448.000000	1.604723 
3447.000000	1.604199 
3446.000000	1.603674 
3445.000000	1.603126 
3444.000000	1.602578 
3443.000000	1.602005 
3442.000000	1.601338 
3441.000000	1.600623 
3440.000000	1.599860 
3439.000000	1.599049 
3438.000000	1.598238 
3437.000000	1.597428 
3436.000000	1.596689 
3435.000000	1.595997 
3434.000000	1.595401 
3433.000000	1.594877 
3432.000000	1.594448 
3431.000000	1.594042 
3430.000000	1.593708 
3429.000000	1.593375 
3428.000000	1.593017 
3427.000000	1.592636 
3426.000000	1.592254 
3425.000000	1.591897 
3424.000000	1.591658 
3423.000000	1.591491 
3422.000000	1.591587 
3421.000000	1.591849 
3420.000000	1.592445 
3419.000000	1.593208 
3418.000000	1.594138 
3417.000000	1.595163 
3416.000000	1.596140 
3415.000000	1.597023 
3414.000000	1.597762 
3413.000000	1.598262 
3412.000000	1.598644 
3411.000000	1.598882 
3410.000000	1.599049 
3409.000000	1.599216 
3408.000000	1.599383 
3407.000000	1.599621 
3406.000000	1.599979 
3405.000000	1.600432 
3404.000000	1.601004 
3403.000000	1.601672 
3402.000000	1.602411 
3401.000000	1.603174 
3400.000000	1.604008 
3399.000000	1.604819 
3398.000000	1.605582 
3397.000000	1.606345 
3396.000000	1.606988 
3395.000000	1.607632 
3394.000000	1.608228 
3393.000000	1.608800 
3392.000000	1.609325 
3391.000000	1.609849 
3390.000000	1.610350 
3389.000000	1.610803 
3388.000000	1.611232 
3387.000000	1.611638 
3386.000000	1.612019 
3385.000000	1.612496 
3384.000000	1.613068 
3383.000000	1.613759 
3382.000000	1.614594 
3381.000000	1.615571 
3380.000000	1.616644 
3379.000000	1.617813 
3378.000000	1.618957 
3377.000000	1.620078 
3376.000000	1.621127 
3375.000000	1.622128 
3374.000000	1.623106 
3373.000000	1.624059 
3372.000000	1.625084 
3371.000000	1.626229 
3370.000000	1.627492 
3369.000000	1.628899 
3368.000000	1.630425 
3367.000000	1.632094 
3366.000000	1.633787 
3365.000000	1.635479 
3364.000000	1.637101 
3363.000000	1.638603 
3362.000000	1.640009 
3361.000000	1.641273 
3360.000000	1.642465 
3359.000000	1.643586 
3358.000000	1.644730 
3357.000000	1.645922 
3356.000000	1.647305 
3355.000000	1.648736 
3354.000000	1.650381 
3353.000000	1.652121 
3352.000000	1.653933 
3351.000000	1.655769 
3350.000000	1.657581 
3349.000000	1.659274 
3348.000000	1.660871 
3347.000000	1.662302 
3346.000000	1.663637 
3345.000000	1.664829 
3344.000000	1.665973 
3343.000000	1.667094 
3342.000000	1.668262 
3341.000000	1.669502 
3340.000000	1.670885 
3339.000000	1.672434 
3338.000000	1.674127 
3337.000000	1.675939 
3336.000000	1.677846 
3335.000000	1.679778 
3334.000000	1.681685 
3333.000000	1.683545 
3332.000000	1.685261 
3331.000000	1.686859 
3330.000000	1.688337 
3329.000000	1.689648 
3328.000000	1.690888 
3327.000000	1.692104 
3326.000000	1.693344 
3325.000000	1.694631 
3324.000000	1.696014 
3323.000000	1.697516 
3322.000000	1.699137 
3321.000000	1.700878 
3320.000000	1.702737 
3319.000000	1.704597 
3318.000000	1.706528 
3317.000000	1.708459 
3316.000000	1.710319 
3315.000000	1.712059 
3314.000000	1.713705 
3313.000000	1.715230 
3312.000000	1.716637 
3311.000000	1.717972 
3310.000000	1.719236 
3309.000000	1.720499 
3308.000000	1.721858 
3307.000000	1.723265 
3306.000000	1.724815 
3305.000000	1.726460 
3304.000000	1.728153 
3303.000000	1.729869 
3302.000000	1.731514 
3301.000000	1.733088 
3300.000000	1.734471 
3299.000000	1.735734 
3298.000000	1.736879 
3297.000000	1.737952 
3296.000000	1.738953 
3295.000000	1.740050 
3294.000000	1.741242 
3293.000000	1.742529 
3292.000000	1.743912 
3291.000000	1.745390 
3290.000000	1.746916 
3289.000000	1.748394 
3288.000000	1.749777 
3287.000000	1.751065 
3286.000000	1.752233 
3285.000000	1.753330 
3284.000000	1.754331 
3283.000000	1.755309 
3282.000000	1.756191 
3281.000000	1.757049 
3280.000000	1.757884 
3279.000000	1.758718 
3278.000000	1.759529 
3277.000000	1.760292 
3276.000000	1.761078 
3275.000000	1.761913 
3274.000000	1.762795 
3273.000000	1.763772 
3272.000000	1.764774 
3271.000000	1.765823 
3270.000000	1.766872 
3269.000000	1.767897 
3268.000000	1.768851 
3267.000000	1.769733 
3266.000000	1.770544 
3265.000000	1.771354 
3264.000000	1.772189 
3263.000000	1.773118 
3262.000000	1.774168 
3261.000000	1.775336 
3260.000000	1.776576 
3259.000000	1.777911 
3258.000000	1.779150 
3257.000000	1.780295 
3256.000000	1.781272 
3255.000000	1.782011 
3254.000000	1.782536 
3253.000000	1.782870 
3252.000000	1.783084 
3251.000000	1.783251 
3250.000000	1.783394 
3249.000000	1.783633 
3248.000000	1.783990 
3247.000000	1.784372 
3246.000000	1.784920 
3245.000000	1.785516 
3244.000000	1.786160 
3243.000000	1.786828 
3242.000000	1.787495 
3241.000000	1.788115 
3240.000000	1.788759 
3239.000000	1.789379 
3238.000000	1.790046 
3237.000000	1.790714 
3236.000000	1.791429 
3235.000000	1.792144 
3234.000000	1.792883 
3233.000000	1.793575 
3232.000000	1.794219 
3231.000000	1.794767 
3230.000000	1.795244 
3229.000000	1.795601 
3228.000000	1.795864 
3227.000000	1.796054 
3226.000000	1.796197 
3225.000000	1.796364 
3224.000000	1.796531 
3223.000000	1.796746 
3222.000000	1.797080 
3221.000000	1.797437 
3220.000000	1.797866 
3219.000000	1.798367 
3218.000000	1.798868 
3217.000000	1.799345 
3216.000000	1.799774 
3215.000000	1.800084 
3214.000000	1.800227 
3213.000000	1.800298 
3212.000000	1.800227 
3211.000000	1.800036 
3210.000000	1.799774 
3209.000000	1.799535 
3208.000000	1.799345 
3207.000000	1.799225 
3206.000000	1.799225 
3205.000000	1.799297 
3204.000000	1.799464 
3203.000000	1.799702 
3202.000000	1.799964 
3201.000000	1.800274 
3200.000000	1.800584 
3199.000000	1.800894 
3198.000000	1.801252 
3197.000000	1.801633 
3196.000000	1.802062 
3195.000000	1.802468 
3194.000000	1.802921 
3193.000000	1.803326 
3192.000000	1.803660 
3191.000000	1.803922 
3190.000000	1.804113 
3189.000000	1.804304 
3188.000000	1.804447 
3187.000000	1.804614 
3186.000000	1.804876 
3185.000000	1.805162 
3184.000000	1.805496 
3183.000000	1.805806 
3182.000000	1.806116 
3181.000000	1.806378 
3180.000000	1.806521 
3179.000000	1.806616 
3178.000000	1.806712 
3177.000000	1.806735 
3176.000000	1.806807 
3175.000000	1.806950 
3174.000000	1.807165 
3173.000000	1.807475 
3172.000000	1.807904 
3171.000000	1.808404 
3170.000000	1.808953 
3169.000000	1.809501 
3168.000000	1.810073 
3167.000000	1.810622 
3166.000000	1.811146 
3165.000000	1.811647 
3164.000000	1.812124 
3163.000000	1.812553 
3162.000000	1.813006 
3161.000000	1.813435 
3160.000000	1.813840 
3159.000000	1.814317 
3158.000000	1.814842 
3157.000000	1.815390 
3156.000000	1.816010 
3155.000000	1.816749 
3154.000000	1.817607 
3153.000000	1.818561 
3152.000000	1.819634 
3151.000000	1.820874 
3150.000000	1.822185 
3149.000000	1.823568 
3148.000000	1.824998 
3147.000000	1.826405 
3146.000000	1.827692 
3145.000000	1.828885 
3144.000000	1.829981 
3143.000000	1.830887 
3142.000000	1.831746 
3141.000000	1.832580 
3140.000000	1.833391 
3139.000000	1.834225 
3138.000000	1.835107 
3137.000000	1.835989 
3136.000000	1.836895 
3135.000000	1.837730 
3134.000000	1.838445 
3133.000000	1.839065 
3132.000000	1.839661 
3131.000000	1.840209 
3130.000000	1.840829 
3129.000000	1.841592 
3128.000000	1.842522 
3127.000000	1.843690 
3126.000000	1.845121 
3125.000000	1.846694 
3124.000000	1.848340 
3123.000000	1.850032 
3122.000000	1.851701 
3121.000000	1.853275 
3120.000000	1.854801 
3119.000000	1.856255 
3118.000000	1.857709 
3117.000000	1.859164 
3116.000000	1.860690 
3115.000000	1.862239 
3114.000000	1.863837 
3113.000000	1.865434 
3112.000000	1.867055 
3111.000000	1.868605 
3110.000000	1.870155 
3109.000000	1.871633 
3108.000000	1.873111 
3107.000000	1.874566 
3106.000000	1.876020 
3105.000000	1.877522 
3104.000000	1.879072 
3103.000000	1.880621 
3102.000000	1.882171 
3101.000000	1.883792 
3100.000000	1.885461 
3099.000000	1.887202 
3098.000000	1.889038 
3097.000000	1.891040 
3096.000000	1.893210 
3095.000000	1.895570 
3094.000000	1.898145 
3093.000000	1.900911 
3092.000000	1.903796 
3091.000000	1.906704 
3090.000000	1.909565 
3089.000000	1.912283 
3088.000000	1.914787 
3087.000000	1.916980 
3086.000000	1.918888 
3085.000000	1.920461 
3084.000000	1.921796 
3083.000000	1.922893 
3082.000000	1.923894 
3081.000000	1.924872 
3080.000000	1.925873 
3079.000000	1.926994 
3078.000000	1.928257 
3077.000000	1.929688 
3076.000000	1.931262 
3075.000000	1.932930 
3074.000000	1.934576 
3073.000000	1.936197 
3072.000000	1.937675 
3071.000000	1.939010 
3070.000000	1.940131 
3069.000000	1.941108 
3068.000000	1.941967 
3067.000000	1.942753 
3066.000000	1.943588 
3065.000000	1.944494 
3064.000000	1.945543 
3063.000000	1.946783 
3062.000000	1.948237 
3061.000000	1.949834 
3060.000000	1.951575 
3059.000000	1.953458 
3058.000000	1.955413 
3057.000000	1.957416 
3056.000000	1.959395 
3055.000000	1.961374 
3054.000000	1.963353 
3053.000000	1.965308 
3052.000000	1.967239 
3051.000000	1.969170 
3050.000000	1.971101 
3049.000000	1.972961 
3048.000000	1.974797 
3047.000000	1.976466 
3046.000000	1.978063 
3045.000000	1.979494 
3044.000000	1.980805 
3043.000000	1.981925 
3042.000000	1.982975 
3041.000000	1.983928 
3040.000000	1.984858 
3039.000000	1.985740 
3038.000000	1.986670 
3037.000000	1.987624 
3036.000000	1.988530 
3035.000000	1.989316 
3034.000000	1.989936 
3033.000000	1.990365 
3032.000000	1.990437 
3031.000000	1.990151 
3030.000000	1.989436 
3029.000000	1.988363 
3028.000000	1.986956 
3027.000000	1.985168 
3026.000000	1.983165 
3025.000000	1.980996 
3024.000000	1.978754 
3023.000000	1.976585 
3022.000000	1.974654 
3021.000000	1.973104 
3020.000000	1.972055 
3019.000000	1.971721 
3018.000000	1.972198 
3017.000000	1.973533 
3016.000000	1.975822 
3015.000000	1.978993 
3014.000000	1.982951 
3013.000000	1.987504 
3012.000000	1.992487 
3011.000000	1.997685 
3010.000000	2.002835 
3009.000000	2.007818 
3008.000000	2.012419 
3007.000000	2.016592 
3006.000000	2.020287 
3005.000000	2.023458 
3004.000000	2.026200 
3003.000000	2.028489 
3002.000000	2.030467 
3001.000000	2.032160 
3000.000000	2.033662 
2999.000000	2.035045 
2998.000000	2.036237 
2997.000000	2.037286 
2996.000000	2.038216 
2995.000000	2.038931 
2994.000000	2.039456 
2993.000000	2.039718 
2992.000000	2.039766 
2991.000000	2.039599 
2990.000000	2.039217 
2989.000000	2.038645 
2988.000000	2.037930 
2987.000000	2.037024 
2986.000000	2.035951 
2985.000000	2.034735 
2984.000000	2.033352 
2983.000000	2.031803 
2982.000000	2.030110 
2981.000000	2.028179 
2980.000000	2.026033 
2979.000000	2.023601 
2978.000000	2.020764 
2977.000000	2.017545 
2976.000000	2.013874 
2975.000000	2.009701 
2974.000000	2.005052 
2973.000000	1.999950 
2972.000000	1.994514 
2971.000000	1.988792 
2970.000000	1.982855 
2969.000000	1.976871 
2968.000000	1.970934 
2967.000000	1.965141 
2966.000000	1.959609 
2965.000000	1.954460 
2964.000000	1.949739 
2963.000000	1.945495 
2962.000000	1.941800 
2961.000000	1.938724 
2960.000000	1.936221 
2959.000000	1.934266 
2958.000000	1.932811 
2957.000000	1.931738 
2956.000000	1.930952 
2955.000000	1.930284 
2954.000000	1.929593 
2953.000000	1.928734 
2952.000000	1.927542 
2951.000000	1.925873 
2950.000000	1.923608 
2949.000000	1.920628 
2948.000000	1.916861 
2947.000000	1.912260 
2946.000000	1.906752 
2945.000000	1.900362 
2944.000000	1.893162 
2943.000000	1.885247 
2942.000000	1.876711 
2941.000000	1.867771 
2940.000000	1.858592 
2939.000000	1.849412 
2938.000000	1.840305 
2937.000000	1.831531 
2936.000000	1.823115 
2935.000000	1.815104 
2934.000000	1.807498 
2933.000000	1.800346 
2932.000000	1.793622 
2931.000000	1.787400 
2930.000000	1.781845 
2929.000000	1.777148 
2928.000000	1.773548 
2927.000000	1.771402 
2926.000000	1.770949 
2925.000000	1.772427 
2924.000000	1.776027 
2923.000000	1.781702 
2922.000000	1.789379 
2921.000000	1.798868 
2920.000000	1.809859 
2919.000000	1.821899 
2918.000000	1.834583 
2917.000000	1.847505 
2916.000000	1.860260 
2915.000000	1.872515 
2914.000000	1.884078 
2913.000000	1.894807 
2912.000000	1.904654 
2911.000000	1.913571 
2910.000000	1.921653 
2909.000000	1.928949 
2908.000000	1.935458 
2907.000000	1.941275 
2906.000000	1.946496 
2905.000000	1.951169 
2904.000000	1.955342 
2903.000000	1.959133 
2902.000000	1.962590 
2901.000000	1.965856 
2900.000000	1.968979 
2899.000000	1.972103 
2898.000000	1.975250 
2897.000000	1.978445 
2896.000000	1.981711 
2895.000000	1.985025 
2894.000000	1.988291 
2893.000000	1.991438 
2892.000000	1.994490 
2891.000000	1.997351 
2890.000000	1.999974 
2889.000000	2.002382 
2888.000000	2.004599 
2887.000000	2.006673 
2886.000000	2.008557 
2885.000000	2.010369 
2884.000000	2.011990 
2883.000000	2.013444 
2882.000000	2.014613 
2881.000000	2.015423 
2880.000000	2.015805 
2879.000000	2.015686 
2878.000000	2.014899 
2877.000000	2.013373 
2876.000000	2.011060 
2875.000000	2.007865 
2874.000000	2.003741 
2873.000000	1.998615 
2872.000000	1.992464 
2871.000000	1.985287 
2870.000000	1.977157 
2869.000000	1.968264 
2868.000000	1.958775 
2867.000000	1.949071 
2866.000000	1.939582 
2865.000000	1.930785 
2864.000000	1.923155 
2863.000000	1.917171 
2862.000000	1.913142 
2861.000000	1.911377 
2860.000000	1.911878 
2859.000000	1.914644 
2858.000000	1.919436 
2857.000000	1.926040 
2856.000000	1.934051 
2855.000000	1.943206 
2854.000000	1.953172 
2853.000000	1.963734 
2852.000000	1.974582 
2851.000000	1.985573 
2850.000000	1.996517 
2849.000000	2.007293 
2848.000000	2.017760 
2847.000000	2.027702 
2846.000000	2.037096 
2845.000000	2.045869 
2844.000000	2.053928 
2843.000000	2.061367 
2842.000000	2.068161 
2841.000000	2.074384 
2840.000000	2.080082 
2839.000000	2.085399 
2838.000000	2.090311 
2837.000000	2.094936 
2836.000000	2.099323 
2835.000000	2.103519 
2834.000000	2.107453 
2833.000000	2.111196 
2832.000000	2.114725 
2831.000000	2.118062 
2830.000000	2.121210 
2829.000000	2.124166 
2828.000000	2.127051 
2827.000000	2.129912 
2826.000000	2.132821 
2825.000000	2.135825 
2824.000000	2.138924 
2823.000000	2.142190 
2822.000000	2.145504 
2821.000000	2.148818 
2820.000000	2.152037 
2819.000000	2.155065 
2818.000000	2.157855 
2817.000000	2.160334 
2816.000000	2.162599 
2815.000000	2.164626 
2814.000000	2.166438 
2813.000000	2.168178 
2812.000000	2.169895 
2811.000000	2.171635 
2810.000000	2.173352 
2809.000000	2.175116 
2808.000000	2.176928 
2807.000000	2.178740 
2806.000000	2.180552 
2805.000000	2.182316 
2804.000000	2.184081 
2803.000000	2.185750 
2802.000000	2.187347 
2801.000000	2.188825 
2800.000000	2.190232 
2799.000000	2.191543 
2798.000000	2.192759 
2797.000000	2.193951 
2796.000000	2.195191 
2795.000000	2.196478 
2794.000000	2.197885 
2793.000000	2.199411 
2792.000000	2.201151 
2791.000000	2.203083 
2790.000000	2.205228 
2789.000000	2.207541 
2788.000000	2.210044 
2787.000000	2.212715 
2786.000000	2.215456 
2785.000000	2.218174 
2784.000000	2.220845 
2783.000000	2.223420 
2782.000000	2.225780 
2781.000000	2.227878 
2780.000000	2.229690 
2779.000000	2.231192 
2778.000000	2.232408 
2777.000000	2.233457 
2776.000000	2.234339 
2775.000000	2.235150 
2774.000000	2.235960 
2773.000000	2.236866 
2772.000000	2.237868 
2771.000000	2.239012 
2770.000000	2.240276 
2769.000000	2.241635 
2768.000000	2.243089 
2767.000000	2.244567 
2766.000000	2.246046 
2765.000000	2.247452 
2764.000000	2.248835 
2763.000000	2.250146 
2762.000000	2.251315 
2761.000000	2.252388 
2760.000000	2.253365 
2759.000000	2.254247 
2758.000000	2.255010 
2757.000000	2.255702 
2756.000000	2.256321 
2755.000000	2.256894 
2754.000000	2.257418 
2753.000000	2.257895 
2752.000000	2.258348 
2751.000000	2.258777 
2750.000000	2.259135 
2749.000000	2.259469 
2748.000000	2.259731 
2747.000000	2.259993 
2746.000000	2.260279 
2745.000000	2.260637 
2744.000000	2.261066 
2743.000000	2.261590 
2742.000000	2.262282 
2741.000000	2.263092 
2740.000000	2.263975 
2739.000000	2.264881 
2738.000000	2.265763 
2737.000000	2.266526 
2736.000000	2.267169 
2735.000000	2.267599 
2734.000000	2.267837 
2733.000000	2.267909 
2732.000000	2.267789 
2731.000000	2.267551 
2730.000000	2.267241 
2729.000000	2.266836 
2728.000000	2.266454 
2727.000000	2.266049 
2726.000000	2.265667 
2725.000000	2.265262 
2724.000000	2.264857 
2723.000000	2.264451 
2722.000000	2.264046 
2721.000000	2.263665 
2720.000000	2.263307 
2719.000000	2.262997 
2718.000000	2.262783 
2717.000000	2.262616 
2716.000000	2.262520 
2715.000000	2.262473 
2714.000000	2.262401 
2713.000000	2.262330 
2712.000000	2.262163 
2711.000000	2.261829 
2710.000000	2.261352 
2709.000000	2.260708 
2708.000000	2.259898 
2707.000000	2.258920 
2706.000000	2.257871 
2705.000000	2.256798 
2704.000000	2.255725 
2703.000000	2.254748 
2702.000000	2.253842 
2701.000000	2.253079 
2700.000000	2.252459 
2699.000000	2.251958 
2698.000000	2.251529 
2697.000000	2.251243 
2696.000000	2.251052 
2695.000000	2.250933 
2694.000000	2.250790 
2693.000000	2.250647 
2692.000000	2.250480 
2691.000000	2.250218 
2690.000000	2.249860 
2689.000000	2.249360 
2688.000000	2.248787 
2687.000000	2.248096 
2686.000000	2.247405 
2685.000000	2.246689 
2684.000000	2.246046 
2683.000000	2.245450 
2682.000000	2.244925 
2681.000000	2.244496 
2680.000000	2.244091 
2679.000000	2.243661 
2678.000000	2.243208 
2677.000000	2.242708 
2676.000000	2.242159 
2675.000000	2.241587 
2674.000000	2.240967 
2673.000000	2.240371 
2672.000000	2.239775 
2671.000000	2.239179 
2670.000000	2.238583 
2669.000000	2.237987 
2668.000000	2.237367 
2667.000000	2.236628 
2666.000000	2.235841 
2665.000000	2.234983 
2664.000000	2.234053 
2663.000000	2.233028 
2662.000000	2.232003 
2661.000000	2.230978 
2660.000000	2.230024 
2659.000000	2.229142 
2658.000000	2.228355 
2657.000000	2.227735 
2656.000000	2.227187 
2655.000000	2.226758 
2654.000000	2.226424 
2653.000000	2.226161 
2652.000000	2.225971 
2651.000000	2.225828 
2650.000000	2.225732 
2649.000000	2.225732 
2648.000000	2.225756 
2647.000000	2.225828 
2646.000000	2.225947 
2645.000000	2.226090 
2644.000000	2.226209 
2643.000000	2.226305 
2642.000000	2.226305 
2641.000000	2.226233 
2640.000000	2.226090 
2639.000000	2.225947 
2638.000000	2.225804 
2637.000000	2.225685 
2636.000000	2.225613 
2635.000000	2.225613 
2634.000000	2.225685 
2633.000000	2.225804 
2632.000000	2.225923 
2631.000000	2.226018 
2630.000000	2.226090 
2629.000000	2.226161 
2628.000000	2.226257 
2627.000000	2.226352 
2626.000000	2.226471 
2625.000000	2.226662 
2624.000000	2.226924 
2623.000000	2.227234 
2622.000000	2.227616 
2621.000000	2.228045 
2620.000000	2.228546 
2619.000000	2.229094 
2618.000000	2.229666 
2617.000000	2.230310 
2616.000000	2.230954 
2615.000000	2.231597 
2614.000000	2.232217 
2613.000000	2.232766 
2612.000000	2.233290 
2611.000000	2.233743 
2610.000000	2.234148 
2609.000000	2.234530 
2608.000000	2.234864 
2607.000000	2.235174 
2606.000000	2.235388 
2605.000000	2.235484 
2604.000000	2.235507 
2603.000000	2.235460 
2602.000000	2.235341 
2601.000000	2.235198 
2600.000000	2.235102 
2599.000000	2.235150 
2598.000000	2.235341 
2597.000000	2.235746 
2596.000000	2.236318 
2595.000000	2.237010 
2594.000000	2.237844 
2593.000000	2.238726 
2592.000000	2.239680 
2591.000000	2.240633 
2590.000000	2.241539 
2589.000000	2.242493 
2588.000000	2.243518 
2587.000000	2.244639 
2586.000000	2.245855 
2585.000000	2.247214 
2584.000000	2.248692 
2583.000000	2.250313 
2582.000000	2.252078 
2581.000000	2.253913 
2580.000000	2.255797 
2579.000000	2.257728 
2578.000000	2.259635 
2577.000000	2.261471 
2576.000000	2.263259 
2575.000000	2.264928 
2574.000000	2.266502 
2573.000000	2.267956 
2572.000000	2.269291 
2571.000000	2.270579 
2570.000000	2.271795 
2569.000000	2.272939 
2568.000000	2.274060 
2567.000000	2.275133 
2566.000000	2.276158 
2565.000000	2.277207 
2564.000000	2.278208 
2563.000000	2.279233 
2562.000000	2.280259 
2561.000000	2.281379 
2560.000000	2.282524 
2559.000000	2.283716 
2558.000000	2.284979 
2557.000000	2.286291 
2556.000000	2.287650 
2555.000000	2.289080 
2554.000000	2.290534 
2553.000000	2.292037 
2552.000000	2.293634 
2551.000000	2.295279 
2550.000000	2.296924 
2549.000000	2.298545 
2548.000000	2.300167 
2547.000000	2.301669 
2546.000000	2.303028 
2545.000000	2.304244 
2544.000000	2.305293 
2543.000000	2.306246 
2542.000000	2.307081 
2541.000000	2.307868 
2540.000000	2.308630 
2539.000000	2.309393 
2538.000000	2.310204 
2537.000000	2.311062 
2536.000000	2.311897 
2535.000000	2.312731 
2534.000000	2.313566 
2533.000000	2.314424 
2532.000000	2.315306 
2531.000000	2.316236 
2530.000000	2.317237 
2529.000000	2.318310 
2528.000000	2.319502 
2527.000000	2.320718 
2526.000000	2.321958 
2525.000000	2.323174 
2524.000000	2.324295 
2523.000000	2.325344 
2522.000000	2.326250 
2521.000000	2.327060 
2520.000000	2.327704 
2519.000000	2.328276 
2518.000000	2.328777 
2517.000000	2.329230 
2516.000000	2.329611 
2515.000000	2.329945 
2514.000000	2.330231 
2513.000000	2.330493 
2512.000000	2.330732 
2511.000000	2.330946 
2510.000000	2.331233 
2509.000000	2.331471 
2508.000000	2.331781 
2507.000000	2.332067 
2506.000000	2.332401 
2505.000000	2.332711 
2504.000000	2.333045 
2503.000000	2.333331 
2502.000000	2.333664 
2501.000000	2.333903 
2500.000000	2.334165 
2499.000000	2.334427 
2498.000000	2.334690 
2497.000000	2.334928 
2496.000000	2.335143 
2495.000000	2.335309 
2494.000000	2.335429 
2493.000000	2.335453 
2492.000000	2.335405 
2491.000000	2.335262 
2490.000000	2.335071 
2489.000000	2.334833 
2488.000000	2.334523 
2487.000000	2.334213 
2486.000000	2.333879 
2485.000000	2.333593 
2484.000000	2.333259 
2483.000000	2.332973 
2482.000000	2.332615 
2481.000000	2.332210 
2480.000000	2.331781 
2479.000000	2.331256 
2478.000000	2.330636 
2477.000000	2.329993 
2476.000000	2.329301 
2475.000000	2.328610 
2474.000000	2.327966 
2473.000000	2.327418 
2472.000000	2.326941 
2471.000000	2.326560 
2470.000000	2.326202 
2469.000000	2.325820 
2468.000000	2.325415 
2467.000000	2.324867 
2466.000000	2.324175 
2465.000000	2.323365 
2464.000000	2.322411 
2463.000000	2.321410 
2462.000000	2.320408 
2461.000000	2.319407 
2460.000000	2.318477 
2459.000000	2.317571 
2458.000000	2.316737 
2457.000000	2.315926 
2456.000000	2.315044 
2455.000000	2.314090 
2454.000000	2.313065 
2453.000000	2.311897 
2452.000000	2.310657 
2451.000000	2.309370 
2450.000000	2.308106 
2449.000000	2.306866 
2448.000000	2.305722 
2447.000000	2.304649 
2446.000000	2.303600 
2445.000000	2.302598 
2444.000000	2.301526 
2443.000000	2.300405 
2442.000000	2.299213 
2441.000000	2.297949 
2440.000000	2.296638 
2439.000000	2.295327 
2438.000000	2.294039 
2437.000000	2.292776 
2436.000000	2.291560 
2435.000000	2.290368 
2434.000000	2.289199 
2433.000000	2.288031 
2432.000000	2.286887 
2431.000000	2.285742 
2430.000000	2.284598 
2429.000000	2.283525 
2428.000000	2.282500 
2427.000000	2.281594 
2426.000000	2.280759 
2425.000000	2.279996 
2424.000000	2.279233 
2423.000000	2.278542 
2422.000000	2.277874 
2421.000000	2.277135 
2420.000000	2.276372 
2419.000000	2.275562 
2418.000000	2.274703 
2417.000000	2.273797 
2416.000000	2.272891 
2415.000000	2.271962 
2414.000000	2.271056 
2413.000000	2.270126 
2412.000000	2.269244 
2411.000000	2.268338 
2410.000000	2.267456 
2409.000000	2.266573 
2408.000000	2.265715 
2407.000000	2.264904 
2406.000000	2.264118 
2405.000000	2.263402 
2404.000000	2.262759 
2403.000000	2.262187 
2402.000000	2.261710 
2401.000000	2.261257 
2400.000000	2.260828 
2399.000000	2.260327 
2398.000000	2.259731 
2397.000000	2.259039 
2396.000000	2.258253 
2395.000000	2.257394 
2394.000000	2.256512 
2393.000000	2.255654 
2392.000000	2.254915 
2391.000000	2.254271 
2390.000000	2.253818 
2389.000000	2.253508 
2388.000000	2.253317 
2387.000000	2.253270 
2386.000000	2.253270 
2385.000000	2.253317 
2384.000000	2.253365 
2383.000000	2.253365 
2382.000000	2.253317 
2381.000000	2.253222 
2380.000000	2.253007 
2379.000000	2.252650 
2378.000000	2.252149 
2377.000000	2.251482 
2376.000000	2.250647 
2375.000000	2.249670 
2374.000000	2.248597 
2373.000000	2.247476 
2372.000000	2.246332 
2371.000000	2.245235 
2370.000000	2.244210 
2369.000000	2.243304 
2368.000000	2.242517 
2367.000000	2.241897 
2366.000000	2.241444 
2365.000000	2.241182 
2364.000000	2.241086 
2363.000000	2.241182 
2362.000000	2.241516 
2361.000000	2.242112 
2360.000000	2.242994 
2359.000000	2.244234 
2358.000000	2.245783 
2357.000000	2.247667 
2356.000000	2.249836 
2355.000000	2.252268 
2354.000000	2.254843 
2353.000000	2.257442 
2352.000000	2.259898 
2351.000000	2.262163 
2350.000000	2.264094 
2349.000000	2.265667 
2348.000000	2.266860 
2347.000000	2.267670 
2346.000000	2.268218 
2345.000000	2.268552 
2344.000000	2.268815 
2343.000000	2.269148 
2342.000000	2.269554 
2341.000000	2.270174 
2340.000000	2.271032 
2339.000000	2.272129 
2338.000000	2.273464 
2337.000000	2.274942 
2336.000000	2.276611 
2335.000000	2.278399 
2334.000000	2.280187 
2333.000000	2.282023 
2332.000000	2.283883 
2331.000000	2.285766 
2330.000000	2.287721 
2329.000000	2.289676 
2328.000000	2.291750 
2327.000000	2.293848 
2326.000000	2.295970 
2325.000000	2.298116 
2324.000000	2.300238 
2323.000000	2.302312 
2322.000000	2.304387 
2321.000000	2.306413 
2320.000000	2.308392 
2319.000000	2.310347 
2318.000000	2.312326 
2317.000000	2.314305 
2316.000000	2.316379 
2315.000000	2.318453 
2314.000000	2.320599 
2313.000000	2.322769 
2312.000000	2.324938 
2311.000000	2.327060 
2310.000000	2.329134 
2309.000000	2.331066 
2308.000000	2.332901 
2307.000000	2.334594 
2306.000000	2.336192 
2305.000000	2.337741 
2304.000000	2.339291 
2303.000000	2.340841 
2302.000000	2.342486 
2301.000000	2.344202 
2300.000000	2.345967 
2299.000000	2.347755 
2298.000000	2.349543 
2297.000000	2.351236 
2296.000000	2.352809 
2295.000000	2.354240 
2294.000000	2.355527 
2293.000000	2.356672 
2292.000000	2.357697 
2291.000000	2.358675 
2290.000000	2.359628 
2289.000000	2.360582 
2288.000000	2.361559 
2287.000000	2.362608 
2286.000000	2.363705 
2285.000000	2.364850 
2284.000000	2.366018 
2283.000000	2.367258 
2282.000000	2.368474 
2281.000000	2.369689 
2280.000000	2.370834 
2279.000000	2.371954 
2278.000000	2.372980 
2277.000000	2.373909 
2276.000000	2.374815 
2275.000000	2.375674 
2274.000000	2.376484 
2273.000000	2.377271 
2272.000000	2.378058 
2271.000000	2.378869 
2270.000000	2.379679 
2269.000000	2.380466 
2268.000000	2.381253 
2267.000000	2.381992 
2266.000000	2.382683 
2265.000000	2.383303 
2264.000000	2.383875 
2263.000000	2.384424 
2262.000000	2.384948 
2261.000000	2.385473 
2260.000000	2.386021 
2259.000000	2.386569 
2258.000000	2.387142 
2257.000000	2.387690 
2256.000000	2.388191 
2255.000000	2.388596 
2254.000000	2.388906 
2253.000000	2.389144 
2252.000000	2.389287 
2251.000000	2.389311 
2250.000000	2.389287 
2249.000000	2.389287 
2248.000000	2.389311 
2247.000000	2.389359 
2246.000000	2.389502 
2245.000000	2.389669 
2244.000000	2.389883 
2243.000000	2.390098 
2242.000000	2.390265 
2241.000000	2.390336 
2240.000000	2.390289 
2239.000000	2.390074 
2238.000000	2.389693 
2237.000000	2.389168 
2236.000000	2.388501 
2235.000000	2.387690 
2234.000000	2.386879 
2233.000000	2.386093 
2232.000000	2.385377 
2231.000000	2.384805 
2230.000000	2.384376 
2229.000000	2.384138 
2228.000000	2.383971 
2227.000000	2.383875 
2226.000000	2.383756 
2225.000000	2.383613 
2224.000000	2.383327 
2223.000000	2.382922 
2222.000000	2.382373 
2221.000000	2.381777 
2220.000000	2.381086 
2219.000000	2.380442 
2218.000000	2.379822 
2217.000000	2.379250 
2216.000000	2.378749 
2215.000000	2.378273 
2214.000000	2.377748 
2213.000000	2.377223 
2212.000000	2.376604 
2211.000000	2.375912 
2210.000000	2.375125 
2209.000000	2.374243 
2208.000000	2.373313 
2207.000000	2.372288 
2206.000000	2.371191 
2205.000000	2.370023 
2204.000000	2.368760 
2203.000000	2.367472 
2202.000000	2.366209 
2201.000000	2.364993 
2200.000000	2.363824 
2199.000000	2.362728 
2198.000000	2.361726 
2197.000000	2.360820 
2196.000000	2.360010 
2195.000000	2.359294 
2194.000000	2.358651 
2193.000000	2.358007 
2192.000000	2.357411 
2191.000000	2.356791 
2190.000000	2.356147 
2189.000000	2.355432 
2188.000000	2.354717 
2187.000000	2.353930 
2186.000000	2.353119 
2185.000000	2.352285 
2184.000000	2.351546 
2183.000000	2.350831 
2182.000000	2.350211 
2181.000000	2.349686 
2180.000000	2.349233 
2179.000000	2.348852 
2178.000000	2.348470 
2177.000000	2.348041 
2176.000000	2.347612 
2175.000000	2.347087 
2174.000000	2.346539 
2173.000000	2.345967 
2172.000000	2.345371 
2171.000000	2.344822 
2170.000000	2.344322 
2169.000000	2.343916 
2168.000000	2.343535 
2167.000000	2.343273 
2166.000000	2.343058 
2165.000000	2.342867 
2164.000000	2.342677 
2163.000000	2.342486 
2162.000000	2.342319 
2161.000000	2.342152 
2160.000000	2.341985 
2159.000000	2.341866 
2158.000000	2.341699 
2157.000000	2.341580 
2156.000000	2.341556 
2155.000000	2.341508 
2154.000000	2.341508 
2153.000000	2.341556 
2152.000000	2.341628 
2151.000000	2.341747 
2150.000000	2.341890 
2149.000000	2.342081 
2148.000000	2.342295 
2147.000000	2.342462 
2146.000000	2.342581 
2145.000000	2.342653 
2144.000000	2.342700 
2143.000000	2.342653 
2142.000000	2.342557 
2141.000000	2.342438 
2140.000000	2.342271 
2139.000000	2.342033 
2138.000000	2.341747 
2137.000000	2.341413 
2136.000000	2.341032 
2135.000000	2.340674 
2134.000000	2.340340 
2133.000000	2.340078 
2132.000000	2.339935 
2131.000000	2.339887 
2130.000000	2.339982 
2129.000000	2.340221 
2128.000000	2.340531 
2127.000000	2.340865 
2126.000000	2.341198 
2125.000000	2.341508 
2124.000000	2.341723 
2123.000000	2.341914 
2122.000000	2.342033 
2121.000000	2.342057 
2120.000000	2.342128 
2119.000000	2.342176 
2118.000000	2.342247 
2117.000000	2.342343 
2116.000000	2.342486 
2115.000000	2.342677 
2114.000000	2.342891 
2113.000000	2.343106 
2112.000000	2.343392 
2111.000000	2.343678 
2110.000000	2.343964 
2109.000000	2.344250 
2108.000000	2.344536 
2107.000000	2.344799 
2106.000000	2.345085 
2105.000000	2.345347 
2104.000000	2.345561 
2103.000000	2.345728 
2102.000000	2.345800 
2101.000000	2.345800 
2100.000000	2.345728 
2099.000000	2.345609 
2098.000000	2.345442 
2097.000000	2.345252 
2096.000000	2.345132 
2095.000000	2.345013 
2094.000000	2.344965 
2093.000000	2.344918 
2092.000000	2.344989 
2091.000000	2.345061 
2090.000000	2.345180 
2089.000000	2.345418 
2088.000000	2.345776 
2087.000000	2.346324 
2086.000000	2.347040 
2085.000000	2.347898 
2084.000000	2.348947 
2083.000000	2.350044 
2082.000000	2.351140 
2081.000000	2.352166 
2080.000000	2.353167 
2079.000000	2.354121 
2078.000000	2.355074 
2077.000000	2.356076 
2076.000000	2.357220 
2075.000000	2.358531 
2074.000000	2.360081 
2073.000000	2.361822 
2072.000000	2.363753 
2071.000000	2.365875 
2070.000000	2.368021 
2069.000000	2.370238 
2068.000000	2.372503 
2067.000000	2.374720 
2066.000000	2.376914 
2065.000000	2.379107 
2064.000000	2.381324 
2063.000000	2.383518 
2062.000000	2.385687 
2061.000000	2.387857 
2060.000000	2.389979 
2059.000000	2.392029 
2058.000000	2.394032 
2057.000000	2.395939 
2056.000000	2.397847 
2055.000000	2.399730 
2054.000000	2.401638 
2053.000000	2.403593 
2052.000000	2.405595 
2051.000000	2.407670 
2050.000000	2.409839 
2049.000000	2.412056 
2048.000000	2.414298 
2047.000000	2.416563 
2046.000000	2.418804 
2045.000000	2.420973 
2044.000000	2.423095 
2043.000000	2.425122 
2042.000000	2.427101 
2041.000000	2.428984 
2040.000000	2.430748 
2039.000000	2.432441 
2038.000000	2.434086 
2037.000000	2.435588 
2036.000000	2.437067 
2035.000000	2.438426 
2034.000000	2.439641 
2033.000000	2.440738 
2032.000000	2.441692 
2031.000000	2.442550 
2030.000000	2.443289 
2029.000000	2.443909 
2028.000000	2.444481 
2027.000000	2.445030 
2026.000000	2.445578 
2025.000000	2.446198 
2024.000000	2.446866 
2023.000000	2.447605 
2022.000000	2.448439 
2021.000000	2.449274 
2020.000000	2.450156 
2019.000000	2.451086 
2018.000000	2.452015 
2017.000000	2.452898 
2016.000000	2.453708 
2015.000000	2.454519 
2014.000000	2.455282 
2013.000000	2.455973 
2012.000000	2.456617 
2011.000000	2.457189 
2010.000000	2.457690 
2009.000000	2.458119 
2008.000000	2.458477 
2007.000000	2.458739 
2006.000000	2.458977 
2005.000000	2.459239 
2004.000000	2.459502 
2003.000000	2.459812 
2002.000000	2.460169 
2001.000000	2.460622 
2000.000000	2.461147 
1999.000000	2.461695 
1998.000000	2.462244 
1997.000000	2.462720 
1996.000000	2.463150 
1995.000000	2.463412 
1994.000000	2.463483 
1993.000000	2.463436 
1992.000000	2.463221 
1991.000000	2.462840 
1990.000000	2.462387 
1989.000000	2.461814 
1988.000000	2.461171 
1987.000000	2.460503 
1986.000000	2.459764 
1985.000000	2.459001 
1984.000000	2.458238 
1983.000000	2.457475 
1982.000000	2.456712 
1981.000000	2.455949 
1980.000000	2.455210 
1979.000000	2.454471 
1978.000000	2.453684 
1977.000000	2.452850 
1976.000000	2.451896 
1975.000000	2.450799 
1974.000000	2.449584 
1973.000000	2.448225 
1972.000000	2.446818 
1971.000000	2.445435 
1970.000000	2.444076 
1969.000000	2.442884 
1968.000000	2.441811 
1967.000000	2.440905 
1966.000000	2.440142 
1965.000000	2.439522 
1964.000000	2.438974 
1963.000000	2.438473 
1962.000000	2.437973 
1961.000000	2.437424 
1960.000000	2.436828 
1959.000000	2.436137 
1958.000000	2.435374 
1957.000000	2.434492 
1956.000000	2.433538 
1955.000000	2.432537 
1954.000000	2.431464 
1953.000000	2.430415 
1952.000000	2.429366 
1951.000000	2.428436 
1950.000000	2.427554 
1949.000000	2.426743 
1948.000000	2.426004 
1947.000000	2.425336 
1946.000000	2.424669 
1945.000000	2.423977 
1944.000000	2.423262 
1943.000000	2.422523 
1942.000000	2.421736 
1941.000000	2.420926 
1940.000000	2.420115 
1939.000000	2.419328 
1938.000000	2.418637 
1937.000000	2.417945 
1936.000000	2.417325 
1935.000000	2.416706 
1934.000000	2.416086 
1933.000000	2.415418 
1932.000000	2.414655 
1931.000000	2.413773 
1930.000000	2.412796 
1929.000000	2.411651 
1928.000000	2.410340 
1927.000000	2.408909 
1926.000000	2.407360 
1925.000000	2.405786 
1924.000000	2.404212 
1923.000000	2.402710 
1922.000000	2.401399 
1921.000000	2.400326 
1920.000000	2.399420 
1919.000000	2.398681 
1918.000000	2.398085 
1917.000000	2.397513 
1916.000000	2.396917 
1915.000000	2.396202 
1914.000000	2.395319 
1913.000000	2.394270 
1912.000000	2.393054 
1911.000000	2.391791 
1910.000000	2.390503 
1909.000000	2.389264 
1908.000000	2.388119 
1907.000000	2.387094 
1906.000000	2.386188 
1905.000000	2.385377 
1904.000000	2.384614 
1903.000000	2.383852 
1902.000000	2.383112 
1901.000000	2.382349 
1900.000000	2.381587 
1899.000000	2.380871 
1898.000000	2.380156 
1897.000000	2.379441 
1896.000000	2.378749 
1895.000000	2.378106 
1894.000000	2.377486 
1893.000000	2.376890 
1892.000000	2.376365 
1891.000000	2.375936 
1890.000000	2.375578 
1889.000000	2.375411 
1888.000000	2.375459 
1887.000000	2.375721 
1886.000000	2.376294 
1885.000000	2.377033 
1884.000000	2.377986 
1883.000000	2.379059 
1882.000000	2.380132 
1881.000000	2.381181 
1880.000000	2.382087 
1879.000000	2.382826 
1878.000000	2.383375 
1877.000000	2.383661 
1876.000000	2.383732 
1875.000000	2.383565 
1874.000000	2.383255 
1873.000000	2.382874 
1872.000000	2.382516 
1871.000000	2.382254 
1870.000000	2.382159 
1869.000000	2.382373 
1868.000000	2.382898 
1867.000000	2.383828 
1866.000000	2.385067 
1865.000000	2.386546 
1864.000000	2.388215 
1863.000000	2.389931 
1862.000000	2.391552 
1861.000000	2.393078 
1860.000000	2.394318 
1859.000000	2.395296 
1858.000000	2.396059 
1857.000000	2.396583 
1856.000000	2.396965 
1855.000000	2.397274 
1854.000000	2.397489 
1853.000000	2.397704 
1852.000000	2.397918 
1851.000000	2.398085 
1850.000000	2.398228 
1849.000000	2.398347 
1848.000000	2.398467 
1847.000000	2.398681 
1846.000000	2.398991 
1845.000000	2.399563 
1844.000000	2.400422 
1843.000000	2.401542 
1842.000000	2.402925 
1841.000000	2.404499 
1840.000000	2.406167 
1839.000000	2.407813 
1838.000000	2.409267 
1837.000000	2.410531 
1836.000000	2.411532 
1835.000000	2.412271 
1834.000000	2.412796 
1833.000000	2.413177 
1832.000000	2.413439 
1831.000000	2.413678 
1830.000000	2.414011 
1829.000000	2.414464 
1828.000000	2.415084 
1827.000000	2.415919 
1826.000000	2.416944 
1825.000000	2.418184 
1824.000000	2.419567 
1823.000000	2.421069 
1822.000000	2.422642 
1821.000000	2.424168 
1820.000000	2.425622 
1819.000000	2.426934 
1818.000000	2.428102 
1817.000000	2.429127 
1816.000000	2.430033 
1815.000000	2.430868 
1814.000000	2.431654 
1813.000000	2.432465 
1812.000000	2.433252 
1811.000000	2.434110 
1810.000000	2.434873 
1809.000000	2.435517 
1808.000000	2.435994 
1807.000000	2.436304 
1806.000000	2.436423 
1805.000000	2.436375 
1804.000000	2.436256 
1803.000000	2.436065 
1802.000000	2.435827 
1801.000000	2.435588 
1800.000000	2.435278 
1799.000000	2.434921 
1798.000000	2.434468 
1797.000000	2.433943 
1796.000000	2.433395 
1795.000000	2.432918 
1794.000000	2.432537 
1793.000000	2.432417 
1792.000000	2.432489 
1791.000000	2.432823 
1790.000000	2.433347 
1789.000000	2.434015 
1788.000000	2.434635 
1787.000000	2.435183 
1786.000000	2.435588 
1785.000000	2.435779 
1784.000000	2.435779 
1783.000000	2.435541 
1782.000000	2.434992 
1781.000000	2.434182 
1780.000000	2.433085 
1779.000000	2.431631 
1778.000000	2.429795 
1777.000000	2.427721 
1776.000000	2.425551 
1775.000000	2.423381 
1774.000000	2.421450 
1773.000000	2.419948 
1772.000000	2.418947 
1771.000000	2.418518 
1770.000000	2.418518 
1769.000000	2.418899 
1768.000000	2.419352 
1767.000000	2.419757 
1766.000000	2.419948 
1765.000000	2.419829 
1764.000000	2.419400 
1763.000000	2.418661 
1762.000000	2.417659 
1761.000000	2.416443 
1760.000000	2.415037 
1759.000000	2.413392 
1758.000000	2.411437 
1757.000000	2.409148 
1756.000000	2.406549 
1755.000000	2.403616 
1754.000000	2.400469 
1753.000000	2.397179 
1752.000000	2.393865 
1751.000000	2.390646 
1750.000000	2.387547 
1749.000000	2.384591 
1748.000000	2.381706 
1747.000000	2.378869 
1746.000000	2.375888 
1745.000000	2.372717 
1744.000000	2.369236 
1743.000000	2.365422 
1742.000000	2.361202 
1741.000000	2.356719 
1740.000000	2.352023 
1739.000000	2.347302 
1738.000000	2.342796 
1737.000000	2.338695 
1736.000000	2.335238 
1735.000000	2.332592 
1734.000000	2.330923 
1733.000000	2.330136 
1732.000000	2.330183 
1731.000000	2.330780 
1730.000000	2.331757 
1729.000000	2.332758 
1728.000000	2.333498 
1727.000000	2.333688 
1726.000000	2.333116 
1725.000000	2.331733 
1724.000000	2.329421 
1723.000000	2.326369 
1722.000000	2.322745 
1721.000000	2.318811 
1720.000000	2.314925 
1719.000000	2.311348 
1718.000000	2.308416 
1717.000000	2.306342 
1716.000000	2.305102 
1715.000000	2.304625 
1714.000000	2.304697 
1713.000000	2.304959 
1712.000000	2.305054 
1711.000000	2.304649 
1710.000000	2.303433 
1709.000000	2.301335 
1708.000000	2.298283 
1707.000000	2.294278 
1706.000000	2.289533 
1705.000000	2.284240 
1704.000000	2.278661 
1703.000000	2.273082 
1702.000000	2.267837 
1701.000000	2.263188 
1700.000000	2.259445 
1699.000000	2.256846 
1698.000000	2.255487 
1697.000000	2.255249 
1696.000000	2.256011 
1695.000000	2.257370 
1694.000000	2.258849 
1693.000000	2.259993 
1692.000000	2.260327 
1691.000000	2.259659 
1690.000000	2.257919 
1689.000000	2.255296 
1688.000000	2.252125 
1687.000000	2.248883 
1686.000000	2.245998 
1685.000000	2.243828 
1684.000000	2.242565 
1683.000000	2.242112 
1682.000000	2.242279 
1681.000000	2.242660 
1680.000000	2.242970 
1679.000000	2.242779 
1678.000000	2.241945 
1677.000000	2.240419 
1676.000000	2.238297 
1675.000000	2.235817 
1674.000000	2.233219 
1673.000000	2.230715 
1672.000000	2.228474 
1671.000000	2.226567 
1670.000000	2.224922 
1669.000000	2.223563 
1668.000000	2.222418 
1667.000000	2.221345 
1666.000000	2.220296 
1665.000000	2.219200 
1664.000000	2.217912 
1663.000000	2.216267 
1662.000000	2.214097 
1661.000000	2.211189 
1660.000000	2.207398 
1659.000000	2.202677 
1658.000000	2.197170 
1657.000000	2.191138 
1656.000000	2.184939 
1655.000000	2.179074 
1654.000000	2.173948 
1653.000000	2.169871 
1652.000000	2.167010 
1651.000000	2.165389 
1650.000000	2.164888 
1649.000000	2.165150 
1648.000000	2.165913 
1647.000000	2.166843 
1646.000000	2.167677 
1645.000000	2.168130 
1644.000000	2.167987 
1643.000000	2.167129 
1642.000000	2.165532 
1641.000000	2.163195 
1640.000000	2.160239 
1639.000000	2.156829 
1638.000000	2.153301 
1637.000000	2.149844 
1636.000000	2.146720 
1635.000000	2.144026 
1634.000000	2.141833 
1633.000000	2.139973 
1632.000000	2.138280 
1631.000000	2.136540 
1630.000000	2.134466 
1629.000000	2.131962 
1628.000000	2.128911 
1627.000000	2.125263 
1626.000000	2.120995 
1625.000000	2.116155 
1624.000000	2.110743 
1623.000000	2.104640 
1622.000000	2.097892 
1621.000000	2.090477 
1620.000000	2.082371 
1619.000000	2.073597 
1618.000000	2.064251 
1617.000000	2.054405 
1616.000000	2.044177 
1615.000000	2.033758 
1614.000000	2.023339 
1613.000000	2.013182 
1612.000000	2.003526 
1611.000000	1.994752 
1610.000000	1.987171 
1609.000000	1.981115 
1608.000000	1.976823 
1607.000000	1.974511 
1606.000000	1.974201 
1605.000000	1.975679 
1604.000000	1.978683 
1603.000000	1.982808 
1602.000000	1.987648 
1601.000000	1.992797 
1600.000000	1.997876 
1599.000000	2.002668 
1598.000000	2.006959 
1597.000000	2.010655 
1596.000000	2.013802 
1595.000000	2.016377 
1594.000000	2.018427 
1593.000000	2.019929 
1592.000000	2.020931 
1591.000000	2.021479 
1590.000000	2.021622 
1589.000000	2.021265 
1588.000000	2.020502 
1587.000000	2.019333 
1586.000000	2.017760 
1585.000000	2.015757 
1584.000000	2.013301 
1583.000000	2.010464 
1582.000000	2.007341 
1581.000000	2.004051 
1580.000000	2.000737 
1579.000000	1.997590 
1578.000000	1.994800 
1577.000000	1.992440 
1576.000000	1.990580 
1575.000000	1.989173 
1574.000000	1.988148 
1573.000000	1.987314 
1572.000000	1.986551 
1571.000000	1.985549 
1570.000000	1.984119 
1569.000000	1.981973 
1568.000000	1.978945 
1567.000000	1.974916 
1566.000000	1.969838 
1565.000000	1.963806 
1564.000000	1.957130 
1563.000000	1.950240 
1562.000000	1.943683 
1561.000000	1.938009 
1560.000000	1.933741 
1559.000000	1.931381 
1558.000000	1.931071 
1557.000000	1.932787 
1556.000000	1.936221 
1555.000000	1.940870 
1554.000000	1.946115 
1553.000000	1.951336 
1552.000000	1.955962 
1551.000000	1.959633 
1550.000000	1.962113 
1549.000000	1.963376 
1548.000000	1.963567 
1547.000000	1.963067 
1546.000000	1.962351 
1545.000000	1.962065 
1544.000000	1.962804 
1543.000000	1.965165 
1542.000000	1.969575 
1541.000000	1.976323 
1540.000000	1.985383 
1539.000000	1.996541 
1538.000000	2.009367 
1537.000000	2.023220 
1536.000000	2.037405 
1535.000000	2.051329 
1534.000000	2.064442 
1533.000000	2.076196 
1532.000000	2.086353 
1531.000000	2.094841 
1530.000000	2.101731 
1529.000000	2.107000 
1528.000000	2.110815 
1527.000000	2.113437 
1526.000000	2.115011 
1525.000000	2.115726 
1524.000000	2.115726 
1523.000000	2.115130 
1522.000000	2.114200 
1521.000000	2.113008 
1520.000000	2.111554 
1519.000000	2.109932 
1518.000000	2.108168 
1517.000000	2.106237 
1516.000000	2.104115 
1515.000000	2.101588 
1514.000000	2.098655 
1513.000000	2.095127 
1512.000000	2.090930 
1511.000000	2.085876 
1510.000000	2.079892 
1509.000000	2.072596 
1508.000000	2.063655 
1507.000000	2.052283 
1506.000000	2.037787 
1505.000000	2.019214 
1504.000000	1.995849 
1503.000000	1.967191 
1502.000000	1.933288 
1501.000000	1.894760 
1500.000000	1.853156 
1499.000000	1.810622 
1498.000000	1.769757 
1497.000000	1.733398 
1496.000000	1.704192 
1495.000000	1.684165 
1494.000000	1.674461 
1493.000000	1.675295 
1492.000000	1.686120 
1491.000000	1.705336 
1490.000000	1.730847 
1489.000000	1.760458 
1488.000000	1.792001 
1487.000000	1.823425 
1486.000000	1.853179 
1485.000000	1.880073 
1484.000000	1.903557 
1483.000000	1.923251 
1482.000000	1.939177 
1481.000000	1.951599 
1480.000000	1.960802 
1479.000000	1.967382 
1478.000000	1.971817 
1477.000000	1.974606 
1476.000000	1.976132 
1475.000000	1.976895 
1474.000000	1.977109 
1473.000000	1.976847 
1472.000000	1.976108 
1471.000000	1.974940 
1470.000000	1.973176 
1469.000000	1.970577 
1468.000000	1.967000 
1467.000000	1.962256 
1466.000000	1.956224 
1465.000000	1.948571 
1464.000000	1.939153 
1463.000000	1.927804 
1462.000000	1.914453 
1461.000000	1.899099 
1460.000000	1.881885 
1459.000000	1.863193 
1458.000000	1.843714 
1457.000000	1.824307 
1456.000000	1.805877 
1455.000000	1.789379 
1454.000000	1.775956 
1453.000000	1.766490 
1452.000000	1.761484 
1451.000000	1.761078 
1450.000000	1.765131 
1449.000000	1.773047 
1448.000000	1.783823 
1447.000000	1.796364 
1446.000000	1.809430 
1445.000000	1.821947 
1444.000000	1.833033 
1443.000000	1.842188 
1442.000000	1.849198 
1441.000000	1.854205 
1440.000000	1.857590 
1439.000000	1.859831 
1438.000000	1.861405 
1437.000000	1.862740 
1436.000000	1.864075 
1435.000000	1.865530 
1434.000000	1.867032 
1433.000000	1.868462 
1432.000000	1.869750 
1431.000000	1.870775 
1430.000000	1.871395 
1429.000000	1.871562 
1428.000000	1.871347 
1427.000000	1.870679 
1426.000000	1.869606 
1425.000000	1.868176 
1424.000000	1.866483 
1423.000000	1.864528 
1422.000000	1.862359 
1421.000000	1.860070 
1420.000000	1.857686 
1419.000000	1.855206 
1418.000000	1.852512 
1417.000000	1.849412 
1416.000000	1.845645 
1415.000000	1.840901 
1414.000000	1.834869 
1413.000000	1.827287 
1412.000000	1.817989 
1411.000000	1.807117 
1410.000000	1.794886 
1409.000000	1.781868 
1408.000000	1.768636 
1407.000000	1.756095 
1406.000000	1.744937 
1405.000000	1.735973 
1404.000000	1.729655 
1403.000000	1.726365 
1402.000000	1.726078 
1401.000000	1.728653 
1400.000000	1.733565 
1399.000000	1.740384 
1398.000000	1.748442 
1397.000000	1.757121 
1396.000000	1.765799 
1395.000000	1.773929 
1394.000000	1.780986 
1393.000000	1.786661 
1392.000000	1.790642 
1391.000000	1.792907 
1390.000000	1.793599 
1389.000000	1.793026 
1388.000000	1.791620 
1387.000000	1.789951 
1386.000000	1.788616 
1385.000000	1.788043 
1384.000000	1.788496 
1383.000000	1.790046 
1382.000000	1.792645 
1381.000000	1.795935 
1380.000000	1.799511 
1379.000000	1.803040 
1378.000000	1.806211 
1377.000000	1.808834 
1376.000000	1.810860 
1375.000000	1.812338 
1374.000000	1.813411 
1373.000000	1.814222 
1372.000000	1.814889 
1371.000000	1.815509 
1370.000000	1.816129 
1369.000000	1.816725 
1368.000000	1.817297 
1367.000000	1.817822 
1366.000000	1.818299 
1365.000000	1.818728 
1364.000000	1.819133 
1363.000000	1.819491 
1362.000000	1.819777 
1361.000000	1.820015 
1360.000000	1.820135 
1359.000000	1.820111 
1358.000000	1.820063 
1357.000000	1.819872 
1356.000000	1.819586 
1355.000000	1.819300 
1354.000000	1.818990 
1353.000000	1.818633 
1352.000000	1.818346 
1351.000000	1.818013 
1350.000000	1.817703 
1349.000000	1.817345 
1348.000000	1.816940 
1347.000000	1.816534 
1346.000000	1.816105 
1345.000000	1.815724 
1344.000000	1.815462 
1343.000000	1.815414 
1342.000000	1.815676 
1341.000000	1.816320 
1340.000000	1.817440 
1339.000000	1.819062 
1338.000000	1.821160 
1337.000000	1.823711 
1336.000000	1.826620 
1335.000000	1.829743 
1334.000000	1.832938 
1333.000000	1.836061 
1332.000000	1.838970 
1331.000000	1.841616 
1330.000000	1.843953 
1329.000000	1.845908 
1328.000000	1.847600 
1327.000000	1.849079 
1326.000000	1.850342 
1325.000000	1.851558 
1324.000000	1.852679 
1323.000000	1.853704 
1322.000000	1.854610 
1321.000000	1.855397 
1320.000000	1.856017 
1319.000000	1.856517 
1318.000000	1.856851 
1317.000000	1.857066 
1316.000000	1.857185 
1315.000000	1.857280 
1314.000000	1.857376 
1313.000000	1.857423 
1312.000000	1.857471 
1311.000000	1.857495 
1310.000000	1.857495 
1309.000000	1.857423 
1308.000000	1.857304 
1307.000000	1.857137 
1306.000000	1.857018 
1305.000000	1.856970 
1304.000000	1.856923 
1303.000000	1.857066 
1302.000000	1.857256 
1301.000000	1.857542 
1300.000000	1.857852 
1299.000000	1.858210 
1298.000000	1.858472 
1297.000000	1.858639 
1296.000000	1.858687 
1295.000000	1.858615 
1294.000000	1.858401 
1293.000000	1.858091 
1292.000000	1.857709 
1291.000000	1.857304 
1290.000000	1.856851 
1289.000000	1.856422 
1288.000000	1.856017 
1287.000000	1.855635 
1286.000000	1.855254 
1285.000000	1.854825 
1284.000000	1.854276 
1283.000000	1.853513 
1282.000000	1.852512 
1281.000000	1.851105 
1280.000000	1.849222 
1279.000000	1.846742 
1278.000000	1.843667 
1277.000000	1.839852 
1276.000000	1.835250 
1275.000000	1.829791 
1274.000000	1.823329 
1273.000000	1.815867 
1272.000000	1.807236 
1271.000000	1.797533 
1270.000000	1.786828 
1269.000000	1.775360 
1268.000000	1.763486 
1267.000000	1.751708 
1266.000000	1.740646 
1265.000000	1.730966 
1264.000000	1.723384 
1263.000000	1.718401 
1262.000000	1.716375 
1261.000000	1.717495 
1260.000000	1.721620 
1259.000000	1.728439 
1258.000000	1.737356 
1257.000000	1.747751 
1256.000000	1.758933 
1255.000000	1.770210 
1254.000000	1.781034 
1253.000000	1.790976 
1252.000000	1.799869 
1251.000000	1.807546 
1250.000000	1.814031 
1249.000000	1.819419 
1248.000000	1.823782 
1247.000000	1.827311 
1246.000000	1.830148 
1245.000000	1.832294 
1244.000000	1.833963 
1243.000000	1.835155 
1242.000000	1.835966 
1241.000000	1.836395 
1240.000000	1.836585 
1239.000000	1.836562 
1238.000000	1.836299 
1237.000000	1.835846 
1236.000000	1.835227 
1235.000000	1.834440 
1234.000000	1.833510 
1233.000000	1.832413 
1232.000000	1.831221 
1231.000000	1.829934 
1230.000000	1.828527 
1229.000000	1.827049 
1228.000000	1.825404 
1227.000000	1.823568 
1226.000000	1.821446 
1225.000000	1.819014 
1224.000000	1.816129 
1223.000000	1.812839 
1222.000000	1.809120 
1221.000000	1.805019 
1220.000000	1.800465 
1219.000000	1.795578 
1218.000000	1.790452 
1217.000000	1.785159 
1216.000000	1.779866 
1215.000000	1.774644 
1214.000000	1.769709 
1213.000000	1.765131 
1212.000000	1.761078 
1211.000000	1.757597 
1210.000000	1.754713 
1209.000000	1.752471 
1208.000000	1.750779 
1207.000000	1.749539 
1206.000000	1.748681 
1205.000000	1.748132 
1204.000000	1.747751 
1203.000000	1.747536 
1202.000000	1.747417 
1201.000000	1.747345 
1200.000000	1.747274 
1199.000000	1.747202 
1198.000000	1.746988 
1197.000000	1.746654 
1196.000000	1.746106 
1195.000000	1.745319 
1194.000000	1.744341 
1193.000000	1.743102 
1192.000000	1.741695 
1191.000000	1.740145 
1190.000000	1.738405 
1189.000000	1.736497 
1188.000000	1.734423 
1187.000000	1.732158 
1186.000000	1.729702 
1185.000000	1.727032 
1184.000000	1.724195 
1183.000000	1.721191 
1182.000000	1.718091 
1181.000000	1.714992 
1180.000000	1.711916 
1179.000000	1.708936 
1178.000000	1.706004 
1177.000000	1.703166 
1176.000000	1.700401 
1175.000000	1.697516 
1174.000000	1.694440 
1173.000000	1.691126 
1172.000000	1.687479 
1171.000000	1.683473 
1170.000000	1.679158 
1169.000000	1.674485 
1168.000000	1.669597 
1167.000000	1.664447 
1166.000000	1.659202 
1165.000000	1.653909 
1164.000000	1.648664 
1163.000000	1.643610 
1162.000000	1.638770 
1161.000000	1.634335 
1160.000000	1.630306 
1159.000000	1.626849 
1158.000000	1.623845 
1157.000000	1.621389 
1156.000000	1.619338 
1155.000000	1.617693 
1154.000000	1.616287 
1153.000000	1.615023 
1152.000000	1.613831 
1151.000000	1.612567 
1150.000000	1.611137 
1149.000000	1.609492 
1148.000000	1.607656 
1147.000000	1.605606 
1146.000000	1.603388 
1145.000000	1.601076 
1144.000000	1.598715 
1143.000000	1.596307 
1142.000000	1.593852 
1141.000000	1.591372 
1140.000000	1.588821 
1139.000000	1.586151 
1138.000000	1.583266 
1137.000000	1.580119 
1136.000000	1.576757 
1135.000000	1.573181 
1134.000000	1.569366 
1133.000000	1.565361 
1132.000000	1.561212 
1131.000000	1.556921 
1130.000000	1.552581 
1129.000000	1.548075 
1128.000000	1.543426 
1127.000000	1.538658 
1126.000000	1.533699 
1125.000000	1.528549 
1124.000000	1.523208 
1123.000000	1.517724 
1122.000000	1.512122 
1121.000000	1.506423 
1120.000000	1.500725 
1119.000000	1.495051 
1118.000000	1.489472 
1117.000000	1.484036 
1116.000000	1.478767 
1115.000000	1.473665 
1114.000000	1.468753 
1113.000000	1.464033 
1112.000000	1.459479 
1111.000000	1.455163 
1110.000000	1.451086 
1109.000000	1.447224 
1108.000000	1.443672 
1107.000000	1.440429 
1106.000000	1.437520 
1105.000000	1.435017 
1104.000000	1.432943 
1103.000000	1.431226 
1102.000000	1.429891 
1101.000000	1.428842 
1100.000000	1.428031 
1099.000000	1.427435 
1098.000000	1.426959 
1097.000000	1.426625 
1096.000000	1.426386 
1095.000000	1.426219 
1094.000000	1.426148 
1093.000000	1.426219 
1092.000000	1.426410 
1091.000000	1.426744 
1090.000000	1.427173 
1089.000000	1.427698 
1088.000000	1.428341 
1087.000000	1.428937 
1086.000000	1.429510 
1085.000000	1.429891 
1084.000000	1.430082 
1083.000000	1.430034 
1082.000000	1.429772 
1081.000000	1.429319 
1080.000000	1.428794 
1079.000000	1.428270 
1078.000000	1.427888 
1077.000000	1.427769 
1076.000000	1.428008 
1075.000000	1.428604 
1074.000000	1.429533 
1073.000000	1.430773 
1072.000000	1.432156 
1071.000000	1.433563 
1070.000000	1.434850 
1069.000000	1.435995 
1068.000000	1.436853 
1067.000000	1.437425 
1066.000000	1.437616 
1065.000000	1.437354 
1064.000000	1.436519 
1063.000000	1.434755 
1062.000000	1.431798 
1061.000000	1.427173 
1060.000000	1.420474 
1059.000000	1.411342 
1058.000000	1.399660 
1057.000000	1.385545 
1056.000000	1.369690 
1055.000000	1.352906 
1054.000000	1.336455 
1053.000000	1.321673 
1052.000000	1.309895 
1051.000000	1.302075 
1050.000000	1.298880 
1049.000000	1.300382 
1048.000000	1.306152 
1047.000000	1.315259 
1046.000000	1.326513 
1045.000000	1.338696 
1044.000000	1.350593 
1043.000000	1.361298 
1042.000000	1.370191 
1041.000000	1.377010 
1040.000000	1.381778 
1039.000000	1.384735 
1038.000000	1.386165 
1037.000000	1.386356 
1036.000000	1.385688 
1035.000000	1.384377 
1034.000000	1.382637 
1033.000000	1.380515 
1032.000000	1.378202 
1031.000000	1.375722 
1030.000000	1.373219 
1029.000000	1.370716 
1028.000000	1.368260 
1027.000000	1.365971 
1026.000000	1.363921 
1025.000000	1.362156 
1024.000000	1.360702 
1023.000000	1.359748 
1022.000000	1.359200 
1021.000000	1.359128 
1020.000000	1.359581 
1019.000000	1.360511 
1018.000000	1.361942 
1017.000000	1.363730 
1016.000000	1.365852 
1015.000000	1.368236 
1014.000000	1.370859 
1013.000000	1.373648 
1012.000000	1.376533 
1011.000000	1.379394 
1010.000000	1.382279 
1009.000000	1.385021 
1008.000000	1.387596 
1007.000000	1.389980 
1006.000000	1.392126 
1005.000000	1.393914 
1004.000000	1.395416 
1003.000000	1.396608 
1002.000000	1.397466 
1001.000000	1.398062 
1000.000000	1.398420 
999.000000	 1.398539 
998.000000	 1.398491 
997.000000	 1.398205 
996.000000	 1.397800 
995.000000	 1.397252 
994.000000	 1.396608 
993.000000	 1.395893 
992.000000	 1.395082 
991.000000	 1.394176 
990.000000	 1.393151 
989.000000	 1.392006 
988.000000	 1.390695 
987.000000	 1.389193 
986.000000	 1.387500 
985.000000	 1.385569 
984.000000	 1.383447 
983.000000	 1.381206 
982.000000	 1.378893 
981.000000	 1.376581 
980.000000	 1.374316 
979.000000	 1.372146 
978.000000	 1.370024 
977.000000	 1.367926 
976.000000	 1.365828 
975.000000	 1.363658 
974.000000	 1.361370 
973.000000	 1.358914 
972.000000	 1.356244 
971.000000	 1.353430 
970.000000	 1.350450 
969.000000	 1.347351 
968.000000	 1.344203 
967.000000	 1.340937 
966.000000	 1.337599 
965.000000	 1.334142 
964.000000	 1.330542 
963.000000	 1.326847 
962.000000	 1.323032 
961.000000	 1.319146 
960.000000	 1.315212 
959.000000	 1.311326 
958.000000	 1.307511 
957.000000	 1.303768 
956.000000	 1.300144 
955.000000	 1.296639 
954.000000	 1.293230 
953.000000	 1.289892 
952.000000	 1.286673 
951.000000	 1.283526 
950.000000	 1.280546 
949.000000	 1.277804 
948.000000	 1.275300 
947.000000	 1.272988 
946.000000	 1.270937 
945.000000	 1.269125 
944.000000	 1.267433 
943.000000	 1.265859 
942.000000	 1.264286 
941.000000	 1.262640 
940.000000	 1.260852 
939.000000	 1.258897 
938.000000	 1.256799 
937.000000	 1.254558 
936.000000	 1.252198 
935.000000	 1.249766 
934.000000	 1.247310 
933.000000	 1.244878 
932.000000	 1.242518 
931.000000	 1.240229 
930.000000	 1.237988 
929.000000	 1.235771 
928.000000	 1.233553 
927.000000	 1.231336 
926.000000	 1.229095 
925.000000	 1.226806 
924.000000	 1.224470 
923.000000	 1.222062 
922.000000	 1.219582 
921.000000	 1.216983 
920.000000	 1.214241 
919.000000	 1.211309 
918.000000	 1.208138 
917.000000	 1.204776 
916.000000	 1.201200 
915.000000	 1.197433 
914.000000	 1.193547 
913.000000	 1.189613 
912.000000	 1.185703 
911.000000	 1.181888 
910.000000	 1.178240 
909.000000	 1.174831 
908.000000	 1.171731 
907.000000	 1.168894 
906.000000	 1.166367 
905.000000	 1.164150 
904.000000	 1.162219 
903.000000	 1.160526 
902.000000	 1.159024 
901.000000	 1.157617 
900.000000	 1.156234 
899.000000	 1.154851 
898.000000	 1.153349 
897.000000	 1.151657 
896.000000	 1.149797 
895.000000	 1.147675 
894.000000	 1.145267 
893.000000	 1.142501 
892.000000	 1.139307 
891.000000	 1.135540 
890.000000	 1.131105 
889.000000	 1.125884 
888.000000	 1.119756 
887.000000	 1.112723 
886.000000	 1.104784 
885.000000	 1.096010 
884.000000	 1.086664 
883.000000	 1.076960 
882.000000	 1.067256 
881.000000	 1.057934 
880.000000	 1.049351 
879.000000	 1.041889 
878.000000	 1.035857 
877.000000	 1.031541 
876.000000	 1.029062 
875.000000	 1.028513 
874.000000	 1.029801 
873.000000	 1.032710 
872.000000	 1.037001 
871.000000	 1.042366 
870.000000	 1.048421 
869.000000	 1.054811 
868.000000	 1.061201 
867.000000	 1.067376 
866.000000	 1.073074 
865.000000	 1.078152 
864.000000	 1.082611 
863.000000	 1.086354 
862.000000	 1.089310 
861.000000	 1.091504 
860.000000	 1.092958 
859.000000	 1.093721 
858.000000	 1.093912 
857.000000	 1.093554 
856.000000	 1.092815 
855.000000	 1.091837 
854.000000	 1.090693 
853.000000	 1.089501 
852.000000	 1.088333 
851.000000	 1.087212 
850.000000	 1.086139 
849.000000	 1.085019 
848.000000	 1.083803 
847.000000	 1.082420 
846.000000	 1.080799 
845.000000	 1.078844 
844.000000	 1.076412 
843.000000	 1.073455 
842.000000	 1.069879 
841.000000	 1.065492 
840.000000	 1.060199 
839.000000	 1.053810 
838.000000	 1.046061 
837.000000	 1.036739 
836.000000	 1.025700 
835.000000	 1.012778 
834.000000	 0.997853 
833.000000	 0.981044 
832.000000	 0.962638 
831.000000	 0.943088 
830.000000	 0.923132 
829.000000	 0.903606 
828.000000	 0.885653 
827.000000	 0.870251 
826.000000	 0.858330 
825.000000	 0.850582 
824.000000	 0.847387 
823.000000	 0.848746 
822.000000	 0.854158 
821.000000	 0.862932 
820.000000	 0.874042 
819.000000	 0.886392 
818.000000	 0.899004 
817.000000	 0.910854 
816.000000	 0.921416 
815.000000	 0.930237 
814.000000	 0.937199 
813.000000	 0.942301 
812.000000	 0.945854 
811.000000	 0.948047 
810.000000	 0.949239 
809.000000	 0.949621 
808.000000	 0.949478 
807.000000	 0.948977 
806.000000	 0.948309 
805.000000	 0.947475 
804.000000	 0.946664 
803.000000	 0.945973 
802.000000	 0.945377 
801.000000	 0.945019 
800.000000	 0.944924 
799.000000	 0.945186 
798.000000	 0.945806 
797.000000	 0.946807 
796.000000	 0.948286 
795.000000	 0.950193 
794.000000	 0.952458 
793.000000	 0.955057 
792.000000	 0.957846 
791.000000	 0.960755 
790.000000	 0.963664 
789.000000	 0.966477 
788.000000	 0.969004 
787.000000	 0.971293 
786.000000	 0.973248 
785.000000	 0.974869 
784.000000	 0.976204 
783.000000	 0.977301 
782.000000	 0.978159 
781.000000	 0.978803 
780.000000	 0.979256 
779.000000	 0.979471 
778.000000	 0.979447 
777.000000	 0.979232 
776.000000	 0.978779 
775.000000	 0.978112 
774.000000	 0.977253 
773.000000	 0.976300 
772.000000	 0.975275 
771.000000	 0.974249 
770.000000	 0.973248 
769.000000	 0.972318 
768.000000	 0.971460 
767.000000	 0.970649 
766.000000	 0.969839 
765.000000	 0.969052 
764.000000	 0.968265 
763.000000	 0.967454 
762.000000	 0.966620 
761.000000	 0.965785 
760.000000	 0.964927 
759.000000	 0.964117 
758.000000	 0.963330 
757.000000	 0.962567 
756.000000	 0.961828 
755.000000	 0.961041 
754.000000	 0.960206 
753.000000	 0.959229 
752.000000	 0.958037 
751.000000	 0.956630 
750.000000	 0.955009 
749.000000	 0.953173 
748.000000	 0.951147 
747.000000	 0.949048 
746.000000	 0.946855 
745.000000	 0.944685 
744.000000	 0.942564 
743.000000	 0.940489 
742.000000	 0.938463 
741.000000	 0.936460 
740.000000	 0.934433 
739.000000	 0.932383 
738.000000	 0.930213 
737.000000	 0.927877 
736.000000	 0.925397 
735.000000	 0.922751 
734.000000	 0.919985 
733.000000	 0.917100 
732.000000	 0.914168 
731.000000	 0.911164 
730.000000	 0.908160 
729.000000	 0.905132 
728.000000	 0.902152 
727.000000	 0.899243 
726.000000	 0.896334 
725.000000	 0.893473 
724.000000	 0.890660 
723.000000	 0.887894 
722.000000	 0.885152 
721.000000	 0.882506 
720.000000	 0.879907 
719.000000	 0.877380 
718.000000	 0.874900 
717.000000	 0.872468 
716.000000	 0.870013 
715.000000	 0.867486 
714.000000	 0.864863 
713.000000	 0.862097 
712.000000	 0.859165 
711.000000	 0.856041 
710.000000	 0.852775 
709.000000	 0.849342 
708.000000	 0.845766 
707.000000	 0.842165 
706.000000	 0.838518 
705.000000	 0.834822 
704.000000	 0.831079 
703.000000	 0.827264 
702.000000	 0.823330 
701.000000	 0.819182 
700.000000	 0.814747 
699.000000	 0.809907 
698.000000	 0.804591 
697.000000	 0.798606 
696.000000	 0.791978 
695.000000	 0.784707 
694.000000	 0.776839 
693.000000	 0.768685 
692.000000	 0.760507 
691.000000	 0.752735 
690.000000	 0.745773 
689.000000	 0.740003 
688.000000	 0.735688 
687.000000	 0.732898 
686.000000	 0.731635 
685.000000	 0.731635 
684.000000	 0.732517 
683.000000	 0.733900 
682.000000	 0.735354 
681.000000	 0.736546 
680.000000	 0.737237 
679.000000	 0.737333 
678.000000	 0.736784 
677.000000	 0.735735 
676.000000	 0.734305 
675.000000	 0.732517 
674.000000	 0.730538 
673.000000	 0.728392 
672.000000	 0.726103 
671.000000	 0.723719 
670.000000	 0.721240 
669.000000	 0.718688 
668.000000	 0.716161 
667.000000	 0.713706 
666.000000	 0.711345 
665.000000	 0.709152 
664.000000	 0.707101 
663.000000	 0.705146 
662.000000	 0.703239 
661.000000	 0.701284 
660.000000	 0.699186 
659.000000	 0.696897 
658.000000	 0.694489 
657.000000	 0.691890 
656.000000	 0.689196 
655.000000	 0.686478 
654.000000	 0.683832 
653.000000	 0.681209 
652.000000	 0.678730 
651.000000	 0.676321 
650.000000	 0.673961 
649.000000	 0.671577 
648.000000	 0.669145 
647.000000	 0.666522 
646.000000	 0.663709 
645.000000	 0.660729 
644.000000	 0.657510 
643.000000	 0.654196 
642.000000	 0.650811 
641.000000	 0.647425 
640.000000	 0.644111 
639.000000	 0.640940 
638.000000	 0.637888 
637.000000	 0.634932 
636.000000	 0.632047 
635.000000	 0.629210 
634.000000	 0.626420 
633.000000	 0.623607 
632.000000	 0.620818 
631.000000	 0.618028 
630.000000	 0.615286 
629.000000	 0.612545 
628.000000	 0.609803 
627.000000	 0.607109 
626.000000	 0.604486 
625.000000	 0.601911 
624.000000	 0.599431 
623.000000	 0.597047 
622.000000	 0.594758 
621.000000	 0.592589 
620.000000	 0.590419 
619.000000	 0.588178 
618.000000	 0.585722 
617.000000	 0.582957 
616.000000	 0.579667 
615.000000	 0.575780 
614.000000	 0.571274 
613.000000	 0.566172 
612.000000	 0.560569 
611.000000	 0.554704 
610.000000	 0.548744 
609.000000	 0.543045 
608.000000	 0.537800 
607.000000	 0.533223 
606.000000	 0.529456 
605.000000	 0.526499 
604.000000	 0.524353 
603.000000	 0.522851 
602.000000	 0.521826 
601.000000	 0.521135 
600.000000	 0.520610 
599.000000	 0.520133 
598.000000	 0.519633 
597.000000	 0.519084 
596.000000	 0.518488 
595.000000	 0.517868 
594.000000	 0.517225 
593.000000	 0.516581 
592.000000	 0.515961 
591.000000	 0.515341 
590.000000	 0.514674 
589.000000	 0.513935 
588.000000	 0.513195 
587.000000	 0.512337 
586.000000	 0.511407 
585.000000	 0.510382 
584.000000	 0.509285 
583.000000	 0.508093 
582.000000	 0.506854 
581.000000	 0.505518 
580.000000	 0.504159 
579.000000	 0.502777 
578.000000	 0.501441 
577.000000	 0.500130 
576.000000	 0.498914 
575.000000	 0.497770 
574.000000	 0.496721 
573.000000	 0.495839 
572.000000	 0.495004 
571.000000	 0.494265 
570.000000	 0.493597 
569.000000	 0.492930 
568.000000	 0.492191 
567.000000	 0.491356 
566.000000	 0.490355 
565.000000	 0.489163 
564.000000	 0.487732 
563.000000	 0.486087 
562.000000	 0.484228 
561.000000	 0.482225 
560.000000	 0.480079 
559.000000	 0.477862 
558.000000	 0.475645 
557.000000	 0.473403 
556.000000	 0.471210 
555.000000	 0.469064 
554.000000	 0.467014 
553.000000	 0.465059 
552.000000	 0.463247 
551.000000	 0.461626 
550.000000	 0.460171 
549.000000	 0.458860 
548.000000	 0.457668 
547.000000	 0.456571 
546.000000	 0.455498 
545.000000	 0.454425 
544.000000	 0.453281 
543.000000	 0.452041 
542.000000	 0.450682 
541.000000	 0.449132 
540.000000	 0.447368 
539.000000	 0.445461 
538.000000	 0.443434 
537.000000	 0.441288 
536.000000	 0.439095 
535.000000	 0.436854 
534.000000	 0.434589 
533.000000	 0.432324 
532.000000	 0.429987 
531.000000	 0.427603 
530.000000	 0.425148 
529.000000	 0.422620 
528.000000	 0.419998 
527.000000	 0.417327 
526.000000	 0.414633 
525.000000	 0.411963 
524.000000	 0.409364 
523.000000	 0.406885 
522.000000	 0.404500 
521.000000	 0.402235 
520.000000	 0.400066 
519.000000	 0.398015 
518.000000	 0.395965 
517.000000	 0.393915 
516.000000	 0.391840 
515.000000	 0.389742 
514.000000	 0.387525 
513.000000	 0.385212 
512.000000	 0.382804 
511.000000	 0.380301 
510.000000	 0.377678 
509.000000	 0.374984 
508.000000	 0.372171 
507.000000	 0.369262 
506.000000	 0.366282 
505.000000	 0.363230 
504.000000	 0.360131 
503.000000	 0.356960 
502.000000	 0.353741 
501.000000	 0.350546 
500.000000	 0.347304 
499.000000	 0.344038 
498.000000	 0.340795 
497.000000	 0.337505 
496.000000	 0.334167 
495.000000	 0.330781 
494.000000	 0.327348 
493.000000	 0.323891 
492.000000	 0.320386 
491.000000	 0.316810 
490.000000	 0.313258 
489.000000	 0.309658 
488.000000	 0.305986 
487.000000	 0.302195 
486.000000	 0.298380 
485.000000	 0.294470 
484.000000	 0.290465 
483.000000	 0.286436 
482.000000	 0.282430 
481.000000	 0.278544 
480.000000	 0.274920 
479.000000	 0.271511 
478.000000	 0.268340 
477.000000	 0.265455 
476.000000	 0.262808 
475.000000	 0.260305 
474.000000	 0.257849 
473.000000	 0.255417 
472.000000	 0.252890 
471.000000	 0.250267 
470.000000	 0.247502 
469.000000	 0.244569 
468.000000	 0.241518 
467.000000	 0.238299 
466.000000	 0.234961 
465.000000	 0.231456 
464.000000	 0.227856 
463.000000	 0.224137 
462.000000	 0.220346 
461.000000	 0.216460 
460.000000	 0.212574 
459.000000	 0.208663 
458.000000	 0.204801 
457.000000	 0.200963 
456.000000	 0.197219 
455.000000	 0.193572 
454.000000	 0.190019 
453.000000	 0.186562 
452.000000	 0.183224 
451.000000	 0.179934 
450.000000	 0.176787 
449.000000	 0.173759 
448.000000	 0.170850 
447.000000	 0.168108 
446.000000	 0.165510 
445.000000	 0.163030 
444.000000	 0.160670 
443.000000	 0.158381 
442.000000	 0.156116 
441.000000	 0.153827 
440.000000	 0.151467 
439.000000	 0.148916 
438.000000	 0.146174 
437.000000	 0.143218 
436.000000	 0.140047 
435.000000	 0.136709 
434.000000	 0.133204 
433.000000	 0.129652 
432.000000	 0.126099 
431.000000	 0.122570 
430.000000	 0.119090 
429.000000	 0.115728 
428.000000	 0.112438 
427.000000	 0.109243 
426.000000	 0.106096 
425.000000	 0.102949 
424.000000	 0.099873 
423.000000	 0.096774 
422.000000	 0.093650 
421.000000	 0.090575 
420.000000	 0.087523 
419.000000	 0.084495 
418.000000	 0.081562 
417.000000	 0.078654 
416.000000	 0.075793 
415.000000	 0.073027 
414.000000	 0.070309 
413.000000	 0.067663 
412.000000	 0.065135 
411.000000	 0.062632 
410.000000	 0.060200 
409.000000	 0.057888 
408.000000	 0.055623 
407.000000	 0.053501 
406.000000	 0.051450 
405.000000	 0.049519 
404.000000	 0.047659 
403.000000	 0.045824 
402.000000	 0.044035 
401.000000	 0.042247 
400.000000	 0.040411 
399.000000	 0.038552 
398.000000	 0.036644 
397.000000	 0.034713 
396.000000	 0.032782 
395.000000	 0.030922 
394.000000	 0.029110 
393.000000	 0.027370 
392.000000	 0.025725 
391.000000	 0.024151 
390.000000	 0.022649 
389.000000	 0.021243 
388.000000	 0.019907 
387.000000	 0.018668 
386.000000	 0.017571 
385.000000	 0.016593 
384.000000	 0.015735 
383.000000	 0.015044 
382.000000	 0.014495 
381.000000	 0.014019 
380.000000	 0.013613 
379.000000	 0.013256 
378.000000	 0.012898 
377.000000	 0.012493 
376.000000	 0.012063 
375.000000	 0.011587 
374.000000	 0.011038 
373.000000	 0.010442 
372.000000	 0.009846 
371.000000	 0.009226 
370.000000	 0.008559 

